##TITLE=No Description
##DATA TYPE=INFRARED SPECTRUM
##XUNITS=1/CM
##YUNITS=%T
400.236149  	138.664118 
401.200574  	112.898713 
402.164998  	75.071746 
403.129423  	75.397170 
404.093847  	76.920989 
405.058272  	51.374062 
406.022696  	48.579643 
406.987120  	75.166905 
407.951545  	100.973718 
408.915969  	97.908837 
409.880394  	90.059087 
410.844818  	91.095603 
411.809243  	101.228559 
412.773667  	103.435041 
413.738092  	89.622681 
414.702516  	77.630374 
415.666941  	78.313068 
416.631365  	84.871423 
417.595789  	85.217789 
418.560214  	90.270737 
419.524638  	91.421823 
420.489063  	83.770368 
421.453487  	80.298081 
422.417912  	80.784116 
423.382336  	84.592375 
424.346761  	82.492715 
425.311185  	76.502455 
426.275610  	77.841272 
427.240034  	81.268161 
428.204458  	80.878112 
429.168883  	79.773975 
430.133307  	79.468592 
431.097732  	78.604506 
432.062156  	77.959408 
433.026581  	76.586032 
433.991005  	76.176189 
434.955430  	76.718599 
435.919854  	76.868762 
436.884279  	76.069498 
437.848703  	77.144515 
438.813127  	79.261497 
439.777552  	80.786858 
440.741976  	81.021925 
441.706401  	82.413502 
442.670825  	83.286782 
443.635250  	82.904262 
444.599674  	82.191469 
445.564099  	81.518514 
446.528523  	81.128089 
447.492948  	82.618044 
448.457372  	84.921938 
449.421796  	83.877583 
450.386221  	82.308468 
451.350645  	82.583543 
452.315070  	82.593585 
453.279494  	81.250631 
454.243919  	82.415306 
455.208343  	83.688966 
456.172768  	83.736708 
457.137192  	83.137199 
458.101617  	82.144529 
459.066041  	81.937692 
460.030466  	81.948771 
460.994890  	82.141733 
461.959314  	82.432565 
462.923739  	83.065004 
463.888163  	83.090148 
464.852588  	82.359574 
465.817012  	81.845694 
466.781437  	81.927116 
467.745861  	81.726219 
468.710286  	81.036104 
469.674710  	80.566677 
470.639135  	80.854152 
471.603559  	81.224154 
472.567983  	81.904233 
473.532408  	81.959931 
474.496832  	81.133286 
475.461257  	81.152478 
476.425681  	80.970874 
477.390106  	81.792820 
478.354530  	82.640790 
479.318955  	81.696479 
480.283379  	80.745890 
481.247804  	81.304691 
482.212228  	81.453711 
483.176652  	81.849103 
484.141077  	81.815095 
485.105501  	81.198935 
486.069926  	80.460789 
487.034350  	80.769995 
487.998775  	80.900126 
488.963199  	80.921704 
489.927624  	80.905915 
490.892048  	80.343413 
491.856473  	79.890956 
492.820897  	80.250325 
493.785321  	80.169168 
494.749746  	79.768677 
495.714170  	79.422567 
496.678595  	79.006416 
497.643019  	78.723710 
498.607444  	78.285131 
499.571868  	77.561765 
500.536293  	77.549421 
501.500717  	77.288216 
502.465142  	76.971122 
503.429566  	77.217795 
504.393990  	76.787557 
505.358415  	76.697028 
506.322839  	76.578700 
507.287264  	76.619861 
508.251688  	78.302827 
509.216113  	79.905914 
510.180537  	80.274735 
511.144962  	80.693008 
512.109386  	81.324716 
513.073811  	81.618481 
514.038235  	81.345110 
515.002660  	81.271380 
515.967084  	81.049861 
516.931508  	80.369841 
517.895933  	80.909953 
518.860357  	80.959631 
519.824782  	80.612350 
520.789206  	81.533244 
521.753631  	82.104016 
522.718055  	82.079835 
523.682480  	81.994062 
524.646904  	81.747000 
525.611329  	81.200501 
526.575753  	81.366334 
527.540177  	82.242931 
528.504602  	82.566854 
529.469026  	82.638424 
530.433451  	82.668448 
531.397875  	82.563635 
532.362300  	82.402306 
533.326724  	82.723016 
534.291149  	82.745070 
535.255573  	82.820229 
536.219998  	82.710038 
537.184422  	83.083344 
538.148846  	83.084068 
539.113271  	83.242412 
540.077695  	83.288338 
541.042120  	83.637362 
542.006544  	83.766649 
542.970969  	83.617297 
543.935393  	83.441154 
544.899818  	83.418919 
545.864242  	83.465291 
546.828667  	83.683943 
547.793091  	83.139410 
548.757515  	83.222262 
549.721940  	83.647369 
550.686364  	83.718193 
551.650789  	83.583729 
552.615213  	83.197701 
553.579638  	83.539878 
554.544062  	83.760835 
555.508487  	83.704320 
556.472911  	83.597924 
557.437336  	83.366139 
558.401760  	83.623332 
559.366184  	83.932209 
560.330609  	83.703675 
561.295033  	83.516993 
562.259458  	83.591292 
563.223882  	83.289546 
564.188307  	83.123736 
565.152731  	83.462295 
566.117156  	83.640761 
567.081580  	83.357386 
568.046005  	83.223061 
569.010429  	83.134607 
569.974853  	83.025394 
570.939278  	83.028312 
571.903702  	83.193697 
572.868127  	83.243036 
573.832551  	83.095941 
574.796976  	83.122687 
575.761400  	82.640073 
576.725825  	82.741570 
577.690249  	82.932907 
578.654674  	82.931140 
579.619098  	82.712408 
580.583523  	82.373025 
581.547947  	82.838890 
582.512371  	83.208845 
583.476796  	83.110398 
584.441220  	82.851742 
585.405645  	82.775136 
586.370069  	83.156230 
587.334494  	83.363650 
588.298918  	83.258845 
589.263343  	83.001828 
590.227767  	82.987997 
591.192192  	82.726065 
592.156616  	82.415202 
593.121040  	82.849616 
594.085465  	83.043392 
595.049889  	82.934193 
596.014314  	82.817890 
596.978738  	82.914828 
597.943163  	83.001902 
598.907587  	82.778156 
599.872012  	82.343252 
600.836436  	82.588854 
601.800861  	82.793374 
602.765285  	82.673835 
603.729709  	82.640686 
604.694134  	82.722852 
605.658558  	82.752089 
606.622983  	82.730908 
607.587407  	82.564400 
608.551832  	82.510502 
609.516256  	82.626994 
610.480681  	82.522556 
611.445105  	82.391663 
612.409530  	82.524547 
613.373954  	82.465496 
614.338378  	82.237851 
615.302803  	81.989689 
616.267227  	81.969932 
617.231652  	82.204020 
618.196076  	82.146806 
619.160501  	81.983713 
620.124925  	81.777588 
621.089350  	81.658806 
622.053774  	81.604489 
623.018199  	81.819700 
623.982623  	81.748657 
624.947047  	81.496561 
625.911472  	81.131463 
626.875896  	81.116976 
627.840321  	81.060845 
628.804745  	81.026708 
629.769170  	80.608362 
630.733594  	79.993839 
631.698019  	79.873976 
632.662443  	80.182047 
633.626868  	80.453938 
634.591292  	80.702895 
635.555717  	80.697460 
636.520141  	81.025852 
637.484565  	81.106080 
638.448990  	81.138641 
639.413414  	81.026562 
640.377839  	81.003176 
641.342263  	80.956103 
642.306688  	80.709368 
643.271112  	80.675982 
644.235537  	80.668787 
645.199961  	80.605996 
646.164386  	80.682742 
647.128810  	80.731643 
648.093234  	80.570634 
649.057659  	80.357351 
650.022083  	80.369157 
650.986508  	80.474879 
651.950932  	80.346470 
652.915357  	80.029825 
653.879781  	79.972446 
654.844206  	80.063327 
655.808630  	79.965288 
656.773055  	79.857383 
657.737479  	79.874823 
658.701903  	79.607357 
659.666328  	79.403803 
660.630752  	79.420896 
661.595177  	79.378747 
662.559601  	79.261059 
663.524026  	79.154126 
664.488450  	79.036387 
665.452875  	78.814808 
666.417299  	78.726028 
667.381724  	79.009676 
668.346148  	78.741762 
669.310572  	78.113722 
670.274997  	77.983183 
671.239421  	77.928244 
672.203846  	77.870257 
673.168270  	77.674514 
674.132695  	77.248095 
675.097119  	76.862274 
676.061544  	76.638579 
677.025968  	76.508695 
677.990393  	76.313714 
678.954817  	76.072114 
679.919241  	75.883093 
680.883666  	75.641876 
681.848090  	75.595003 
682.812515  	75.620588 
683.776939  	75.520325 
684.741364  	75.418361 
685.705788  	75.154808 
686.670213  	74.931352 
687.634637  	74.536131 
688.599062  	74.105589 
689.563486  	73.871773 
690.527910  	73.763358 
691.492335  	73.353911 
692.456759  	72.894321 
693.421184  	72.267009 
694.385608  	71.612932 
695.350033  	70.957685 
696.314457  	70.348164 
697.278882  	69.547639 
698.243306  	68.574198 
699.207731  	67.610053 
700.172155  	66.781589 
701.136580  	65.863114 
702.101004  	64.921737 
703.065428  	64.157794 
704.029853  	63.511369 
704.994277  	62.676662 
705.958702  	61.832049 
706.923126  	60.913736 
707.887551  	59.955826 
708.851975  	59.027595 
709.816400  	57.927485 
710.780824  	56.664438 
711.745249  	55.292095 
712.709673  	53.858024 
713.674097  	52.301789 
714.638522  	50.701070 
715.602946  	48.988367 
716.567371  	47.159495 
717.531795  	45.485119 
718.496220  	43.852207 
719.460644  	42.365273 
720.425069  	41.049701 
721.389493  	40.063448 
722.353918  	39.454884 
723.318342  	39.449791 
724.282766  	40.270269 
725.247191  	42.046613 
726.211615  	44.556119 
727.176040  	47.533625 
728.140464  	50.496019 
729.104889  	53.352622 
730.069313  	56.151511 
731.033738  	59.212886 
731.998162  	62.251181 
732.962587  	65.294541 
733.927011  	68.353121 
734.891435  	71.350868 
735.855860  	74.273039 
736.820284  	77.076912 
737.784709  	79.647501 
738.749133  	81.904698 
739.713558  	83.698321 
740.677982  	85.126224 
741.642407  	86.175087 
742.606831  	87.040666 
743.571256  	87.641776 
744.535680  	87.889588 
745.500104  	88.079176 
746.464529  	88.197877 
747.428953  	88.211913 
748.393378  	88.240486 
749.357802  	88.091775 
750.322227  	87.972089 
751.286651  	87.851254 
752.251076  	87.692296 
753.215500  	87.610117 
754.179925  	87.548856 
755.144349  	87.455016 
756.108774  	87.442663 
757.073198  	87.279430 
758.037622  	87.056723 
759.002047  	86.902963 
759.966471  	86.817496 
760.930896  	86.643058 
761.895320  	86.500468 
762.859745  	86.420646 
763.824169  	86.338411 
764.788594  	86.174338 
765.753018  	85.939630 
766.717443  	85.687205 
767.681867  	85.508032 
768.646291  	85.317237 
769.610716  	85.126955 
770.575140  	84.978209 
771.539565  	84.922440 
772.503989  	84.675264 
773.468414  	84.460837 
774.432838  	84.352790 
775.397263  	84.250263 
776.361687  	84.088313 
777.326112  	83.911103 
778.290536  	83.659024 
779.254960  	83.520217 
780.219385  	83.327087 
781.183809  	83.391587 
782.148234  	83.031119 
783.112658  	82.996079 
784.077083  	82.800357 
785.041507  	82.238702 
786.005932  	81.942925 
786.970356  	81.562843 
787.934781  	81.129305 
788.899205  	80.814273 
789.863629  	80.523567 
790.828054  	80.133179 
791.792478  	79.718223 
792.756903  	79.625609 
793.721327  	79.905049 
794.685752  	80.289130 
795.650176  	80.914345 
796.614601  	81.653434 
797.579025  	82.234231 
798.543450  	82.352514 
799.507874  	82.357094 
800.472298  	82.417847 
801.436723  	82.378917 
802.401147  	82.259065 
803.365572  	82.133815 
804.329996  	82.047880 
805.294421  	82.038960 
806.258845  	81.987877 
807.223270  	81.953399 
808.187694  	81.942989 
809.152119  	81.992289 
810.116543  	81.940025 
811.080967  	81.824440 
812.045392  	81.756572 
813.009816  	81.745434 
813.974241  	81.763209 
814.938665  	81.761362 
815.903090  	81.680407 
816.867514  	81.577086 
817.831939  	81.549012 
818.796363  	81.564902 
819.760788  	81.529864 
820.725212  	81.417928 
821.689637  	81.248108 
822.654061  	81.134513 
823.618485  	81.024742 
824.582910  	80.877988 
825.547334  	80.645724 
826.511759  	80.404194 
827.476183  	80.282364 
828.440608  	80.218896 
829.405032  	79.967460 
830.369457  	79.623884 
831.333881  	79.392015 
832.298306  	79.206412 
833.262730  	78.945454 
834.227154  	78.661430 
835.191579  	78.439937 
836.156003  	78.101233 
837.120428  	77.668802 
838.084852  	77.251849 
839.049277  	76.934371 
840.013701  	76.607920 
840.978126  	76.214742 
841.942550  	75.822937 
842.906975  	75.448649 
843.871399  	75.066249 
844.835823  	74.717761 
845.800248  	74.476706 
846.764672  	74.411715 
847.729097  	74.543836 
848.693521  	74.816292 
849.657946  	75.241614 
850.622370  	75.719342 
851.586795  	76.085855 
852.551219  	76.327618 
853.515644  	76.554012 
854.480068  	76.783447 
855.444492  	76.895995 
856.408917  	77.002053 
857.373341  	77.232258 
858.337766  	77.398102 
859.302190  	77.473463 
860.266615  	77.450422 
861.231039  	77.334882 
862.195464  	77.157539 
863.159888  	76.933148 
864.124313  	76.599574 
865.088737  	76.082264 
866.053161  	75.364125 
867.017586  	74.318323 
867.982010  	72.957589 
868.946435  	71.264958 
869.910859  	69.189718 
870.875284  	67.076491 
871.839708  	65.949197 
872.804133  	66.716311 
873.768557  	68.909958 
874.732982  	71.242812 
875.697406  	73.137198 
876.661831  	74.546102 
877.626255  	75.661131 
878.590679  	76.628032 
879.555104  	77.551047 
880.519528  	78.396775 
881.483953  	79.074448 
882.448377  	79.659741 
883.412802  	80.233327 
884.377226  	80.741992 
885.341651  	81.027919 
886.306075  	81.156107 
887.270500  	81.262972 
888.234924  	81.443520 
889.199348  	81.473271 
890.163773  	81.388278 
891.128197  	81.366329 
892.092622  	81.327089 
893.057046  	81.212815 
894.021471  	81.098807 
894.985895  	81.077226 
895.950320  	80.997384 
896.914744  	80.889944 
897.879169  	80.869765 
898.843593  	80.883428 
899.808017  	80.938025 
900.772442  	80.994683 
901.736866  	80.967324 
902.701291  	81.084997 
903.665715  	81.301745 
904.630140  	81.445215 
905.594564  	81.546953 
906.558989  	81.683135 
907.523413  	81.853389 
908.487838  	81.941339 
909.452262  	81.962089 
910.416686  	82.103749 
911.381111  	82.261895 
912.345535  	82.279357 
913.309960  	82.223176 
914.274384  	82.182150 
915.238809  	82.175810 
916.203233  	82.097664 
917.167658  	82.096260 
918.132082  	82.097150 
919.096507  	82.065226 
920.060931  	82.030726 
921.025355  	81.965185 
921.989780  	81.872719 
922.954204  	81.780524 
923.918629  	81.668110 
924.883053  	81.567185 
925.847478  	81.481213 
926.811902  	81.415336 
927.776327  	81.340438 
928.740751  	81.207142 
929.705176  	81.146785 
930.669600  	81.065832 
931.634024  	80.891773 
932.598449  	80.787240 
933.562873  	80.725802 
934.527298  	80.650461 
935.491722  	80.488798 
936.456147  	80.351974 
937.420571  	80.307886 
938.384996  	80.196848 
939.349420  	80.006370 
940.313845  	79.881774 
941.278269  	79.808827 
942.242694  	79.694889 
943.207118  	79.530651 
944.171542  	79.365183 
945.135967  	79.224586 
946.100391  	79.083690 
947.064816  	78.910990 
948.029240  	78.737025 
948.993665  	78.570772 
949.958089  	78.404661 
950.922514  	78.240705 
951.886938  	78.118143 
952.851363  	77.908935 
953.815787  	77.611760 
954.780211  	77.408563 
955.744636  	77.241088 
956.709060  	76.991551 
957.673485  	76.695542 
958.637909  	76.423979 
959.602334  	76.156275 
960.566758  	75.860879 
961.531183  	75.532314 
962.495607  	75.199003 
963.460032  	74.908343 
964.424456  	74.611677 
965.388880  	74.234123 
966.353305  	73.915312 
967.317729  	73.765718 
968.282154  	73.629342 
969.246578  	73.470813 
970.211003  	73.441049 
971.175427  	73.554611 
972.139852  	73.719526 
973.104276  	73.992378 
974.068701  	74.376414 
975.033125  	74.786288 
975.997549  	75.152054 
976.961974  	75.524622 
977.926398  	75.885522 
978.890823  	76.181992 
979.855247  	76.400739 
980.819672  	76.565048 
981.784096  	76.699688 
982.748521  	76.803766 
983.712945  	76.796693 
984.677370  	76.717824 
985.641794  	76.645484 
986.606218  	76.584408 
987.570643  	76.507962 
988.535067  	76.422452 
989.499492  	76.359348 
990.463916  	76.278545 
991.428341  	76.189083 
992.392765  	76.065276 
993.357190  	75.930247 
994.321614  	75.762608 
995.286039  	75.547664 
996.250463  	75.323862 
997.214888  	75.088048 
998.179312  	74.857626 
999.143736  	74.589838 
1000.108161  	74.273057 
1001.072585  	73.924253 
1002.037010  	73.612056 
1003.001434  	73.237993 
1003.965859  	72.796323 
1004.930283  	72.300096 
1005.894708  	71.734548 
1006.859132  	71.089664 
1007.823557  	70.310583 
1008.787981  	69.440221 
1009.752405  	68.484082 
1010.716830  	67.370831 
1011.681254  	66.020940 
1012.645679  	64.477666 
1013.610103  	62.782993 
1014.574528  	61.083152 
1015.538952  	59.732740 
1016.503377  	59.102025 
1017.467801  	59.265947 
1018.432226  	60.168256 
1019.396650  	61.634635 
1020.361074  	63.330518 
1021.325499  	65.096183 
1022.289923  	66.781355 
1023.254348  	68.472235 
1024.218772  	70.381129 
1025.183197  	72.417907 
1026.147621  	74.253981 
1027.112046  	75.579030 
1028.076470  	76.249406 
1029.040895  	76.387402 
1030.005319  	76.272140 
1030.969743  	76.033606 
1031.934168  	75.745872 
1032.898592  	75.412123 
1033.863017  	74.981783 
1034.827441  	74.530868 
1035.791866  	74.168993 
1036.756290  	73.821787 
1037.720715  	73.478228 
1038.685139  	73.189017 
1039.649564  	72.950407 
1040.613988  	72.715746 
1041.578412  	72.502477 
1042.542837  	72.329600 
1043.507261  	72.202827 
1044.471686  	72.079683 
1045.436110  	71.965947 
1046.400535  	71.929300 
1047.364959  	71.924071 
1048.329384  	71.885055 
1049.293808  	71.832338 
1050.258233  	71.819845 
1051.222657  	71.835055 
1052.187081  	71.755636 
1053.151506  	71.629559 
1054.115930  	71.513927 
1055.080355  	71.338802 
1056.044779  	71.105222 
1057.009204  	70.816105 
1057.973628  	70.536103 
1058.938053  	70.241848 
1059.902477  	69.823233 
1060.866902  	69.392215 
1061.831326  	69.020990 
1062.795751  	68.588828 
1063.760175  	68.083790 
1064.724599  	67.565991 
1065.689024  	67.053627 
1066.653448  	66.488590 
1067.617873  	65.905656 
1068.582297  	65.275205 
1069.546722  	64.586722 
1070.511146  	63.873071 
1071.475571  	63.152348 
1072.439995  	62.374068 
1073.404420  	61.583977 
1074.368844  	60.737600 
1075.333268  	59.824905 
1076.297693  	58.903687 
1077.262117  	57.968099 
1078.226542  	57.064330 
1079.190966  	56.170339 
1080.155391  	55.329268 
1081.119815  	54.564375 
1082.084240  	53.888510 
1083.048664  	53.307464 
1084.013089  	52.766022 
1084.977513  	52.325636 
1085.941937  	51.928174 
1086.906362  	51.550388 
1087.870786  	51.232609 
1088.835211  	50.942268 
1089.799635  	50.625740 
1090.764060  	50.343924 
1091.728484  	50.145472 
1092.692909  	49.980782 
1093.657333  	49.820261 
1094.621758  	49.722971 
1095.586182  	49.775846 
1096.550606  	49.923516 
1097.515031  	50.112629 
1098.479455  	50.425485 
1099.443880  	50.839738 
1100.408304  	51.335540 
1101.372729  	51.897261 
1102.337153  	52.615897 
1103.301578  	53.371081 
1104.266002  	54.134799 
1105.230427  	54.939294 
1106.194851  	55.783943 
1107.159275  	56.650961 
1108.123700  	57.470676 
1109.088124  	58.175105 
1110.052549  	58.780946 
1111.016973  	59.194953 
1111.981398  	59.437026 
1112.945822  	59.603168 
1113.910247  	59.659952 
1114.874671  	59.562758 
1115.839096  	59.390747 
1116.803520  	59.289860 
1117.767945  	59.279700 
1118.732369  	59.360921 
1119.696793  	59.569868 
1120.661218  	59.915266 
1121.625642  	60.352686 
1122.590067  	60.893834 
1123.554491  	61.530777 
1124.518916  	62.260935 
1125.483340  	63.043129 
1126.447765  	63.881142 
1127.412189  	64.825356 
1128.376614  	65.839115 
1129.341038  	66.908895 
1130.305462  	68.014912 
1131.269887  	69.161609 
1132.234311  	70.325204 
1133.198736  	71.500227 
1134.163160  	72.667572 
1135.127585  	73.830945 
1136.092009  	74.946948 
1137.056434  	75.994629 
1138.020858  	76.986981 
1138.985283  	77.898692 
1139.949707  	78.718954 
1140.914131  	79.489536 
1141.878556  	80.199682 
1142.842980  	80.826452 
1143.807405  	81.409705 
1144.771829  	81.975073 
1145.736254  	82.503314 
1146.700678  	82.957345 
1147.665103  	83.334393 
1148.629527  	83.686603 
1149.593952  	84.004713 
1150.558376  	84.292166 
1151.522800  	84.527079 
1152.487225  	84.739390 
1153.451649  	84.925309 
1154.416074  	85.062893 
1155.380498  	85.159146 
1156.344923  	85.253069 
1157.309347  	85.335292 
1158.273772  	85.375754 
1159.238196  	85.354750 
1160.202621  	85.373483 
1161.167045  	85.418029 
1162.131469  	85.382876 
1163.095894  	85.287440 
1164.060318  	85.201351 
1165.024743  	85.056957 
1165.989167  	84.851132 
1166.953592  	84.601675 
1167.918016  	84.317223 
1168.882441  	83.946834 
1169.846865  	83.500612 
1170.811290  	83.064034 
1171.775714  	82.716949 
1172.740138  	82.462575 
1173.704563  	82.214273 
1174.668987  	81.999245 
1175.633412  	81.984260 
1176.597836  	82.016932 
1177.562261  	82.038576 
1178.526685  	82.075653 
1179.491110  	82.129773 
1180.455534  	82.178650 
1181.419959  	82.219442 
1182.384383  	82.217933 
1183.348808  	82.166713 
1184.313232  	82.095588 
1185.277656  	81.926636 
1186.242081  	81.713185 
1187.206505  	81.488312 
1188.170930  	81.225061 
1189.135354  	80.911680 
1190.099779  	80.592302 
1191.064203  	80.285029 
1192.028628  	79.927664 
1192.993052  	79.461223 
1193.957477  	79.005462 
1194.921901  	78.585195 
1195.886325  	78.126552 
1196.850750  	77.614735 
1197.815174  	77.114444 
1198.779599  	76.641225 
1199.744023  	76.158491 
1200.708448  	75.653139 
1201.672872  	75.141499 
1202.637297  	74.656087 
1203.601721  	74.152349 
1204.566146  	73.618745 
1205.530570  	73.107652 
1206.494994  	72.627152 
1207.459419  	72.126459 
1208.423843  	71.583565 
1209.388268  	71.050051 
1210.352692  	70.504675 
1211.317117  	69.877006 
1212.281541  	69.235798 
1213.245966  	68.644104 
1214.210390  	68.031461 
1215.174815  	67.349371 
1216.139239  	66.634108 
1217.103663  	65.917756 
1218.068088  	65.164458 
1219.032512  	64.372722 
1219.996937  	63.617041 
1220.961361  	62.922500 
1221.925786  	62.230748 
1222.890210  	61.580057 
1223.854635  	60.965225 
1224.819059  	60.303280 
1225.783484  	59.650171 
1226.747908  	58.982517 
1227.712332  	58.203552 
1228.676757  	57.353419 
1229.641181  	56.462445 
1230.605606  	55.522761 
1231.570030  	54.534638 
1232.534455  	53.540161 
1233.498879  	52.564382 
1234.463304  	51.626378 
1235.427728  	50.757706 
1236.392153  	49.965880 
1237.356577  	49.278330 
1238.321002  	48.757082 
1239.285426  	48.363358 
1240.249850  	48.091969 
1241.214275  	47.975530 
1242.178699  	48.001608 
1243.143124  	48.112565 
1244.107548  	48.317185 
1245.071973  	48.708616 
1246.036397  	49.161634 
1247.000822  	49.602280 
1247.965246  	50.122150 
1248.929671  	50.678853 
1249.894095  	51.199256 
1250.858519  	51.722277 
1251.822944  	52.226390 
1252.787368  	52.690495 
1253.751793  	53.151889 
1254.716217  	53.522067 
1255.680642  	53.841876 
1256.645066  	54.163296 
1257.609491  	54.452418 
1258.573915  	54.690822 
1259.538340  	54.931239 
1260.502764  	55.249001 
1261.467188  	55.787062 
1262.431613  	56.371193 
1263.396037  	56.999645 
1264.360462  	57.688222 
1265.324886  	58.442276 
1266.289311  	59.253224 
1267.253735  	60.158440 
1268.218160  	61.074447 
1269.182584  	61.959702 
1270.147009  	62.818230 
1271.111433  	63.717003 
1272.075857  	64.559809 
1273.040282  	65.464953 
1274.004706  	66.282867 
1274.969131  	67.028567 
1275.933555  	67.732129 
1276.897980  	68.385242 
1277.862404  	69.008365 
1278.826829  	69.612588 
1279.791253  	70.143609 
1280.755678  	70.704926 
1281.720102  	71.299454 
1282.684526  	71.884168 
1283.648951  	72.432376 
1284.613375  	72.965755 
1285.577800  	73.526901 
1286.542224  	74.025863 
1287.506649  	74.414331 
1288.471073  	74.967089 
1289.435498  	75.721173 
1290.399922  	76.390166 
1291.364347  	77.031062 
1292.328771  	77.713612 
1293.293195  	78.391639 
1294.257620  	79.097774 
1295.222044  	79.724254 
1296.186469  	80.308620 
1297.150893  	80.980146 
1298.115318  	81.779342 
1299.079742  	82.428225 
1300.044167  	83.042223 
1301.008591  	83.634367 
1301.973016  	84.157000 
1302.937440  	84.570117 
1303.901865  	84.927935 
1304.866289  	85.269127 
1305.830713  	85.579422 
1306.795138  	85.827628 
1307.759562  	86.023973 
1308.723987  	86.324886 
1309.688411  	86.747599 
1310.652836  	87.024268 
1311.617260  	87.111196 
1312.581685  	86.898601 
1313.546109  	87.129058 
1314.510534  	87.464599 
1315.474958  	87.797306 
1316.439382  	87.834787 
1317.403807  	87.787117 
1318.368231  	87.850112 
1319.332656  	87.817654 
1320.297080  	88.222347 
1321.261505  	88.533080 
1322.225929  	88.758309 
1323.190354  	88.769503 
1324.154778  	88.797909 
1325.119203  	88.798364 
1326.083627  	88.649351 
1327.048051  	88.416705 
1328.012476  	88.083675 
1328.976900  	87.580393 
1329.941325  	86.852443 
1330.905749  	85.978024 
1331.870174  	84.868946 
1332.834598  	83.488191 
1333.799023  	81.983817 
1334.763447  	80.439983 
1335.727872  	78.746736 
1336.692296  	76.957624 
1337.656720  	75.858586 
1338.621145  	74.674903 
1339.585569  	73.845516 
1340.549994  	74.539593 
1341.514418  	76.621159 
1342.478843  	78.382608 
1343.443267  	79.837513 
1344.407692  	81.376546 
1345.372116  	82.931737 
1346.336541  	84.362092 
1347.300965  	85.559548 
1348.265389  	86.470477 
1349.229814  	87.094795 
1350.194238  	87.781054 
1351.158663  	88.371107 
1352.123087  	88.733638 
1353.087512  	89.034728 
1354.051936  	89.072348 
1355.016361  	88.904819 
1355.980785  	89.245640 
1356.945210  	89.430523 
1357.909634  	89.277558 
1358.874059  	89.294861 
1359.838483  	89.261710 
1360.802907  	88.472562 
1361.767332  	87.805529 
1362.731756  	86.774534 
1363.696181  	86.664943 
1364.660605  	87.955435 
1365.625030  	88.104312 
1366.589454  	87.908060 
1367.553879  	87.444516 
1368.518303  	86.689486 
1369.482728  	86.652912 
1370.447152  	87.108706 
1371.411576  	87.107778 
1372.376001  	86.896312 
1373.340425  	86.089587 
1374.304850  	85.473624 
1375.269274  	85.985409 
1376.233699  	86.940760 
1377.198123  	87.130355 
1378.162548  	86.868296 
1379.126972  	86.983392 
1380.091397  	87.156723 
1381.055821  	87.359510 
1382.020245  	87.396771 
1382.984670  	87.394086 
1383.949094  	87.413935 
1384.913519  	87.373797 
1385.877943  	86.866368 
1386.842368  	85.682888 
1387.806792  	85.477411 
1388.771217  	86.732886 
1389.735641  	87.217784 
1390.700066  	87.101751 
1391.664490  	87.077872 
1392.628914  	87.025549 
1393.593339  	86.283247 
1394.557763  	84.725188 
1395.522188  	84.316540 
1396.486612  	84.909713 
1397.451037  	84.666370 
1398.415461  	83.651908 
1399.379886  	83.031174 
1400.344310  	83.352268 
1401.308735  	83.312100 
1402.273159  	82.529380 
1403.237583  	81.513546 
1404.202008  	79.904758 
1405.166432  	77.979839 
1406.130857  	77.454153 
1407.095281  	77.149685 
1408.059706  	76.602479 
1409.024130  	76.529666 
1409.988555  	76.855025 
1410.952979  	77.811857 
1411.917404  	79.191688 
1412.881828  	81.295827 
1413.846252  	83.208705 
1414.810677  	84.740281 
1415.775101  	85.587445 
1416.739526  	85.958623 
1417.703950  	86.200296 
1418.668375  	86.112154 
1419.632799  	86.078900 
1420.597224  	88.517395 
1421.561648  	89.513483 
1422.526073  	89.710904 
1423.490497  	88.741645 
1424.454922  	88.430941 
1425.419346  	89.685770 
1426.383770  	90.081635 
1427.348195  	89.988067 
1428.312619  	89.666123 
1429.277044  	89.053890 
1430.241468  	88.520808 
1431.205893  	88.982908 
1432.170317  	88.922907 
1433.134742  	88.533904 
1434.099166  	88.632013 
1435.063591  	88.314323 
1436.028015  	86.713180 
1436.992439  	85.612612 
1437.956864  	87.311551 
1438.921288  	88.055431 
1439.885713  	88.157957 
1440.850137  	88.134873 
1441.814562  	88.060770 
1442.778986  	88.047697 
1443.743411  	87.976468 
1444.707835  	87.853646 
1445.672260  	87.687806 
1446.636684  	87.384059 
1447.601108  	86.406964 
1448.565533  	86.303342 
1449.529957  	87.193157 
1450.494382  	87.320259 
1451.458806  	86.760966 
1452.423231  	86.303074 
1453.387655  	86.742166 
1454.352080  	86.282077 
1455.316504  	85.009669 
1456.280929  	84.007639 
1457.245353  	83.237687 
1458.209777  	83.460566 
1459.174202  	84.584844 
1460.138626  	86.326544 
1461.103051  	87.320308 
1462.067475  	87.576276 
1463.031900  	87.629256 
1463.996324  	87.137638 
1464.960749  	86.149042 
1465.925173  	86.778630 
1466.889598  	87.362332 
1467.854022  	87.319312 
1468.818446  	87.234457 
1469.782871  	86.903326 
1470.747295  	86.062451 
1471.711720  	84.175330 
1472.676144  	83.030318 
1473.640569  	83.933678 
1474.604993  	85.781010 
1475.569418  	86.032103 
1476.533842  	85.654733 
1477.498267  	87.231181 
1478.462691  	88.185921 
1479.427116  	88.469041 
1480.391540  	88.338118 
1481.355964  	87.890860 
1482.320389  	88.595122 
1483.284813  	89.286994 
1484.249238  	89.541309 
1485.213662  	89.447476 
1486.178087  	88.865799 
1487.142511  	88.243116 
1488.106936  	88.422974 
1489.071360  	87.418515 
1490.035785  	85.877843 
1491.000209  	87.358795 
1491.964633  	89.308354 
1492.929058  	90.092963 
1493.893482  	90.143310 
1494.857907  	89.731896 
1495.822331  	88.518009 
1496.786756  	87.834518 
1497.751180  	88.347658 
1498.715605  	87.608529 
1499.680029  	87.537077 
1500.644454  	87.641848 
1501.608878  	86.681440 
1502.573302  	86.031040 
1503.537727  	85.646804 
1504.502151  	84.638448 
1505.466576  	82.798268 
1506.431000  	79.639153 
1507.395425  	79.340293 
1508.359849  	82.228286 
1509.324274  	84.518786 
1510.288698  	86.266663 
1511.253123  	87.840789 
1512.217547  	87.805140 
1513.181971  	88.718496 
1514.146396  	89.255685 
1515.110820  	88.199285 
1516.075245  	86.940500 
1517.039669  	85.446961 
1518.004094  	87.435026 
1518.968518  	88.870796 
1519.932943  	87.796094 
1520.897367  	85.076421 
1521.861792  	85.365807 
1522.826216  	86.890448 
1523.790640  	88.072621 
1524.755065  	87.609858 
1525.719489  	87.129847 
1526.683914  	87.793827 
1527.648338  	87.386634 
1528.612763  	87.893965 
1529.577187  	89.132090 
1530.541612  	89.516094 
1531.506036  	88.640909 
1532.470461  	88.025984 
1533.434885  	87.031074 
1534.399309  	87.432597 
1535.363734  	88.474468 
1536.328158  	89.082187 
1537.292583  	89.282422 
1538.257007  	88.181295 
1539.221432  	85.452375 
1540.185856  	85.057408 
1541.150281  	86.391299 
1542.114705  	86.436291 
1543.079130  	86.557841 
1544.043554  	86.649641 
1545.007979  	86.238170 
1545.972403  	87.544961 
1546.936827  	89.223512 
1547.901252  	89.584146 
1548.865676  	88.944800 
1549.830101  	86.893007 
1550.794525  	87.470676 
1551.758950  	89.154095 
1552.723374  	89.214836 
1553.687799  	88.207602 
1554.652223  	87.123631 
1555.616648  	88.228897 
1556.581072  	88.402706 
1557.545496  	87.005972 
1558.509921  	82.966728 
1559.474345  	82.225320 
1560.438770  	85.296268 
1561.403194  	88.010185 
1562.367619  	88.895336 
1563.332043  	89.114983 
1564.296468  	88.675545 
1565.260892  	88.288734 
1566.225317  	88.901728 
1567.189741  	89.103914 
1568.154165  	88.595917 
1569.118590  	87.040298 
1570.083014  	86.720115 
1571.047439  	88.134570 
1572.011863  	88.444385 
1572.976288  	88.299965 
1573.940712  	88.103104 
1574.905137  	87.542202 
1575.869561  	86.214669 
1576.833986  	85.484092 
1577.798410  	86.460100 
1578.762834  	87.225508 
1579.727259  	87.642610 
1580.691683  	87.989228 
1581.656108  	88.272647 
1582.620532  	88.498000 
1583.584957  	88.697098 
1584.549381  	88.933927 
1585.513806  	89.069548 
1586.478230  	89.146669 
1587.442655  	89.203054 
1588.407079  	89.247680 
1589.371503  	89.102617 
1590.335928  	89.010358 
1591.300352  	89.046310 
1592.264777  	89.093392 
1593.229201  	89.118745 
1594.193626  	88.823740 
1595.158050  	88.718501 
1596.122475  	88.836468 
1597.086899  	88.907181 
1598.051324  	89.003800 
1599.015748  	88.957346 
1599.980173  	88.910081 
1600.944597  	88.641402 
1601.909021  	88.450291 
1602.873446  	88.184724 
1603.837870  	88.206412 
1604.802295  	88.419446 
1605.766719  	88.336671 
1606.731144  	87.917173 
1607.695568  	87.715422 
1608.659993  	87.637149 
1609.624417  	87.228515 
1610.588842  	87.519559 
1611.553266  	87.668829 
1612.517690  	87.556390 
1613.482115  	87.542141 
1614.446539  	87.454397 
1615.410964  	87.037946 
1616.375388  	86.015882 
1617.339813  	85.937533 
1618.304237  	86.965985 
1619.268662  	87.341724 
1620.233086  	87.398864 
1621.197511  	87.392991 
1622.161935  	86.925677 
1623.126359  	85.845432 
1624.090784  	85.996249 
1625.055208  	86.936172 
1626.019633  	87.146275 
1626.984057  	86.873730 
1627.948482  	86.295315 
1628.912906  	86.732622 
1629.877331  	87.090989 
1630.841755  	87.081042 
1631.806180  	87.015091 
1632.770604  	86.948332 
1633.735028  	86.595366 
1634.699453  	85.534410 
1635.663877  	83.694973 
1636.628302  	84.572410 
1637.592726  	84.745494 
1638.557151  	85.570609 
1639.521575  	86.089734 
1640.486000  	86.062603 
1641.450424  	86.063174 
1642.414849  	85.947880 
1643.379273  	85.960166 
1644.343697  	85.851096 
1645.308122  	84.954641 
1646.272546  	83.363199 
1647.236971  	82.625484 
1648.201395  	82.960976 
1649.165820  	84.445634 
1650.130244  	85.015183 
1651.094669  	84.693024 
1652.059093  	83.607493 
1653.023518  	80.428561 
1653.987942  	79.800699 
1654.952366  	82.261470 
1655.916791  	83.783616 
1656.881215  	84.073468 
1657.845640  	84.213807 
1658.810064  	84.311086 
1659.774489  	84.192894 
1660.738913  	83.691748 
1661.703338  	82.966480 
1662.667762  	82.127192 
1663.632187  	82.356542 
1664.596611  	82.682359 
1665.561036  	82.582407 
1666.525460  	82.351730 
1667.489884  	81.680602 
1668.454309  	80.107129 
1669.418733  	79.128822 
1670.383158  	79.814120 
1671.347582  	79.389362 
1672.312007  	79.530510 
1673.276431  	79.910626 
1674.240856  	79.321144 
1675.205280  	77.918434 
1676.169705  	78.098907 
1677.134129  	78.589254 
1678.098553  	78.339783 
1679.062978  	77.542984 
1680.027402  	75.912346 
1680.991827  	75.703723 
1681.956251  	76.079765 
1682.920676  	74.754287 
1683.885100  	71.165793 
1684.849525  	71.109703 
1685.813949  	74.108288 
1686.778374  	74.603919 
1687.742798  	73.823618 
1688.707222  	72.983485 
1689.671647  	72.776890 
1690.636071  	72.425795 
1691.600496  	72.284254 
1692.564920  	71.674995 
1693.529345  	70.722785 
1694.493769  	69.401935 
1695.458194  	67.329692 
1696.422618  	65.378811 
1697.387043  	65.109560 
1698.351467  	64.337814 
1699.315891  	62.791016 
1700.280316  	59.276438 
1701.244740  	58.930182 
1702.209165  	58.931796 
1703.173589  	57.885369 
1704.138014  	56.082197 
1705.102438  	54.314373 
1706.066863  	52.980455 
1707.031287  	51.602660 
1707.995712  	50.971988 
1708.960136  	50.157530 
1709.924560  	48.988912 
1710.888985  	48.345940 
1711.853409  	48.271900 
1712.817834  	48.015516 
1713.782258  	47.667535 
1714.746683  	47.511526 
1715.711107  	48.556009 
1716.675532  	49.252586 
1717.639956  	49.207431 
1718.604381  	51.132699 
1719.568805  	53.948725 
1720.533230  	55.648657 
1721.497654  	56.959147 
1722.462078  	58.147714 
1723.426503  	59.120500 
1724.390927  	60.678545 
1725.355352  	62.178552 
1726.319776  	63.463328 
1727.284201  	64.759435 
1728.248625  	66.059655 
1729.213050  	66.602186 
1730.177474  	67.077972 
1731.141899  	69.308623 
1732.106323  	70.541862 
1733.070747  	70.356793 
1734.035172  	69.818757 
1734.999596  	73.478526 
1735.964021  	76.352302 
1736.928445  	77.741750 
1737.892870  	79.000266 
1738.857294  	79.843917 
1739.821719  	80.470653 
1740.786143  	82.751777 
1741.750568  	84.263173 
1742.714992  	84.410663 
1743.679416  	84.610340 
1744.643841  	86.407296 
1745.608265  	87.714963 
1746.572690  	88.095854 
1747.537114  	88.228204 
1748.501539  	88.319695 
1749.465963  	88.897658 
1750.430388  	89.442455 
1751.394812  	88.846453 
1752.359237  	90.415417 
1753.323661  	91.769884 
1754.288085  	92.375305 
1755.252510  	92.528273 
1756.216934  	91.833338 
1757.181359  	91.149255 
1758.145783  	91.909951 
1759.110208  	92.443812 
1760.074632  	92.690920 
1761.039057  	92.070673 
1762.003481  	91.065103 
1762.967906  	92.136623 
1763.932330  	92.909377 
1764.896754  	93.079380 
1765.861179  	93.104764 
1766.825603  	92.870649 
1767.790028  	91.759804 
1768.754452  	91.451083 
1769.718877  	92.581029 
1770.683301  	92.269230 
1771.647726  	91.040935 
1772.612150  	90.546985 
1773.576575  	91.757188 
1774.540999  	92.412035 
1775.505423  	91.971295 
1776.469848  	92.302142 
1777.434272  	93.035150 
1778.398697  	92.799897 
1779.363121  	92.428388 
1780.327546  	91.906989 
1781.291970  	91.789800 
1782.256395  	92.596557 
1783.220819  	92.971983 
1784.185244  	92.542673 
1785.149668  	91.931759 
1786.114093  	92.547070 
1787.078517  	92.976871 
1788.042941  	92.946768 
1789.007366  	92.855912 
1789.971790  	92.476808 
1790.936215  	91.410266 
1791.900639  	90.887123 
1792.865064  	90.837413 
1793.829488  	91.898026 
1794.793913  	92.303995 
1795.758337  	91.556937 
1796.722762  	91.619934 
1797.687186  	92.495454 
1798.651610  	92.498055 
1799.616035  	91.803180 
1800.580459  	91.735760 
1801.544884  	91.512226 
1802.509308  	91.334086 
1803.473733  	92.190717 
1804.438157  	92.682116 
1805.402582  	92.628194 
1806.367006  	92.570408 
1807.331431  	92.271131 
1808.295855  	92.159897 
1809.260279  	92.499250 
1810.224704  	91.995967 
1811.189128  	91.568403 
1812.153553  	91.860148 
1813.117977  	92.255586 
1814.082402  	92.695821 
1815.046826  	92.725453 
1816.011251  	92.723921 
1816.975675  	92.445635 
1817.940100  	92.232742 
1818.904524  	92.551691 
1819.868948  	92.699557 
1820.833373  	92.621570 
1821.797797  	92.506054 
1822.762222  	92.255322 
1823.726646  	92.240874 
1824.691071  	91.590145 
1825.655495  	90.903750 
1826.619920  	92.028262 
1827.584344  	92.426541 
1828.548769  	91.893590 
1829.513193  	90.715143 
1830.477617  	90.871719 
1831.442042  	92.118076 
1832.406466  	92.433126 
1833.370891  	92.266186 
1834.335315  	92.512994 
1835.299740  	92.729358 
1836.264164  	92.526633 
1837.228589  	92.021002 
1838.193013  	92.211092 
1839.157438  	92.599636 
1840.121862  	92.771331 
1841.086287  	92.744759 
1842.050711  	92.327093 
1843.015135  	91.921207 
1843.979560  	91.103214 
1844.943984  	90.969156 
1845.908409  	91.887193 
1846.872833  	92.171948 
1847.837258  	91.698712 
1848.801682  	92.051652 
1849.766107  	92.725620 
1850.730531  	92.931434 
1851.694956  	92.923199 
1852.659380  	92.872612 
1853.623804  	92.927163 
1854.588229  	92.907166 
1855.552653  	92.893200 
1856.517078  	92.855714 
1857.481502  	92.810115 
1858.445927  	92.633723 
1859.410351  	92.613688 
1860.374776  	92.685010 
1861.339200  	92.601012 
1862.303625  	92.667952 
1863.268049  	92.832947 
1864.232473  	92.866116 
1865.196898  	92.852017 
1866.161322  	92.434169 
1867.125747  	91.990454 
1868.090171  	91.321031 
1869.054596  	90.803234 
1870.019020  	91.365846 
1870.983445  	92.239482 
1871.947869  	92.749332 
1872.912294  	92.986367 
1873.876718  	92.983472 
1874.841142  	93.000932 
1875.805567  	92.981552 
1876.769991  	92.932897 
1877.734416  	92.915098 
1878.698840  	92.866181 
1879.663265  	92.720577 
1880.627689  	92.773850 
1881.592114  	92.841552 
1882.556538  	92.859798 
1883.520963  	92.817627 
1884.485387  	92.696498 
1885.449811  	92.689410 
1886.414236  	92.933550 
1887.378660  	92.925354 
1888.343085  	92.624321 
1889.307509  	91.772218 
1890.271934  	91.744631 
1891.236358  	92.554221 
1892.200783  	92.801807 
1893.165207  	92.746613 
1894.129632  	92.609403 
1895.094056  	92.142566 
1896.058480  	92.277081 
1897.022905  	92.735090 
1897.987329  	92.723507 
1898.951754  	92.655999 
1899.916178  	92.671024 
1900.880603  	92.779533 
1901.845027  	92.723845 
1902.809452  	92.659679 
1903.773876  	92.710906 
1904.738301  	92.724429 
1905.702725  	92.712913 
1906.667150  	92.675533 
1907.631574  	92.368247 
1908.595998  	92.250715 
1909.560423  	92.060783 
1910.524847  	91.997500 
1911.489272  	92.530799 
1912.453696  	92.620629 
1913.418121  	92.542649 
1914.382545  	92.557806 
1915.346970  	92.708684 
1916.311394  	92.678691 
1917.275819  	92.207190 
1918.240243  	91.459217 
1919.204667  	92.046059 
1920.169092  	92.435790 
1921.133516  	92.354334 
1922.097941  	91.728335 
1923.062365  	91.122706 
1924.026790  	91.977869 
1924.991214  	92.557309 
1925.955639  	92.426588 
1926.920063  	92.521538 
1927.884488  	92.622417 
1928.848912  	92.639299 
1929.813336  	92.704404 
1930.777761  	92.736586 
1931.742185  	92.662848 
1932.706610  	92.580779 
1933.671034  	92.634220 
1934.635459  	92.720472 
1935.599883  	92.660602 
1936.564308  	92.570810 
1937.528732  	92.374519 
1938.493157  	92.362465 
1939.457581  	92.546789 
1940.422005  	92.506118 
1941.386430  	92.082870 
1942.350854  	91.032836 
1943.315279  	91.108755 
1944.279703  	92.146087 
1945.244128  	92.231034 
1946.208552  	92.258141 
1947.172977  	92.222970 
1948.137401  	92.222122 
1949.101826  	92.254985 
1950.066250  	92.472829 
1951.030674  	92.590110 
1951.995099  	92.529766 
1952.959523  	92.400954 
1953.923948  	92.210569 
1954.888372  	92.029662 
1955.852797  	92.183020 
1956.817221  	92.410864 
1957.781646  	92.543461 
1958.746070  	92.444194 
1959.710495  	92.502925 
1960.674919  	92.297645 
1961.639344  	92.104631 
1962.603768  	92.116959 
1963.568192  	92.259469 
1964.532617  	92.541613 
1965.497041  	92.768056 
1966.461466  	92.517882 
1967.425890  	92.157445 
1968.390315  	92.492557 
1969.354739  	92.760362 
1970.319164  	92.555941 
1971.283588  	92.636289 
1972.248013  	92.553295 
1973.212437  	92.590358 
1974.176861  	92.539675 
1975.141286  	92.407862 
1976.105710  	92.713040 
1977.070135  	93.382643 
1978.034559  	93.326432 
1978.998984  	92.431869 
1979.963408  	92.176385 
1980.927833  	92.453277 
1981.892257  	92.506647 
1982.856682  	92.469763 
1983.821106  	92.527061 
1984.785530  	92.583720 
1985.749955  	92.401620 
1986.714379  	92.329214 
1987.678804  	92.145925 
1988.643228  	92.052996 
1989.607653  	92.472109 
1990.572077  	92.467815 
1991.536502  	91.774085 
1992.500926  	91.480227 
1993.465351  	92.234075 
1994.429775  	92.648144 
1995.394199  	92.630887 
1996.358624  	92.627599 
1997.323048  	92.539179 
1998.287473  	92.585607 
1999.251897  	92.817046 
2000.216322  	93.044307 
2001.180746  	93.084317 
2002.145171  	93.042093 
2003.109595  	93.117506 
2004.074020  	93.263883 
2005.038444  	93.382293 
2006.002868  	93.433281 
2006.967293  	93.277992 
2007.931717  	92.586046 
2008.896142  	92.552121 
2009.860566  	92.967371 
2010.824991  	92.989504 
2011.789415  	93.038819 
2012.753840  	93.094008 
2013.718264  	92.653066 
2014.682689  	92.476893 
2015.647113  	92.765960 
2016.611537  	92.482536 
2017.575962  	92.276720 
2018.540386  	92.523417 
2019.504811  	92.828928 
2020.469235  	92.790368 
2021.433660  	92.832603 
2022.398084  	92.864403 
2023.362509  	93.094246 
2024.326933  	93.036958 
2025.291358  	92.702510 
2026.255782  	92.660781 
2027.220207  	92.635300 
2028.184631  	92.685418 
2029.149055  	93.263505 
2030.113480  	93.423175 
2031.077904  	93.576927 
2032.042329  	93.496536 
2033.006753  	93.334502 
2033.971178  	93.271167 
2034.935602  	93.165423 
2035.900027  	93.050607 
2036.864451  	92.881862 
2037.828876  	92.692711 
2038.793300  	92.781434 
2039.757724  	92.766777 
2040.722149  	92.615367 
2041.686573  	92.393942 
2042.650998  	92.612978 
2043.615422  	92.637856 
2044.579847  	92.737168 
2045.544271  	92.897796 
2046.508696  	92.914526 
2047.473120  	92.758192 
2048.437545  	92.801109 
2049.401969  	92.931363 
2050.366393  	92.540217 
2051.330818  	92.227210 
2052.295242  	92.609639 
2053.259667  	92.813919 
2054.224091  	92.558578 
2055.188516  	92.445631 
2056.152940  	92.590761 
2057.117365  	92.418185 
2058.081789  	92.304043 
2059.046214  	92.290537 
2060.010638  	92.304014 
2060.975062  	92.359599 
2061.939487  	92.464287 
2062.903911  	92.410576 
2063.868336  	92.177500 
2064.832760  	91.959140 
2065.797185  	92.076682 
2066.761609  	92.297797 
2067.726034  	92.303978 
2068.690458  	92.280701 
2069.654883  	92.355696 
2070.619307  	92.272480 
2071.583731  	92.239813 
2072.548156  	92.324435 
2073.512580  	92.281841 
2074.477005  	92.206108 
2075.441429  	92.346032 
2076.405854  	92.275909 
2077.370278  	92.120322 
2078.334703  	92.156946 
2079.299127  	92.228708 
2080.263552  	92.165545 
2081.227976  	92.143750 
2082.192401  	92.124274 
2083.156825  	92.123398 
2084.121249  	92.153798 
2085.085674  	92.277565 
2086.050098  	92.308125 
2087.014523  	92.247835 
2087.978947  	92.271176 
2088.943372  	92.259600 
2089.907796  	92.051266 
2090.872221  	92.111919 
2091.836645  	92.447885 
2092.801070  	92.558281 
2093.765494  	92.520258 
2094.729918  	92.389216 
2095.694343  	92.259140 
2096.658767  	92.175939 
2097.623192  	92.128807 
2098.587616  	92.098337 
2099.552041  	92.212285 
2100.516465  	92.311584 
2101.480890  	92.300781 
2102.445314  	92.166602 
2103.409739  	92.114939 
2104.374163  	92.169057 
2105.338587  	92.123062 
2106.303012  	92.032740 
2107.267436  	92.072670 
2108.231861  	92.176246 
2109.196285  	92.184413 
2110.160710  	92.188330 
2111.125134  	92.102907 
2112.089559  	92.065665 
2113.053983  	92.180483 
2114.018408  	92.152370 
2114.982832  	92.043080 
2115.947256  	91.977908 
2116.911681  	92.126658 
2117.876105  	92.266785 
2118.840530  	92.312153 
2119.804954  	92.349181 
2120.769379  	92.279352 
2121.733803  	92.314388 
2122.698228  	92.514796 
2123.662652  	92.472577 
2124.627077  	92.422197 
2125.591501  	92.587639 
2126.555925  	92.744339 
2127.520350  	92.668326 
2128.484774  	92.601138 
2129.449199  	92.754625 
2130.413623  	92.832547 
2131.378048  	92.785219 
2132.342472  	92.998307 
2133.306897  	93.186931 
2134.271321  	93.043520 
2135.235746  	92.708284 
2136.200170  	92.448000 
2137.164594  	92.762574 
2138.129019  	93.188519 
2139.093443  	93.148173 
2140.057868  	92.869243 
2141.022292  	92.786531 
2141.986717  	92.823289 
2142.951141  	92.946309 
2143.915566  	93.135621 
2144.879990  	93.171158 
2145.844415  	93.215025 
2146.808839  	93.111567 
2147.773264  	93.130300 
2148.737688  	93.254008 
2149.702112  	93.257020 
2150.666537  	93.226662 
2151.630961  	93.142412 
2152.595386  	93.360946 
2153.559810  	93.492648 
2154.524235  	93.546949 
2155.488659  	93.733582 
2156.453084  	94.096447 
2157.417508  	94.013413 
2158.381933  	93.504122 
2159.346357  	92.794265 
2160.310781  	92.627566 
2161.275206  	92.382919 
2162.239630  	92.327950 
2163.204055  	92.941849 
2164.168479  	93.409773 
2165.132904  	93.043509 
2166.097328  	92.708404 
2167.061753  	92.964456 
2168.026177  	92.918994 
2168.990602  	92.569231 
2169.955026  	92.521172 
2170.919450  	92.960590 
2171.883875  	93.105833 
2172.848299  	92.974188 
2173.812724  	92.910761 
2174.777148  	92.912234 
2175.741573  	92.787205 
2176.705997  	92.620589 
2177.670422  	92.707680 
2178.634846  	92.803670 
2179.599271  	92.759077 
2180.563695  	92.865399 
2181.528119  	93.084031 
2182.492544  	92.916219 
2183.456968  	92.525901 
2184.421393  	92.412293 
2185.385817  	92.825584 
2186.350242  	92.842657 
2187.314666  	92.405154 
2188.279091  	92.315583 
2189.243515  	92.335164 
2190.207940  	92.568722 
2191.172364  	92.829557 
2192.136788  	92.717187 
2193.101213  	92.635524 
2194.065637  	92.593209 
2195.030062  	92.507780 
2195.994486  	92.200110 
2196.958911  	92.200009 
2197.923335  	92.486556 
2198.887760  	92.502422 
2199.852184  	92.500288 
2200.816609  	92.633656 
2201.781033  	92.679573 
2202.745458  	92.690470 
2203.709882  	92.711347 
2204.674306  	92.587759 
2205.638731  	92.446473 
2206.603155  	92.510459 
2207.567580  	92.603445 
2208.532004  	92.615161 
2209.496429  	92.483422 
2210.460853  	92.359323 
2211.425278  	92.359909 
2212.389702  	92.325949 
2213.354127  	92.179622 
2214.318551  	92.195682 
2215.282975  	92.295907 
2216.247400  	92.394420 
2217.211824  	92.576783 
2218.176249  	92.686360 
2219.140673  	92.535338 
2220.105098  	92.374942 
2221.069522  	92.324765 
2222.033947  	92.400407 
2222.998371  	92.429560 
2223.962796  	92.405110 
2224.927220  	92.476372 
2225.891644  	92.430900 
2226.856069  	92.319216 
2227.820493  	92.275168 
2228.784918  	92.348467 
2229.749342  	92.356093 
2230.713767  	92.347086 
2231.678191  	92.300860 
2232.642616  	92.241486 
2233.607040  	92.404392 
2234.571465  	92.449450 
2235.535889  	92.260492 
2236.500313  	92.177636 
2237.464738  	92.169153 
2238.429162  	92.165055 
2239.393587  	92.147707 
2240.358011  	92.165690 
2241.322436  	92.305803 
2242.286860  	92.243938 
2243.251285  	92.162704 
2244.215709  	92.206610 
2245.180134  	92.085161 
2246.144558  	92.034745 
2247.108982  	92.284215 
2248.073407  	92.332279 
2249.037831  	92.243558 
2250.002256  	92.269005 
2250.966680  	92.279575 
2251.931105  	92.203686 
2252.895529  	92.157459 
2253.859954  	92.117174 
2254.824378  	92.081828 
2255.788803  	92.065926 
2256.753227  	92.066801 
2257.717651  	92.098602 
2258.682076  	92.021417 
2259.646500  	91.954083 
2260.610925  	91.905496 
2261.575349  	91.895325 
2262.539774  	91.947857 
2263.504198  	92.038333 
2264.468623  	92.046084 
2265.433047  	92.049203 
2266.397472  	92.079594 
2267.361896  	92.028248 
2268.326321  	92.016107 
2269.290745  	92.042972 
2270.255169  	92.066333 
2271.219594  	92.102984 
2272.184018  	92.035665 
2273.148443  	91.968667 
2274.112867  	91.966200 
2275.077292  	91.899871 
2276.041716  	91.832726 
2277.006141  	91.918743 
2277.970565  	92.002419 
2278.934990  	91.880006 
2279.899414  	91.783075 
2280.863838  	91.845614 
2281.828263  	91.842229 
2282.792687  	91.756568 
2283.757112  	91.750248 
2284.721536  	91.743442 
2285.685961  	91.715100 
2286.650385  	91.712751 
2287.614810  	91.716569 
2288.579234  	91.700209 
2289.543659  	91.663205 
2290.508083  	91.691994 
2291.472507  	91.678844 
2292.436932  	91.763375 
2293.401356  	91.736044 
2294.365781  	91.650110 
2295.330205  	91.718736 
2296.294630  	91.677713 
2297.259054  	91.615112 
2298.223479  	91.546388 
2299.187903  	91.579965 
2300.152328  	91.655917 
2301.116752  	91.676647 
2302.081176  	91.657230 
2303.045601  	91.546709 
2304.010025  	91.631002 
2304.974450  	91.477413 
2305.938874  	91.487930 
2306.903299  	91.447949 
2307.867723  	91.545435 
2308.832148  	91.415903 
2309.796572  	91.442372 
2310.760997  	91.412666 
2311.725421  	91.453838 
2312.689845  	91.581687 
2313.654270  	91.636499 
2314.618694  	91.587830 
2315.583119  	91.695560 
2316.547543  	91.799168 
2317.511968  	91.853190 
2318.476392  	91.877398 
2319.440817  	91.885105 
2320.405241  	91.817050 
2321.369666  	91.933589 
2322.334090  	92.053648 
2323.298515  	92.013752 
2324.262939  	91.998717 
2325.227363  	92.361454 
2326.191788  	92.721439 
2327.156212  	92.962439 
2328.120637  	93.037571 
2329.085061  	93.098332 
2330.049486  	93.212863 
2331.013910  	93.228728 
2331.978335  	93.317733 
2332.942759  	93.519853 
2333.907184  	93.687247 
2334.871608  	93.844489 
2335.836032  	94.096920 
2336.800457  	94.248466 
2337.764881  	94.175733 
2338.729306  	94.139982 
2339.693730  	94.017676 
2340.658155  	94.103592 
2341.622579  	94.211410 
2342.587004  	94.099920 
2343.551428  	93.924732 
2344.515853  	93.568935 
2345.480277  	93.258599 
2346.444701  	92.983064 
2347.409126  	92.763231 
2348.373550  	92.363185 
2349.337975  	92.183627 
2350.302399  	92.536073 
2351.266824  	93.029942 
2352.231248  	93.502891 
2353.195673  	93.733117 
2354.160097  	93.818755 
2355.124522  	94.008179 
2356.088946  	94.376081 
2357.053370  	94.534813 
2358.017795  	94.590867 
2358.982219  	94.668344 
2359.946644  	94.850865 
2360.911068  	94.844397 
2361.875493  	94.742900 
2362.839917  	94.642616 
2363.804342  	94.566827 
2364.768766  	94.462425 
2365.733191  	94.454287 
2366.697615  	94.253668 
2367.662039  	93.953095 
2368.626464  	93.603607 
2369.590888  	93.342876 
2370.555313  	93.195051 
2371.519737  	92.937744 
2372.484162  	92.694065 
2373.448586  	92.516572 
2374.413011  	92.316265 
2375.377435  	92.081599 
2376.341860  	91.923488 
2377.306284  	91.861781 
2378.270708  	91.737825 
2379.235133  	91.588033 
2380.199557  	91.627618 
2381.163982  	91.663023 
2382.128406  	91.675783 
2383.092831  	91.725489 
2384.057255  	91.779872 
2385.021680  	91.803531 
2385.986104  	91.898910 
2386.950529  	91.972624 
2387.914953  	92.022420 
2388.879378  	92.051306 
2389.843802  	92.103392 
2390.808226  	92.112989 
2391.772651  	92.101221 
2392.737075  	92.116126 
2393.701500  	92.136734 
2394.665924  	92.141462 
2395.630349  	92.123379 
2396.594773  	92.090530 
2397.559198  	92.089432 
2398.523622  	92.120351 
2399.488047  	92.169932 
2400.452471  	92.150526 
2401.416895  	92.149457 
2402.381320  	92.183829 
2403.345744  	92.206736 
2404.310169  	92.175072 
2405.274593  	92.135381 
2406.239018  	92.101765 
2407.203442  	92.113871 
2408.167867  	92.125752 
2409.132291  	92.131744 
2410.096716  	92.109974 
2411.061140  	92.092390 
2412.025564  	92.121610 
2412.989989  	92.124669 
2413.954413  	92.136077 
2414.918838  	92.186218 
2415.883262  	92.177374 
2416.847687  	92.121224 
2417.812111  	92.122680 
2418.776536  	92.151493 
2419.740960  	92.155313 
2420.705385  	92.185151 
2421.669809  	92.161609 
2422.634233  	92.183830 
2423.598658  	92.178770 
2424.563082  	92.213805 
2425.527507  	92.280557 
2426.491931  	92.253481 
2427.456356  	92.192136 
2428.420780  	92.281149 
2429.385205  	92.296054 
2430.349629  	92.236612 
2431.314054  	92.168052 
2432.278478  	92.169263 
2433.242902  	92.166534 
2434.207327  	92.132314 
2435.171751  	92.188622 
2436.136176  	92.280498 
2437.100600  	92.275677 
2438.065025  	92.210905 
2439.029449  	92.228938 
2439.993874  	92.225848 
2440.958298  	92.204343 
2441.922723  	92.206651 
2442.887147  	92.200815 
2443.851572  	92.235277 
2444.815996  	92.254171 
2445.780420  	92.221279 
2446.744845  	92.172484 
2447.709269  	92.194978 
2448.673694  	92.244367 
2449.638118  	92.205546 
2450.602543  	92.139521 
2451.566967  	92.126657 
2452.531392  	92.116825 
2453.495816  	92.114691 
2454.460241  	92.130500 
2455.424665  	92.136806 
2456.389089  	92.104318 
2457.353514  	92.135859 
2458.317938  	92.149951 
2459.282363  	92.142073 
2460.246787  	92.155857 
2461.211212  	92.137608 
2462.175636  	92.139976 
2463.140061  	92.187456 
2464.104485  	92.147684 
2465.068910  	92.108632 
2466.033334  	92.110272 
2466.997758  	92.153387 
2467.962183  	92.226579 
2468.926607  	92.243874 
2469.891032  	92.210662 
2470.855456  	92.202507 
2471.819881  	92.195940 
2472.784305  	92.216741 
2473.748730  	92.196299 
2474.713154  	92.208799 
2475.677579  	92.209087 
2476.642003  	92.180371 
2477.606427  	92.184590 
2478.570852  	92.210472 
2479.535276  	92.183558 
2480.499701  	92.123377 
2481.464125  	92.104522 
2482.428550  	92.133928 
2483.392974  	92.150241 
2484.357399  	92.211648 
2485.321823  	92.180563 
2486.286248  	92.067440 
2487.250672  	92.064133 
2488.215096  	92.125375 
2489.179521  	92.151462 
2490.143945  	92.143354 
2491.108370  	92.086483 
2492.072794  	92.094804 
2493.037219  	92.088498 
2494.001643  	92.110704 
2494.966068  	92.143531 
2495.930492  	92.135998 
2496.894917  	92.093275 
2497.859341  	92.151038 
2498.823765  	92.150350 
2499.788190  	92.108971 
2500.752614  	92.098501 
2501.717039  	92.071173 
2502.681463  	92.052913 
2503.645888  	92.075003 
2504.610312  	92.068196 
2505.574737  	92.078290 
2506.539161  	92.097345 
2507.503586  	92.144137 
2508.468010  	92.142718 
2509.432435  	92.067167 
2510.396859  	92.072013 
2511.361283  	92.120603 
2512.325708  	92.100844 
2513.290132  	92.058860 
2514.254557  	92.062286 
2515.218981  	92.072770 
2516.183406  	92.035038 
2517.147830  	92.075279 
2518.112255  	92.053238 
2519.076679  	92.035236 
2520.041104  	92.084642 
2521.005528  	92.096195 
2521.969952  	92.014706 
2522.934377  	91.987540 
2523.898801  	92.057271 
2524.863226  	92.125171 
2525.827650  	92.086687 
2526.792075  	92.021070 
2527.756499  	92.002048 
2528.720924  	92.035601 
2529.685348  	92.030909 
2530.649773  	92.071786 
2531.614197  	92.093667 
2532.578621  	92.058339 
2533.543046  	92.050245 
2534.507470  	92.035077 
2535.471895  	92.019791 
2536.436319  	92.028543 
2537.400744  	92.063308 
2538.365168  	92.052363 
2539.329593  	92.034999 
2540.294017  	92.040808 
2541.258442  	92.028520 
2542.222866  	91.993175 
2543.187290  	92.040857 
2544.151715  	92.129924 
2545.116139  	92.152669 
2546.080564  	92.112867 
2547.044988  	91.997306 
2548.009413  	91.929481 
2548.973837  	91.954410 
2549.938262  	92.038696 
2550.902686  	92.066331 
2551.867111  	92.031759 
2552.831535  	91.965111 
2553.795959  	91.954557 
2554.760384  	91.982336 
2555.724808  	91.977963 
2556.689233  	91.931147 
2557.653657  	91.940941 
2558.618082  	91.964982 
2559.582506  	92.057414 
2560.546931  	92.061820 
2561.511355  	91.977382 
2562.475780  	91.933721 
2563.440204  	91.920521 
2564.404629  	91.980046 
2565.369053  	92.023745 
2566.333477  	91.987222 
2567.297902  	91.999668 
2568.262326  	92.022351 
2569.226751  	91.932170 
2570.191175  	91.928504 
2571.155600  	92.007074 
2572.120024  	92.029970 
2573.084449  	92.064895 
2574.048873  	91.993394 
2575.013298  	91.912204 
2575.977722  	91.939624 
2576.942146  	91.974929 
2577.906571  	91.973486 
2578.870995  	91.970215 
2579.835420  	91.938006 
2580.799844  	91.969874 
2581.764269  	91.945770 
2582.728693  	91.985433 
2583.693118  	91.989966 
2584.657542  	91.960511 
2585.621967  	91.951803 
2586.586391  	91.928792 
2587.550815  	91.963280 
2588.515240  	92.018522 
2589.479664  	92.001670 
2590.444089  	91.953591 
2591.408513  	91.959570 
2592.372938  	91.984444 
2593.337362  	91.994358 
2594.301787  	92.002851 
2595.266211  	91.981341 
2596.230636  	92.017376 
2597.195060  	92.059962 
2598.159484  	92.045310 
2599.123909  	92.045203 
2600.088333  	92.044728 
2601.052758  	91.998221 
2602.017182  	91.944994 
2602.981607  	91.939948 
2603.946031  	91.954686 
2604.910456  	91.987904 
2605.874880  	92.001190 
2606.839305  	92.008890 
2607.803729  	92.031401 
2608.768153  	92.022211 
2609.732578  	92.000107 
2610.697002  	91.963452 
2611.661427  	91.977760 
2612.625851  	91.988748 
2613.590276  	91.982437 
2614.554700  	91.944165 
2615.519125  	91.919329 
2616.483549  	91.960237 
2617.447974  	91.968047 
2618.412398  	91.965627 
2619.376822  	91.959353 
2620.341247  	91.949287 
2621.305671  	91.946677 
2622.270096  	91.943263 
2623.234520  	91.912849 
2624.198945  	91.890340 
2625.163369  	91.931893 
2626.127794  	91.923543 
2627.092218  	91.908012 
2628.056643  	91.905489 
2629.021067  	91.905396 
2629.985492  	91.925228 
2630.949916  	91.976277 
2631.914340  	91.941052 
2632.878765  	91.876445 
2633.843189  	91.903554 
2634.807614  	91.944442 
2635.772038  	91.931336 
2636.736463  	91.907267 
2637.700887  	91.927101 
2638.665312  	91.914311 
2639.629736  	91.910550 
2640.594161  	91.947620 
2641.558585  	91.969331 
2642.523009  	91.960098 
2643.487434  	91.957737 
2644.451858  	91.949802 
2645.416283  	91.929140 
2646.380707  	91.929550 
2647.345132  	91.930957 
2648.309556  	91.949280 
2649.273981  	91.955341 
2650.238405  	91.969089 
2651.202830  	91.986808 
2652.167254  	91.975838 
2653.131678  	91.958967 
2654.096103  	91.956074 
2655.060527  	91.973146 
2656.024952  	92.002196 
2656.989376  	92.009897 
2657.953801  	91.975561 
2658.918225  	91.995738 
2659.882650  	92.012946 
2660.847074  	92.007519 
2661.811499  	92.034376 
2662.775923  	92.027220 
2663.740347  	92.030689 
2664.704772  	92.043434 
2665.669196  	92.086448 
2666.633621  	92.100011 
2667.598045  	92.088722 
2668.562470  	92.090128 
2669.526894  	92.077048 
2670.491319  	92.061142 
2671.455743  	92.093944 
2672.420168  	92.113704 
2673.384592  	92.106578 
2674.349016  	92.109875 
2675.313441  	92.114592 
2676.277865  	92.101293 
2677.242290  	92.099297 
2678.206714  	92.118730 
2679.171139  	92.112193 
2680.135563  	92.094089 
2681.099988  	92.090270 
2682.064412  	92.105034 
2683.028837  	92.112669 
2683.993261  	92.115150 
2684.957686  	92.117938 
2685.922110  	92.123949 
2686.886534  	92.112258 
2687.850959  	92.088483 
2688.815383  	92.097630 
2689.779808  	92.084757 
2690.744232  	92.058199 
2691.708657  	92.080936 
2692.673081  	92.094529 
2693.637506  	92.092231 
2694.601930  	92.099509 
2695.566355  	92.099642 
2696.530779  	92.092847 
2697.495203  	92.092801 
2698.459628  	92.113098 
2699.424052  	92.128699 
2700.388477  	92.116699 
2701.352901  	92.096527 
2702.317326  	92.098690 
2703.281750  	92.106267 
2704.246175  	92.081492 
2705.210599  	92.057015 
2706.175024  	92.062059 
2707.139448  	92.069849 
2708.103872  	92.071412 
2709.068297  	92.095352 
2710.032721  	92.108239 
2710.997146  	92.086933 
2711.961570  	92.067950 
2712.925995  	92.066308 
2713.890419  	92.077991 
2714.854844  	92.082066 
2715.819268  	92.111601 
2716.783693  	92.130856 
2717.748117  	92.113936 
2718.712541  	92.105264 
2719.676966  	92.105242 
2720.641390  	92.071839 
2721.605815  	92.071199 
2722.570239  	92.072657 
2723.534664  	92.083487 
2724.499088  	92.097658 
2725.463513  	92.083742 
2726.427937  	92.057066 
2727.392362  	92.068910 
2728.356786  	92.070399 
2729.321210  	92.068711 
2730.285635  	92.070093 
2731.250059  	92.043692 
2732.214484  	92.039155 
2733.178908  	92.043478 
2734.143333  	92.042697 
2735.107757  	92.047961 
2736.072182  	92.075655 
2737.036606  	92.083073 
2738.001031  	92.040956 
2738.965455  	92.021793 
2739.929879  	92.030469 
2740.894304  	92.043370 
2741.858728  	92.056165 
2742.823153  	92.042825 
2743.787577  	92.027023 
2744.752002  	92.032892 
2745.716426  	92.016673 
2746.680851  	92.009382 
2747.645275  	92.009913 
2748.609700  	91.996221 
2749.574124  	92.001545 
2750.538549  	92.006844 
2751.502973  	91.969186 
2752.467397  	91.972520 
2753.431822  	91.995635 
2754.396246  	92.008767 
2755.360671  	92.007530 
2756.325095  	92.020431 
2757.289520  	92.000410 
2758.253944  	92.002969 
2759.218369  	92.019346 
2760.182793  	92.020172 
2761.147218  	92.019363 
2762.111642  	92.012633 
2763.076066  	92.023429 
2764.040491  	92.034544 
2765.004915  	92.000591 
2765.969340  	91.990962 
2766.933764  	92.002731 
2767.898189  	92.003739 
2768.862613  	92.005765 
2769.827038  	92.018939 
2770.791462  	92.003500 
2771.755887  	91.973498 
2772.720311  	91.956291 
2773.684735  	91.981054 
2774.649160  	92.002347 
2775.613584  	91.984304 
2776.578009  	91.960399 
2777.542433  	91.965068 
2778.506858  	91.962162 
2779.471282  	91.963564 
2780.435707  	91.964831 
2781.400131  	91.932951 
2782.364556  	91.939998 
2783.328980  	91.952330 
2784.293404  	91.959516 
2785.257829  	91.965359 
2786.222253  	91.960713 
2787.186678  	91.964979 
2788.151102  	91.949979 
2789.115527  	91.975664 
2790.079951  	91.979138 
2791.044376  	91.953120 
2792.008800  	91.939489 
2792.973225  	91.920048 
2793.937649  	91.902729 
2794.902073  	91.913785 
2795.866498  	91.902862 
2796.830922  	91.897692 
2797.795347  	91.907928 
2798.759771  	91.902177 
2799.724196  	91.855870 
2800.688620  	91.819048 
2801.653045  	91.822670 
2802.617469  	91.827688 
2803.581894  	91.856401 
2804.546318  	91.890749 
2805.510743  	91.897747 
2806.475167  	91.865459 
2807.439591  	91.837009 
2808.404016  	91.830118 
2809.368440  	91.837325 
2810.332865  	91.859328 
2811.297289  	91.818506 
2812.261714  	91.828598 
2813.226138  	91.870597 
2814.190563  	91.843689 
2815.154987  	91.855310 
2816.119412  	91.879346 
2817.083836  	91.846001 
2818.048260  	91.844786 
2819.012685  	91.863935 
2819.977109  	91.875464 
2820.941534  	91.857609 
2821.905958  	91.853016 
2822.870383  	91.830399 
2823.834807  	91.816920 
2824.799232  	91.790516 
2825.763656  	91.812423 
2826.728081  	91.815791 
2827.692505  	91.796090 
2828.656929  	91.802438 
2829.621354  	91.817281 
2830.585778  	91.800350 
2831.550203  	91.775584 
2832.514627  	91.752505 
2833.479052  	91.734638 
2834.443476  	91.735852 
2835.407901  	91.731467 
2836.372325  	91.731055 
2837.336750  	91.724234 
2838.301174  	91.668129 
2839.265598  	91.608852 
2840.230023  	91.592902 
2841.194447  	91.607947 
2842.158872  	91.588237 
2843.123296  	91.558334 
2844.087721  	91.499677 
2845.052145  	91.411600 
2846.016570  	91.317085 
2846.980994  	91.231197 
2847.945419  	91.159807 
2848.909843  	91.101391 
2849.874267  	91.061876 
2850.838692  	91.058299 
2851.803116  	91.070533 
2852.767541  	91.090716 
2853.731965  	91.126339 
2854.696390  	91.151835 
2855.660814  	91.190261 
2856.625239  	91.212805 
2857.589663  	91.239954 
2858.554088  	91.268663 
2859.518512  	91.274847 
2860.482936  	91.298684 
2861.447361  	91.290963 
2862.411785  	91.286058 
2863.376210  	91.313986 
2864.340634  	91.295503 
2865.305059  	91.278537 
2866.269483  	91.321439 
2867.233908  	91.307797 
2868.198332  	91.262690 
2869.162757  	91.257404 
2870.127181  	91.275450 
2871.091606  	91.270811 
2872.056030  	91.252992 
2873.020454  	91.276762 
2873.984879  	91.296649 
2874.949303  	91.252260 
2875.913728  	91.250502 
2876.878152  	91.266435 
2877.842577  	91.225365 
2878.807001  	91.195725 
2879.771426  	91.208971 
2880.735850  	91.176606 
2881.700275  	91.147858 
2882.664699  	91.136238 
2883.629123  	91.120189 
2884.593548  	91.140549 
2885.557972  	91.165554 
2886.522397  	91.132963 
2887.486821  	91.104766 
2888.451246  	91.073196 
2889.415670  	91.079910 
2890.380095  	91.047180 
2891.344519  	91.034833 
2892.308944  	91.060166 
2893.273368  	91.026867 
2894.237792  	90.984033 
2895.202217  	90.935756 
2896.166641  	90.922497 
2897.131066  	90.896339 
2898.095490  	90.861008 
2899.059915  	90.867732 
2900.024339  	90.838153 
2900.988764  	90.790003 
2901.953188  	90.736220 
2902.917613  	90.684565 
2903.882037  	90.625910 
2904.846461  	90.565842 
2905.810886  	90.492987 
2906.775310  	90.485962 
2907.739735  	90.453166 
2908.704159  	90.379141 
2909.668584  	90.370681 
2910.633008  	90.394248 
2911.597433  	90.437545 
2912.561857  	90.461635 
2913.526282  	90.459796 
2914.490706  	90.433466 
2915.455130  	90.422743 
2916.419555  	90.404408 
2917.383979  	90.408702 
2918.348404  	90.430468 
2919.312828  	90.461441 
2920.277253  	90.483354 
2921.241677  	90.496799 
2922.206102  	90.513674 
2923.170526  	90.547520 
2924.134951  	90.599999 
2925.099375  	90.643320 
2926.063800  	90.685629 
2927.028224  	90.707288 
2927.992648  	90.760455 
2928.957073  	90.809382 
2929.921497  	90.801793 
2930.885922  	90.820332 
2931.850346  	90.857414 
2932.814771  	90.908629 
2933.779195  	90.958431 
2934.743620  	90.963218 
2935.708044  	90.941821 
2936.672469  	90.918612 
2937.636893  	90.945091 
2938.601317  	90.973173 
2939.565742  	90.979774 
2940.530166  	90.990924 
2941.494591  	90.956082 
2942.459015  	90.903155 
2943.423440  	90.853887 
2944.387864  	90.792480 
2945.352289  	90.776052 
2946.316713  	90.781477 
2947.281138  	90.761897 
2948.245562  	90.722699 
2949.209986  	90.615137 
2950.174411  	90.524831 
2951.138835  	90.505423 
2952.103260  	90.443828 
2953.067684  	90.382338 
2954.032109  	90.319217 
2954.996533  	90.265513 
2955.960958  	90.209125 
2956.925382  	90.179014 
2957.889807  	90.180460 
2958.854231  	90.152817 
2959.818655  	90.102116 
2960.783080  	90.053457 
2961.747504  	90.014233 
2962.711929  	89.988494 
2963.676353  	89.926930 
2964.640778  	89.870316 
2965.605202  	89.843724 
2966.569627  	89.812840 
2967.534051  	89.843122 
2968.498476  	89.919156 
2969.462900  	89.945122 
2970.427324  	89.936031 
2971.391749  	89.968625 
2972.356173  	90.057463 
2973.320598  	90.126323 
2974.285022  	90.195409 
2975.249447  	90.223831 
2976.213871  	90.297614 
2977.178296  	90.423963 
2978.142720  	90.487044 
2979.107145  	90.539992 
2980.071569  	90.647715 
2981.035993  	90.681981 
2982.000418  	90.723523 
2982.964842  	90.814490 
2983.929267  	90.911405 
2984.893691  	90.975923 
2985.858116  	90.993386 
2986.822540  	91.057195 
2987.786965  	91.103223 
2988.751389  	91.080165 
2989.715814  	91.103585 
2990.680238  	91.189090 
2991.644663  	91.232868 
2992.609087  	91.210804 
2993.573511  	91.203088 
2994.537936  	91.229010 
2995.502360  	91.287609 
2996.466785  	91.283529 
2997.431209  	91.310758 
2998.395634  	91.378862 
2999.360058  	91.411743 
3000.324483  	91.433477 
3001.288907  	91.406994 
3002.253332  	91.354737 
3003.217756  	91.352607 
3004.182180  	91.349842 
3005.146605  	91.361982 
3006.111029  	91.441870 
3007.075454  	91.512492 
3008.039878  	91.537366 
3009.004303  	91.580901 
3009.968727  	91.550903 
3010.933152  	91.498503 
3011.897576  	91.475030 
3012.862001  	91.424865 
3013.826425  	91.520884 
3014.790849  	91.612295 
3015.755274  	91.609466 
3016.719698  	91.671253 
3017.684123  	91.769533 
3018.648547  	91.789616 
3019.612972  	91.750785 
3020.577396  	91.809988 
3021.541821  	91.860557 
3022.506245  	91.857962 
3023.470670  	91.877355 
3024.435094  	91.913901 
3025.399518  	91.913178 
3026.363943  	91.934211 
3027.328367  	91.995589 
3028.292792  	92.006062 
3029.257216  	92.012272 
3030.221641  	91.956241 
3031.186065  	91.833940 
3032.150490  	91.787160 
3033.114914  	91.909737 
3034.079339  	91.957206 
3035.043763  	91.968529 
3036.008187  	92.011622 
3036.972612  	92.043304 
3037.937036  	92.030900 
3038.901461  	91.976231 
3039.865885  	91.986480 
3040.830310  	92.043227 
3041.794734  	92.054069 
3042.759159  	92.034309 
3043.723583  	92.022709 
3044.688008  	91.998199 
3045.652432  	91.980445 
3046.616857  	91.946305 
3047.581281  	91.901335 
3048.545705  	91.796299 
3049.510130  	91.746011 
3050.474554  	91.772175 
3051.438979  	91.736032 
3052.403403  	91.710932 
3053.367828  	91.680293 
3054.332252  	91.617651 
3055.296677  	91.623826 
3056.261101  	91.570551 
3057.225526  	91.618536 
3058.189950  	91.773017 
3059.154374  	91.824875 
3060.118799  	91.832867 
3061.083223  	91.854591 
3062.047648  	91.840158 
3063.012072  	91.799088 
3063.976497  	91.696278 
3064.940921  	91.656091 
3065.905346  	91.722075 
3066.869770  	91.684063 
3067.834195  	91.672743 
3068.798619  	91.743042 
3069.763043  	91.754919 
3070.727468  	91.799749 
3071.691892  	91.843652 
3072.656317  	91.806064 
3073.620741  	91.774651 
3074.585166  	91.805359 
3075.549590  	91.820189 
3076.514015  	91.830704 
3077.478439  	91.786575 
3078.442864  	91.779682 
3079.407288  	91.775742 
3080.371712  	91.775743 
3081.336137  	91.803893 
3082.300561  	91.774444 
3083.264986  	91.815505 
3084.229410  	91.893863 
3085.193835  	91.887272 
3086.158259  	91.896769 
3087.122684  	91.843907 
3088.087108  	91.823433 
3089.051533  	91.908568 
3090.015957  	91.945235 
3090.980381  	91.931890 
3091.944806  	91.940691 
3092.909230  	91.979317 
3093.873655  	91.945502 
3094.838079  	91.898854 
3095.802504  	91.878287 
3096.766928  	91.911633 
3097.731353  	91.931292 
3098.695777  	91.896060 
3099.660202  	91.855847 
3100.624626  	91.824491 
3101.589050  	91.820949 
3102.553475  	91.841474 
3103.517899  	91.808088 
3104.482324  	91.838489 
3105.446748  	91.909082 
3106.411173  	91.907918 
3107.375597  	91.909422 
3108.340022  	91.925428 
3109.304446  	91.938113 
3110.268871  	91.918650 
3111.233295  	91.921178 
3112.197720  	91.923692 
3113.162144  	91.915363 
3114.126568  	91.929135 
3115.090993  	91.906687 
3116.055417  	91.917058 
3117.019842  	92.002187 
3117.984266  	92.021746 
3118.948691  	91.955889 
3119.913115  	92.048367 
3120.877540  	92.146156 
3121.841964  	92.028231 
3122.806389  	91.894067 
3123.770813  	91.980332 
3124.735237  	92.047098 
3125.699662  	92.042265 
3126.664086  	91.996569 
3127.628511  	92.020372 
3128.592935  	92.035949 
3129.557360  	92.013397 
3130.521784  	92.021204 
3131.486209  	92.073443 
3132.450633  	92.032112 
3133.415058  	91.936573 
3134.379482  	92.044735 
3135.343906  	92.140411 
3136.308331  	92.129764 
3137.272755  	92.077110 
3138.237180  	92.109458 
3139.201604  	92.160596 
3140.166029  	92.162916 
3141.130453  	92.164235 
3142.094878  	92.142241 
3143.059302  	92.108570 
3144.023727  	92.137781 
3144.988151  	92.146475 
3145.952575  	92.074775 
3146.917000  	92.033054 
3147.881424  	92.113152 
3148.845849  	92.195220 
3149.810273  	92.195060 
3150.774698  	92.209707 
3151.739122  	92.201402 
3152.703547  	92.167727 
3153.667971  	92.166471 
3154.632396  	92.182091 
3155.596820  	92.178960 
3156.561244  	92.166553 
3157.525669  	92.189481 
3158.490093  	92.179049 
3159.454518  	92.164413 
3160.418942  	92.182220 
3161.383367  	92.201261 
3162.347791  	92.148049 
3163.312216  	92.093369 
3164.276640  	92.145950 
3165.241065  	92.208796 
3166.205489  	92.199659 
3167.169914  	92.205161 
3168.134338  	92.192290 
3169.098762  	92.168845 
3170.063187  	92.115752 
3171.027611  	92.111338 
3171.992036  	92.160951 
3172.956460  	92.155970 
3173.920885  	92.136652 
3174.885309  	92.126885 
3175.849734  	92.079397 
3176.814158  	92.067129 
3177.778583  	92.045138 
3178.743007  	92.013477 
3179.707431  	92.039575 
3180.671856  	92.107292 
3181.636280  	92.213917 
3182.600705  	92.206520 
3183.565129  	92.111553 
3184.529554  	92.096198 
3185.493978  	92.113871 
3186.458403  	92.124235 
3187.422827  	92.105260 
3188.387252  	92.097617 
3189.351676  	92.143038 
3190.316100  	92.164202 
3191.280525  	92.133785 
3192.244949  	92.113227 
3193.209374  	92.154122 
3194.173798  	92.154473 
3195.138223  	92.197308 
3196.102647  	92.138920 
3197.067072  	92.049358 
3198.031496  	92.005952 
3198.995921  	92.123919 
3199.960345  	92.211352 
3200.924769  	92.239926 
3201.889194  	92.239925 
3202.853618  	92.173594 
3203.818043  	92.119836 
3204.782467  	92.107148 
3205.746892  	92.110568 
3206.711316  	92.087775 
3207.675741  	92.110227 
3208.640165  	92.115263 
3209.604590  	92.064834 
3210.569014  	92.047675 
3211.533438  	92.137737 
3212.497863  	92.154707 
3213.462287  	92.094363 
3214.426712  	91.987378 
3215.391136  	91.985756 
3216.355561  	92.015565 
3217.319985  	92.041782 
3218.284410  	92.099598 
3219.248834  	92.100385 
3220.213259  	92.151232 
3221.177683  	92.176481 
3222.142107  	92.110143 
3223.106532  	92.104452 
3224.070956  	92.147702 
3225.035381  	92.166465 
3225.999805  	92.199299 
3226.964230  	92.164184 
3227.928654  	92.073670 
3228.893079  	92.140340 
3229.857503  	92.193302 
3230.821928  	92.153517 
3231.786352  	92.151587 
3232.750777  	92.139055 
3233.715201  	92.086118 
3234.679625  	92.073638 
3235.644050  	92.118559 
3236.608474  	92.123997 
3237.572899  	92.129996 
3238.537323  	92.130663 
3239.501748  	92.061629 
3240.466172  	92.044554 
3241.430597  	92.129568 
3242.395021  	92.167420 
3243.359446  	92.142084 
3244.323870  	92.061866 
3245.288294  	91.972376 
3246.252719  	92.032763 
3247.217143  	92.101062 
3248.181568  	92.094451 
3249.145992  	92.075715 
3250.110417  	92.098534 
3251.074841  	92.120032 
3252.039266  	92.090071 
3253.003690  	92.057963 
3253.968115  	92.002794 
3254.932539  	91.940783 
3255.896963  	91.975850 
3256.861388  	92.031560 
3257.825812  	92.111309 
3258.790237  	92.123630 
3259.754661  	92.117223 
3260.719086  	92.105311 
3261.683510  	92.128788 
3262.647935  	92.107252 
3263.612359  	92.115357 
3264.576784  	92.116028 
3265.541208  	92.083444 
3266.505632  	92.081251 
3267.470057  	92.110904 
3268.434481  	92.109292 
3269.398906  	92.066250 
3270.363330  	92.023834 
3271.327755  	92.076991 
3272.292179  	92.072850 
3273.256604  	91.931340 
3274.221028  	91.923625 
3275.185453  	92.041412 
3276.149877  	92.012963 
3277.114301  	91.984256 
3278.078726  	92.047407 
3279.043150  	92.027016 
3280.007575  	92.016959 
3280.971999  	92.035194 
3281.936424  	92.040719 
3282.900848  	92.003826 
3283.865273  	91.962713 
3284.829697  	91.990977 
3285.794122  	92.041688 
3286.758546  	92.071559 
3287.722971  	92.055245 
3288.687395  	92.029424 
3289.651819  	92.092543 
3290.616244  	92.059974 
3291.580668  	91.991349 
3292.545093  	91.962348 
3293.509517  	91.976115 
3294.473942  	92.027352 
3295.438366  	91.993087 
3296.402791  	91.990161 
3297.367215  	92.037178 
3298.331640  	92.104215 
3299.296064  	92.153948 
3300.260488  	92.126938 
3301.224913  	92.089455 
3302.189337  	92.122595 
3303.153762  	92.095809 
3304.118186  	92.104971 
3305.082611  	92.147204 
3306.047035  	92.152431 
3307.011460  	92.179152 
3307.975884  	92.079051 
3308.940309  	91.941336 
3309.904733  	91.964955 
3310.869157  	91.950970 
3311.833582  	91.946549 
3312.798006  	92.018576 
3313.762431  	92.038295 
3314.726855  	92.095579 
3315.691280  	92.100096 
3316.655704  	92.114323 
3317.620129  	92.108620 
3318.584553  	92.092206 
3319.548978  	92.132595 
3320.513402  	92.141741 
3321.477826  	92.064796 
3322.442251  	92.030837 
3323.406675  	92.076223 
3324.371100  	92.072925 
3325.335524  	92.031092 
3326.299949  	92.055873 
3327.264373  	92.049821 
3328.228798  	91.973985 
3329.193222  	91.874518 
3330.157647  	91.895943 
3331.122071  	91.979437 
3332.086495  	92.064415 
3333.050920  	92.072286 
3334.015344  	92.010268 
3334.979769  	91.919439 
3335.944193  	91.932567 
3336.908618  	91.878247 
3337.873042  	91.933264 
3338.837467  	92.068772 
3339.801891  	92.080769 
3340.766316  	92.079737 
3341.730740  	92.053088 
3342.695164  	92.011904 
3343.659589  	92.040785 
3344.624013  	92.132935 
3345.588438  	92.184226 
3346.552862  	92.169068 
3347.517287  	92.115096 
3348.481711  	92.102740 
3349.446136  	92.141091 
3350.410560  	92.155100 
3351.374985  	92.207388 
3352.339409  	92.278710 
3353.303834  	92.163832 
3354.268258  	92.122902 
3355.232682  	92.072954 
3356.197107  	91.946351 
3357.161531  	92.003880 
3358.125956  	92.126640 
3359.090380  	92.165782 
3360.054805  	92.057825 
3361.019229  	91.961734 
3361.983654  	91.924990 
3362.948078  	92.044342 
3363.912503  	92.114042 
3364.876927  	92.014464 
3365.841351  	92.023964 
3366.805776  	92.088168 
3367.770200  	92.094496 
3368.734625  	92.094876 
3369.699049  	92.176944 
3370.663474  	92.196915 
3371.627898  	92.161418 
3372.592323  	92.081686 
3373.556747  	92.071240 
3374.521172  	92.142839 
3375.485596  	92.157317 
3376.450020  	92.093858 
3377.414445  	92.102331 
3378.378869  	92.127551 
3379.343294  	92.190830 
3380.307718  	92.172143 
3381.272143  	92.156738 
3382.236567  	92.164059 
3383.200992  	92.106605 
3384.165416  	92.003761 
3385.129841  	91.987182 
3386.094265  	92.092704 
3387.058689  	92.157595 
3388.023114  	92.150943 
3388.987538  	92.187221 
3389.951963  	92.134563 
3390.916387  	92.079876 
3391.880812  	91.999229 
3392.845236  	91.771356 
3393.809661  	91.841663 
3394.774085  	92.102267 
3395.738510  	92.155644 
3396.702934  	91.998651 
3397.667358  	91.765704 
3398.631783  	91.951142 
3399.596207  	92.177551 
3400.560632  	92.111816 
3401.525056  	92.010988 
3402.489481  	92.063969 
3403.453905  	92.081020 
3404.418330  	92.011248 
3405.382754  	92.062313 
3406.347179  	92.115488 
3407.311603  	92.068401 
3408.276028  	91.983259 
3409.240452  	91.947499 
3410.204876  	91.927323 
3411.169301  	91.944768 
3412.133725  	92.022890 
3413.098150  	92.042775 
3414.062574  	91.948947 
3415.026999  	91.902605 
3415.991423  	91.874683 
3416.955848  	91.910713 
3417.920272  	91.898188 
3418.884697  	91.832707 
3419.849121  	91.593251 
3420.813545  	91.310538 
3421.777970  	91.389799 
3422.742394  	91.496917 
3423.706819  	91.577883 
3424.671243  	91.709181 
3425.635668  	91.720052 
3426.600092  	91.714554 
3427.564517  	91.701828 
3428.528941  	91.660233 
3429.493366  	91.719783 
3430.457790  	91.730965 
3431.422214  	91.647719 
3432.386639  	91.644049 
3433.351063  	91.686922 
3434.315488  	91.780142 
3435.279912  	91.788633 
3436.244337  	91.760694 
3437.208761  	91.810943 
3438.173186  	91.880213 
3439.137610  	91.880486 
3440.102035  	91.889338 
3441.066459  	91.843231 
3442.030883  	91.703781 
3442.995308  	91.531445 
3443.959732  	91.737840 
3444.924157  	91.805249 
3445.888581  	91.727358 
3446.853006  	91.276768 
3447.817430  	90.970941 
3448.781855  	91.590874 
3449.746279  	91.963324 
3450.710704  	92.047861 
3451.675128  	92.040777 
3452.639552  	92.057847 
3453.603977  	92.023244 
3454.568401  	92.016236 
3455.532826  	92.013177 
3456.497250  	92.033544 
3457.461675  	92.034968 
3458.426099  	91.971218 
3459.390524  	91.957784 
3460.354948  	92.035511 
3461.319373  	91.867442 
3462.283797  	91.728627 
3463.248221  	91.778726 
3464.212646  	92.064315 
3465.177070  	92.144484 
3466.141495  	92.044209 
3467.105919  	91.893536 
3468.070344  	92.054629 
3469.034768  	92.234834 
3469.999193  	92.166451 
3470.963617  	92.081313 
3471.928042  	92.079497 
3472.892466  	92.085282 
3473.856891  	92.100124 
3474.821315  	91.917284 
3475.785739  	91.930793 
3476.750164  	92.075831 
3477.714588  	92.128816 
3478.679013  	92.235549 
3479.643437  	92.183175 
3480.607862  	91.801093 
3481.572286  	91.581266 
3482.536711  	91.434110 
3483.501135  	91.744911 
3484.465560  	92.052114 
3485.429984  	92.027868 
3486.394408  	92.054374 
3487.358833  	92.043719 
3488.323257  	91.739717 
3489.287682  	91.756342 
3490.252106  	91.959392 
3491.216531  	91.979236 
3492.180955  	92.095594 
3493.145380  	92.202688 
3494.109804  	92.232826 
3495.074229  	92.094015 
3496.038653  	91.880890 
3497.003077  	91.732399 
3497.967502  	91.911407 
3498.931926  	92.052512 
3499.896351  	91.938788 
3500.860775  	91.909513 
3501.825200  	91.553529 
3502.789624  	90.977354 
3503.754049  	90.911593 
3504.718473  	91.339464 
3505.682898  	91.683588 
3506.647322  	91.989930 
3507.611746  	92.143027 
3508.576171  	91.808558 
3509.540595  	91.070749 
3510.505020  	91.273905 
3511.469444  	91.735895 
3512.433869  	91.786225 
3513.398293  	91.862137 
3514.362718  	91.976716 
3515.327142  	92.086655 
3516.291567  	92.084766 
3517.255991  	91.932329 
3518.220415  	91.828158 
3519.184840  	91.864126 
3520.149264  	91.951311 
3521.113689  	92.062516 
3522.078113  	91.802860 
3523.042538  	90.948525 
3524.006962  	90.521858 
3524.971387  	90.912113 
3525.935811  	91.121756 
3526.900236  	91.037805 
3527.864660  	90.873104 
3528.829085  	90.936998 
3529.793509  	91.148964 
3530.757933  	91.490462 
3531.722358  	91.590712 
3532.686782  	91.892036 
3533.651207  	92.104525 
3534.615631  	92.110257 
3535.580056  	91.758932 
3536.544480  	91.023666 
3537.508905  	91.253269 
3538.473329  	91.861916 
3539.437754  	91.868295 
3540.402178  	91.915033 
3541.366602  	91.961596 
3542.331027  	91.952327 
3543.295451  	91.581087 
3544.259876  	91.095748 
3545.224300  	90.164704 
3546.188725  	89.974900 
3547.153149  	90.055780 
3548.117574  	90.547349 
3549.081998  	91.494862 
3550.046423  	91.786968 
3551.010847  	91.711007 
3551.975271  	91.091759 
3552.939696  	90.733729 
3553.904120  	91.052358 
3554.868545  	91.515084 
3555.832969  	91.923134 
3556.797394  	91.889194 
3557.761818  	91.901861 
3558.726243  	92.000658 
3559.690667  	91.549734 
3560.655092  	91.035301 
3561.619516  	91.487008 
3562.583940  	91.511622 
3563.548365  	91.395878 
3564.512789  	91.267355 
3565.477214  	90.379759 
3566.441638  	88.078282 
3567.406063  	87.827013 
3568.370487  	88.223653 
3569.334912  	89.903717 
3570.299336  	91.162623 
3571.263761  	91.408128 
3572.228185  	91.877425 
3573.192609  	91.919069 
3574.157034  	91.749732 
3575.121458  	91.661901 
3576.085883  	91.773357 
3577.050307  	91.682668 
3578.014732  	91.705260 
3578.979156  	91.831262 
3579.943581  	91.399231 
3580.908005  	91.332795 
3581.872430  	91.775814 
3582.836854  	91.777838 
3583.801278  	91.615243 
3584.765703  	91.696167 
3585.730127  	91.306733 
3586.694552  	89.517568 
3587.658976  	88.384912 
3588.623401  	88.791721 
3589.587825  	89.941474 
3590.552250  	91.329405 
3591.516674  	91.801244 
3592.481099  	91.769233 
3593.445523  	90.998140 
3594.409948  	90.918598 
3595.374372  	90.392883 
3596.338796  	90.263410 
3597.303221  	91.287750 
3598.267645  	91.366194 
3599.232070  	91.012267 
3600.196494  	91.101890 
3601.160919  	90.829428 
3602.125343  	91.145195 
3603.089768  	91.449339 
3604.054192  	91.813576 
3605.018617  	92.021437 
3605.983041  	91.813702 
3606.947465  	90.615135 
3607.911890  	90.006001 
3608.876314  	90.267197 
3609.840739  	89.960971 
3610.805163  	91.029304 
3611.769588  	91.073323 
3612.734012  	89.763172 
3613.698437  	89.761679 
3614.662861  	89.961794 
3615.627286  	90.102366 
3616.591710  	91.214668 
3617.556134  	90.653705 
3618.520559  	89.685920 
3619.484983  	89.517851 
3620.449408  	89.550718 
3621.413832  	90.362700 
3622.378257  	91.169049 
3623.342681  	91.653579 
3624.307106  	91.839809 
3625.271530  	91.851367 
3626.235955  	91.300183 
3627.200379  	91.015822 
3628.164803  	90.116307 
3629.129228  	87.084432 
3630.093652  	87.601112 
3631.058077  	90.150281 
3632.022501  	91.200464 
3632.986926  	91.298141 
3633.951350  	90.592877 
3634.915775  	90.990226 
3635.880199  	91.763502 
3636.844624  	91.930474 
3637.809048  	91.763003 
3638.773472  	91.668218 
3639.737897  	91.842338 
3640.702321  	91.859180 
3641.666746  	91.560239 
3642.631170  	91.122862 
3643.595595  	91.421079 
3644.560019  	91.852851 
3645.524444  	91.553418 
3646.488868  	90.335549 
3647.453293  	88.435813 
3648.417717  	88.615953 
3649.382142  	88.341513 
3650.346566  	87.453616 
3651.310990  	87.707708 
3652.275415  	89.862554 
3653.239839  	91.324993 
3654.204264  	91.787108 
3655.168688  	91.649227 
3656.133113  	90.647492 
3657.097537  	90.392612 
3658.061962  	91.559193 
3659.026386  	91.837574 
3659.990811  	91.754626 
3660.955235  	91.915479 
3661.919659  	92.162906 
3662.884084  	92.200600 
3663.848508  	92.200451 
3664.812933  	92.120073 
3665.777357  	92.166307 
3666.741782  	92.292751 
3667.706206  	92.198499 
3668.670631  	91.191785 
3669.635055  	89.955248 
3670.599480  	89.194180 
3671.563904  	89.637317 
3672.528328  	91.348541 
3673.492753  	91.722356 
3674.457177  	90.504811 
3675.421602  	87.440841 
3676.386026  	87.935154 
3677.350451  	89.826968 
3678.314875  	90.644349 
3679.279300  	90.734020 
3680.243724  	90.837453 
3681.208149  	91.765324 
3682.172573  	92.190475 
3683.136997  	92.231616 
3684.101422  	92.100085 
3685.065846  	91.948849 
3686.030271  	92.080083 
3686.994695  	91.986047 
3687.959120  	91.258062 
3688.923544  	90.090032 
3689.887969  	90.427840 
3690.852393  	89.812427 
3691.816818  	89.635851 
3692.781242  	91.398202 
3693.745666  	91.915823 
3694.710091  	92.046018 
3695.674515  	92.186502 
3696.638940  	92.034868 
3697.603364  	92.107339 
3698.567789  	92.382281 
3699.532213  	92.310481 
3700.496638  	92.235879 
3701.461062  	91.432012 
3702.425487  	90.741871 
3703.389911  	91.773645 
3704.354335  	92.263878 
3705.318760  	92.182343 
3706.283184  	92.192556 
3707.247609  	92.315033 
3708.212033  	92.258340 
3709.176458  	91.556984 
3710.140882  	90.873955 
3711.105307  	90.598047 
3712.069731  	89.462811 
3713.034156  	89.569399 
3713.998580  	91.087642 
3714.963005  	91.151349 
3715.927429  	91.501473 
3716.891853  	92.221461 
3717.856278  	92.282397 
3718.820702  	91.551871 
3719.785127  	91.280650 
3720.749551  	92.003157 
3721.713976  	91.514045 
3722.678400  	90.012970 
3723.642825  	90.709226 
3724.607249  	91.176132 
3725.571674  	90.445366 
3726.536098  	90.154479 
3727.500522  	90.442395 
3728.464947  	91.526410 
3729.429371  	92.212045 
3730.393796  	92.140499 
3731.358220  	91.662063 
3732.322645  	90.754876 
3733.287069  	90.816205 
3734.251494  	90.197697 
3735.215918  	86.887614 
3736.180343  	87.139551 
3737.144767  	88.933565 
3738.109191  	90.040772 
3739.073616  	90.496138 
3740.038040  	91.108717 
3741.002465  	90.746307 
3741.966889  	90.905020 
3742.931314  	91.572604 
3743.895738  	90.568838 
3744.860163  	86.901068 
3745.824587  	89.104524 
3746.789012  	90.384812 
3747.753436  	90.557928 
3748.717860  	90.556488 
3749.682285  	90.029808 
3750.646709  	89.570952 
3751.611134  	89.116114 
3752.575558  	87.854347 
3753.539983  	89.787855 
3754.504407  	91.002621 
3755.468832  	91.585103 
3756.433256  	91.313556 
3757.397681  	91.279142 
3758.362105  	91.509416 
3759.326529  	90.495236 
3760.290954  	89.976909 
3761.255378  	91.587183 
3762.219803  	92.055668 
3763.184227  	92.109619 
3764.148652  	92.159217 
3765.113076  	91.706103 
3766.077501  	90.736612 
3767.041925  	91.513322 
3768.006350  	92.159572 
3768.970774  	91.821118 
3769.935199  	90.708586 
3770.899623  	90.812399 
3771.864047  	91.678810 
3772.828472  	92.089554 
3773.792896  	92.300528 
3774.757321  	92.418283 
3775.721745  	92.526722 
3776.686170  	92.619263 
3777.650594  	92.471763 
3778.615019  	92.009189 
3779.579443  	91.088311 
3780.543868  	91.227097 
3781.508292  	92.102419 
3782.472716  	92.248623 
3783.437141  	92.362668 
3784.401565  	91.984881 
3785.365990  	91.387051 
3786.330414  	91.691489 
3787.294839  	92.097712 
3788.259263  	92.359754 
3789.223688  	92.425965 
3790.188112  	92.440470 
3791.152537  	92.542708 
3792.116961  	92.541961 
3793.081385  	92.532825 
3794.045810  	92.565168 
3795.010234  	92.455407 
3795.974659  	91.877726 
3796.939083  	90.912729 
3797.903508  	91.136659 
3798.867932  	91.741624 
3799.832357  	91.929214 
3800.796781  	90.993457 
3801.761206  	89.379306 
3802.725630  	89.729315 
3803.690054  	90.847055 
3804.654479  	91.879577 
3805.618903  	92.105361 
3806.583328  	91.423006 
3807.547752  	90.622490 
3808.512177  	91.646097 
3809.476601  	92.124264 
3810.441026  	92.218282 
3811.405450  	92.436799 
3812.369875  	92.541289 
3813.334299  	92.545371 
3814.298723  	92.411229 
3815.263148  	91.735604 
3816.227572  	90.136450 
3817.191997  	90.558450 
3818.156421  	91.594453 
3819.120846  	91.596456 
3820.085270  	90.903586 
3821.049695  	89.228407 
3822.014119  	88.928540 
3822.978544  	90.711083 
3823.942968  	91.458144 
3824.907392  	91.772990 
3825.871817  	91.750058 
3826.836241  	91.165660 
3827.800666  	91.253867 
3828.765090  	91.959975 
3829.729515  	92.370562 
3830.693939  	92.259761 
3831.658364  	91.344928 
3832.622788  	91.311926 
3833.587213  	92.006506 
3834.551637  	91.573966 
3835.516062  	90.925788 
3836.480486  	91.552333 
3837.444910  	91.079616 
3838.409335  	89.744323 
3839.373759  	90.251250 
3840.338184  	89.718135 
3841.302608  	89.806763 
3842.267033  	91.313421 
3843.231457  	91.388226 
3844.195882  	90.477552 
3845.160306  	91.375525 
3846.124731  	92.113186 
3847.089155  	92.296753 
3848.053579  	92.304656 
3849.018004  	92.066412 
3849.982428  	91.568780 
3850.946853  	91.604647 
3851.911277  	90.841409 
3852.875702  	89.108241 
3853.840126  	88.178922 
3854.804551  	88.332600 
3855.768975  	90.622637 
3856.733400  	90.854633 
3857.697824  	90.433529 
3858.662248  	91.529845 
3859.626673  	92.260751 
3860.591097  	92.272102 
3861.555522  	91.596484 
3862.519946  	90.991004 
3863.484371  	91.324371 
3864.448795  	90.462245 
3865.413220  	89.252291 
3866.377644  	90.786157 
3867.342069  	91.969976 
3868.306493  	91.956830 
3869.270917  	90.623646 
3870.235342  	88.566966 
3871.199766  	89.836317 
3872.164191  	91.137231 
3873.128615  	91.536269 
3874.093040  	90.261044 
3875.057464  	90.240145 
3876.021889  	91.903683 
3876.986313  	92.348894 
3877.950738  	92.476761 
3878.915162  	92.411949 
3879.879586  	91.346851 
3880.844011  	89.301878 
3881.808435  	90.526442 
3882.772860  	91.633485 
3883.737284  	91.396532 
3884.701709  	91.395219 
3885.666133  	90.448651 
3886.630558  	89.919708 
3887.594982  	91.608697 
3888.559407  	92.233943 
3889.523831  	92.318545 
3890.488256  	91.879571 
3891.452680  	90.538927 
3892.417104  	90.430361 
3893.381529  	91.435819 
3894.345953  	91.398459 
3895.310378  	91.802990 
3896.274802  	92.391638 
3897.239227  	92.382513 
3898.203651  	91.655130 
3899.168076  	90.503331 
3900.132500  	90.316772 
3901.096925  	91.072695 
3902.061349  	89.735740 
3903.025773  	89.777567 
3903.990198  	90.322826 
3904.954622  	89.750558 
3905.919047  	90.080409 
3906.883471  	90.991758 
3907.847896  	92.132171 
3908.812320  	92.499291 
3909.776745  	92.549293 
3910.741169  	92.553385 
3911.705594  	92.525779 
3912.670018  	92.475918 
3913.634442  	92.518042 
3914.598867  	92.595212 
3915.563291  	92.428979 
3916.527716  	91.417609 
3917.492140  	90.537830 
3918.456565  	91.483146 
3919.420989  	91.833268 
3920.385414  	91.087945 
3921.349838  	91.662520 
3922.314263  	92.411090 
3923.278687  	92.088536 
3924.243111  	91.167620 
3925.207536  	90.604847 
3926.171960  	91.387854 
3927.136385  	92.323571 
3928.100809  	92.380002 
3929.065234  	92.126170 
3930.029658  	91.786306 
3930.994083  	91.567527 
3931.958507  	91.107309 
3932.922932  	90.596323 
3933.887356  	91.451442 
3934.851780  	91.980702 
3935.816205  	92.333221 
3936.780629  	92.560138 
3937.745054  	92.533250 
3938.709478  	92.258607 
3939.673903  	92.387927 
3940.638327  	92.543380 
3941.602752  	92.387907 
3942.567176  	91.389539 
3943.531601  	90.862443 
3944.496025  	91.729217 
3945.460449  	92.225499 
3946.424874  	92.407250 
3947.389298  	91.780265 
3948.353723  	91.309706 
3949.318147  	91.593730 
3950.282572  	91.306349 
3951.246996  	91.732631 
3952.211421  	92.383565 
3953.175845  	92.315458 
3954.140270  	92.386274 
3955.104694  	92.506263 
3956.069119  	92.448583 
3957.033543  	92.265026 
3957.997967  	92.229465 
3958.962392  	92.308285 
3959.926816  	92.393340 
3960.891241  	92.390027 
3961.855665  	91.922648 
3962.820090  	91.832675 
3963.784514  	92.363273 
3964.748939  	92.432103 
3965.713363  	92.484753 
3966.677788  	92.569372 
3967.642212  	92.554076 
3968.606636  	92.349027 
3969.571061  	92.174678 
3970.535485  	92.345117 
3971.499910  	92.466689 
3972.464334  	92.294820 
3973.428759  	92.413370 
3974.393183  	92.491732 
3975.357608  	92.268285 
3976.322032  	92.055419 
3977.286457  	92.279178 
3978.250881  	92.591461 
3979.215305  	92.634268 
3980.179730  	92.567111 
3981.144154  	92.527054 
3982.108579  	92.443896 
3983.073003  	92.490463 
3984.037428  	92.611444 
3985.001852  	92.580483 
3985.966277  	92.545132 
3986.930701  	92.608095 
3987.895126  	92.613451 
3988.859550  	92.582247 
3989.823974  	92.472394 
3990.788399  	92.246758 
3991.752823  	92.366446 
3992.717248  	92.587030 
3993.681672  	92.572377 
3994.646097  	92.424666 
3995.610521  	92.314138 
3996.574946  	92.529487 
3997.539370  	92.639964 
3998.503795  	92.658963 
3999.468219  	92.647802 
4000.432643  	92.670468 
4001.397068  	92.672096 
4002.361492  	92.645236 
4003.325917  	92.588573 
4004.290341  	92.579208 
4005.254766  	92.606122 
4006.219190  	92.634694 
4007.183615  	92.606314 
4008.148039  	92.470564 
4009.112464  	92.340236 
4010.076888  	92.487929 
4011.041313  	92.555048 
4012.005737  	92.581272 
4012.970161  	92.586084 
4013.934586  	92.593459 
4014.899010  	92.611725 
4015.863435  	92.643184 
4016.827859  	92.630006 
4017.792284  	92.646147 
4018.756708  	92.665117 
4019.721133  	92.559336 
4020.685557  	92.501659 
4021.649982  	92.558363 
4022.614406  	92.584598 
4023.578830  	92.576763 
4024.543255  	92.553305 
4025.507679  	92.484136 
4026.472104  	92.519196 
4027.436528  	92.651587 
4028.400953  	92.675251 
4029.365377  	92.622723 
4030.329802  	92.569517 
4031.294226  	92.578024 
4032.258651  	92.605043 
4033.223075  	92.693897 
4034.187499  	92.703925 
4035.151924  	92.637849 
4036.116348  	92.609509 
4037.080773  	92.624990 
4038.045197  	92.637049 
4039.009622  	92.615631 
4039.974046  	92.615610 
4040.938471  	92.653901 
4041.902895  	92.651637 
4042.867320  	92.666558 
4043.831744  	92.577944 
4044.796168  	92.430684 
4045.760593  	92.420548 
4046.725017  	92.556415 
4047.689442  	92.624151 
4048.653866  	92.622192 
4049.618291  	92.607759 
4050.582715  	92.627480 
4051.547140  	92.587552 
4052.511564  	92.593432 
4053.475989  	92.644889 
4054.440413  	92.669400 
4055.404837  	92.637879 
4056.369262  	92.644713 
4057.333686  	92.705749 
4058.298111  	92.671924 
4059.262535  	92.647266 
4060.226960  	92.641524 
4061.191384  	92.572424 
4062.155809  	92.594542 
4063.120233  	92.666036 
4064.084658  	92.687231 
4065.049082  	92.673609 
4066.013506  	92.660955 
4066.977931  	92.636616 
4067.942355  	92.604854 
4068.906780  	92.601002 
4069.871204  	92.653181 
4070.835629  	92.627563 
4071.800053  	92.596750 
4072.764478  	92.572822 
4073.728902  	92.531191 
4074.693327  	92.542897 
4075.657751  	92.609336 
4076.622176  	92.624767 
4077.586600  	92.642977 
4078.551024  	92.617173 
4079.515449  	92.573104 
4080.479873  	92.585459 
4081.444298  	92.614849 
4082.408722  	92.567004 
4083.373147  	92.533345 
4084.337571  	92.534855 
4085.301996  	92.554822 
4086.266420  	92.542396 
4087.230845  	92.559783 
4088.195269  	92.528656 
4089.159693  	92.530929 
4090.124118  	92.587056 
4091.088542  	92.553900 
4092.052967  	92.557145 
4093.017391  	92.606054 
4093.981816  	92.588027 
4094.946240  	92.560490 
4095.910665  	92.568507 
4096.875089  	92.625445 
4097.839514  	92.601056 
4098.803938  	92.537715 
4099.768362  	92.567253 
4100.732787  	92.639669 
4101.697211  	92.636169 
4102.661636  	92.627066 
4103.626060  	92.637057 
4104.590485  	92.604028 
4105.554909  	92.529823 
4106.519334  	92.554316 
4107.483758  	92.589536 
4108.448183  	92.604928 
4109.412607  	92.615052 
4110.377031  	92.628696 
4111.341456  	92.644560 
4112.305880  	92.651132 
4113.270305  	92.632677 
4114.234729  	92.627697 
4115.199154  	92.648755 
4116.163578  	92.627984 
4117.128003  	92.640095 
4118.092427  	92.639333 
4119.056852  	92.605689 
4120.021276  	92.602040 
4120.985700  	92.629666 
4121.950125  	92.671100 
4122.914549  	92.636192 
4123.878974  	92.627993 
4124.843398  	92.622989 
4125.807823  	92.621274 
4126.772247  	92.612707 
4127.736672  	92.589664 
4128.701096  	92.612549 
4129.665521  	92.660572 
4130.629945  	92.640972 
4131.594370  	92.660919 
4132.558794  	92.669433 
4133.523218  	92.645108 
4134.487643  	92.651463 
4135.452067  	92.616308 
4136.416492  	92.572562 
4137.380916  	92.604678 
4138.345341  	92.618936 
4139.309765  	92.577641 
4140.274190  	92.594596 
4141.238614  	92.609138 
4142.203039  	92.622864 
4143.167463  	92.691692 
4144.131887  	92.672037 
4145.096312  	92.672808 
4146.060736  	92.695889 
4147.025161  	92.728987 
4147.989585  	92.726733 
4148.954010  	92.664570 
4149.918434  	92.636029 
4150.882859  	92.662967 
4151.847283  	92.714488 
4152.811708  	92.692737 
4153.776132  	92.660347 
4154.740556  	92.700983 
4155.704981  	92.654729 
4156.669405  	92.623353 
4157.633830  	92.622881 
4158.598254  	92.645286 
4159.562679  	92.670719 
4160.527103  	92.673095 
4161.491528  	92.695829 
4162.455952  	92.709899 
4163.420377  	92.689732 
4164.384801  	92.670166 
4165.349225  	92.692393 
4166.313650  	92.678065 
4167.278074  	92.650217 
4168.242499  	92.682591 
4169.206923  	92.711585 
4170.171348  	92.704345 
4171.135772  	92.648698 
4172.100197  	92.627718 
4173.064621  	92.658622 
4174.029046  	92.695784 
4174.993470  	92.726958 
4175.957894  	92.749744 
4176.922319  	92.773846 
4177.886743  	92.752268 
4178.851168  	92.673834 
4179.815592  	92.626012 
4180.780017  	92.636961 
4181.744441  	92.699703 
4182.708866  	92.692675 
4183.673290  	92.668569 
4184.637715  	92.682141 
4185.602139  	92.712669 
4186.566563  	92.661525 
4187.530988  	92.659037 
4188.495412  	92.719350 
4189.459837  	92.783326 
4190.424261  	92.770314 
4191.388686  	92.731936 
4192.353110  	92.742824 
4193.317535  	92.697442 
4194.281959  	92.656748 
4195.246384  	92.756189 
4196.210808  	92.764578 
4197.175233  	92.718696 
4198.139657  	92.721537 
4199.104081  	92.761666 
4200.068506  	92.739754 
4201.032930  	92.687854 
4201.997355  	92.709066 
4202.961779  	92.738593 
4203.926204  	92.708595 
4204.890628  	92.702064 
4205.855053  	92.716956 
4206.819477  	92.666673 
4207.783902  	92.630492 
4208.748326  	92.648582 
4209.712750  	92.668642 
4210.677175  	92.723580 
4211.641599  	92.740498 
4212.606024  	92.705446 
4213.570448  	92.711510 
4214.534873  	92.766030 
4215.499297  	92.708527 
4216.463722  	92.681551 
4217.428146  	92.680197 
4218.392571  	92.715808 
4219.356995  	92.730778 
4220.321419  	92.755104 
4221.285844  	92.786124 
4222.250268  	92.800228 
4223.214693  	92.684913 
4224.179117  	92.664501 
4225.143542  	92.714224 
4226.107966  	92.729622 
4227.072391  	92.713022 
4228.036815  	92.669401 
4229.001240  	92.686491 
4229.965664  	92.689242 
4230.930088  	92.670900 
4231.894513  	92.712605 
4232.858937  	92.720729 
4233.823362  	92.731005 
4234.787786  	92.770031 
4235.752211  	92.757274 
4236.716635  	92.737604 
4237.681060  	92.759955 
4238.645484  	92.758727 
4239.609909  	92.754586 
4240.574333  	92.715037 
4241.538757  	92.708385 
4242.503182  	92.722056 
4243.467606  	92.729617 
4244.432031  	92.694207 
4245.396455  	92.696576 
4246.360880  	92.729958 
4247.325304  	92.725252 
4248.289729  	92.698630 
4249.254153  	92.688453 
4250.218578  	92.748680 
4251.183002  	92.781795 
4252.147427  	92.759412 
4253.111851  	92.748102 
4254.076275  	92.692238 
4255.040700  	92.685201 
4256.005124  	92.707077 
4256.969549  	92.768877 
4257.933973  	92.764936 
4258.898398  	92.671625 
4259.862822  	92.627546 
4260.827247  	92.647591 
4261.791671  	92.675160 
4262.756096  	92.679129 
4263.720520  	92.686201 
4264.684944  	92.732358 
4265.649369  	92.701957 
4266.613793  	92.727797 
4267.578218  	92.716848 
4268.542642  	92.719328 
4269.507067  	92.696856 
4270.471491  	92.673471 
4271.435916  	92.680003 
4272.400340  	92.695515 
4273.364765  	92.683998 
4274.329189  	92.736451 
4275.293613  	92.784775 
4276.258038  	92.780919 
4277.222462  	92.707090 
4278.186887  	92.630611 
4279.151311  	92.567617 
4280.115736  	92.560815 
4281.080160  	92.615473 
4282.044585  	92.671601 
4283.009009  	92.652214 
4283.973434  	92.667662 
4284.937858  	92.700099 
4285.902282  	92.690426 
4286.866707  	92.698950 
4287.831131  	92.720138 
4288.795556  	92.735857 
4289.759980  	92.718060 
4290.724405  	92.658375 
4291.688829  	92.677817 
4292.653254  	92.684482 
4293.617678  	92.698280 
4294.582103  	92.750634 
4295.546527  	92.754193 
4296.510951  	92.722889 
4297.475376  	92.747152 
4298.439800  	92.728499 
4299.404225  	92.680319 
4300.368649  	92.710529 
4301.333074  	92.703478 
4302.297498  	92.638971 
4303.261923  	92.611608 
4304.226347  	92.681424 
4305.190772  	92.819057 
4306.155196  	92.799157 
4307.119620  	92.729195 
4308.084045  	92.675698 
4309.048469  	92.669034 
4310.012894  	92.731213 
4310.977318  	92.771623 
4311.941743  	92.739107 
4312.906167  	92.703917 
4313.870592  	92.665248 
4314.835016  	92.700243 
4315.799441  	92.685991 
4316.763865  	92.702537 
4317.728290  	92.774504 
4318.692714  	92.758361 
4319.657138  	92.687787 
4320.621563  	92.715343 
4321.585987  	92.732099 
4322.550412  	92.737237 
4323.514836  	92.736902 
4324.479261  	92.765260 
4325.443685  	92.746072 
4326.408110  	92.774511 
4327.372534  	92.821870 
4328.336959  	92.803531 
4329.301383  	92.724941 
4330.265807  	92.686364 
4331.230232  	92.726934 
4332.194656  	92.749883 
4333.159081  	92.748338 
4334.123505  	92.742645 
4335.087930  	92.703529 
4336.052354  	92.747031 
4337.016779  	92.764548 
4337.981203  	92.743528 
4338.945628  	92.736772 
4339.910052  	92.744211 
4340.874476  	92.752503 
4341.838901  	92.831739 
4342.803325  	92.784067 
4343.767750  	92.717735 
4344.732174  	92.706970 
4345.696599  	92.679143 
4346.661023  	92.669050 
4347.625448  	92.659190 
4348.589872  	92.674881 
4349.554297  	92.732085 
4350.518721  	92.784515 
4351.483145  	92.798550 
4352.447570  	92.700537 
4353.411994  	92.704086 
4354.376419  	92.757968 
4355.340843  	92.782088 
4356.305268  	92.773011 
4357.269692  	92.770937 
4358.234117  	92.764354 
4359.198541  	92.715397 
4360.162966  	92.719184 
4361.127390  	92.756994 
4362.091814  	92.791876 
4363.056239  	92.743716 
4364.020663  	92.730384 
4364.985088  	92.707301 
4365.949512  	92.679206 
4366.913937  	92.666854 
4367.878361  	92.655502 
4368.842786  	92.730175 
4369.807210  	92.811925 
4370.771635  	92.785508 
4371.736059  	92.716468 
4372.700484  	92.715932 
4373.664908  	92.790697 
4374.629332  	92.797444 
4375.593757  	92.739665 
4376.558181  	92.743924 
4377.522606  	92.754140 
4378.487030  	92.688027 
4379.451455  	92.669285 
4380.415879  	92.733901 
4381.380304  	92.704930 
4382.344728  	92.703005 
4383.309153  	92.737072 
4384.273577  	92.815104 
4385.238001  	92.880876 
4386.202426  	92.842399 
4387.166850  	92.786969 
4388.131275  	92.756395 
4389.095699  	92.663672 
4390.060124  	92.614203 
4391.024548  	92.686887 
4391.988973  	92.810980 
4392.953397  	92.842483 
4393.917822  	92.825773 
4394.882246  	92.766913 
4395.846670  	92.694153 
4396.811095  	92.700347 
4397.775519  	92.751992 
4398.739944  	92.763620 
4399.704368  	92.792248 
4400.668793  	92.820826 
4401.633217  	92.740127 
4402.597642  	92.733048 
4403.562066  	92.821434 
4404.526491  	92.817260 
4405.490915  	92.842921 
4406.455339  	92.798466 
4407.419764  	92.702454 
4408.384188  	92.691515 
4409.348613  	92.734470 
4410.313037  	92.733740 
4411.277462  	92.731180 
4412.241886  	92.712047 
4413.206311  	92.707616 
4414.170735  	92.760901 
4415.135160  	92.791066 
4416.099584  	92.742972 
4417.064008  	92.676329 
4418.028433  	92.619729 
4418.992857  	92.611753 
4419.957282  	92.640610 
4420.921706  	92.673821 
4421.886131  	92.712684 
4422.850555  	92.709477 
4423.814980  	92.681045 
4424.779404  	92.679733 
4425.743829  	92.674402 
4426.708253  	92.680240 
4427.672677  	92.668428 
4428.637102  	92.707237 
4429.601526  	92.726418 
4430.565951  	92.691993 
4431.530375  	92.668907 
4432.494800  	92.609985 
4433.459224  	92.547046 
4434.423649  	92.588856 
4435.388073  	92.647284 
4436.352498  	92.750163 
4437.316922  	92.798036 
4438.281347  	92.815221 
4439.245771  	92.754195 
4440.210195  	92.744281 
4441.174620  	92.778841 
4442.139044  	92.731024 
4443.103469  	92.697706 
4444.067893  	92.738348 
4445.032318  	92.791528 
4445.996742  	92.762042 
4446.961167  	92.644274 
4447.925591  	92.639762 
4448.890016  	92.681409 
4449.854440  	92.617795 
4450.818864  	92.628966 
4451.783289  	92.720981 
4452.747713  	92.695861 
4453.712138  	92.706577 
4454.676562  	92.713524 
4455.640987  	92.703706 
4456.605411  	92.720019 
4457.569836  	92.704844 
4458.534260  	92.694998 
4459.498685  	92.703306 
4460.463109  	92.686880 
4461.427533  	92.667270 
4462.391958  	92.677721 
4463.356382  	92.698874 
4464.320807  	92.747767 
4465.285231  	92.765921 
4466.249656  	92.724783 
4467.214080  	92.665261 
4468.178505  	92.667832 
4469.142929  	92.791609 
4470.107354  	92.818658 
4471.071778  	92.761784 
4472.036202  	92.748522 
4473.000627  	92.763478 
4473.965051  	92.687855 
4474.929476  	92.598318 
4475.893900  	92.641303 
4476.858325  	92.731555 
4477.822749  	92.773025 
4478.787174  	92.831873 
4479.751598  	92.824727 
4480.716023  	92.821858 
4481.680447  	92.779915 
4482.644871  	92.730135 
4483.609296  	92.753512 
4484.573720  	92.834531 
4485.538145  	92.793444 
4486.502569  	92.727388 
4487.466994  	92.701956 
4488.431418  	92.757763 
4489.395843  	92.775324 
4490.360267  	92.737947 
4491.324692  	92.730743 
4492.289116  	92.722615 
4493.253541  	92.751141 
4494.217965  	92.815975 
4495.182389  	92.784079 
4496.146814  	92.719715 
4497.111238  	92.729549 
4498.075663  	92.802034 
4499.040087  	92.845935 
4500.004512  	92.802496 
4500.968936  	92.801116 
4501.933361  	92.804324 
4502.897785  	92.788238 
4503.862210  	92.790160 
4504.826634  	92.798728 
4505.791058  	92.831179 
4506.755483  	92.780220 
4507.719907  	92.755069 
4508.684332  	92.795900 
4509.648756  	92.777819 
4510.613181  	92.764980 
4511.577605  	92.834783 
4512.542030  	92.848122 
4513.506454  	92.859630 
4514.470879  	92.800881 
4515.435303  	92.684665 
4516.399727  	92.702689 
4517.364152  	92.762732 
4518.328576  	92.758536 
4519.293001  	92.717206 
4520.257425  	92.704103 
4521.221850  	92.724842 
4522.186274  	92.758335 
4523.150699  	92.741675 
4524.115123  	92.702819 
4525.079548  	92.767145 
4526.043972  	92.816098 
4527.008396  	92.820362 
4527.972821  	92.799003 
4528.937245  	92.768213 
4529.901670  	92.763926 
4530.866094  	92.809184 
4531.830519  	92.812763 
4532.794943  	92.757672 
4533.759368  	92.748845 
4534.723792  	92.739169 
4535.688217  	92.663358 
4536.652641  	92.737779 
4537.617065  	92.819030 
4538.581490  	92.884033 
4539.545914  	92.852590 
4540.510339  	92.812523 
4541.474763  	92.770103 
4542.439188  	92.727576 
4543.403612  	92.755810 
4544.368037  	92.810231 
4545.332461  	92.796591 
4546.296886  	92.822747 
4547.261310  	92.778444 
4548.225734  	92.802660 
4549.190159  	92.818677 
4550.154583  	92.804504 
4551.119008  	92.809945 
4552.083432  	92.794822 
4553.047857  	92.711942 
4554.012281  	92.745505 
4554.976706  	92.778509 
4555.941130  	92.797761 
4556.905555  	92.798534 
4557.869979  	92.838830 
4558.834404  	92.938380 
4559.798828  	92.838084 
4560.763252  	92.686590 
4561.727677  	92.686226 
4562.692101  	92.719652 
4563.656526  	92.762419 
4564.620950  	92.788455 
4565.585375  	92.751121 
4566.549799  	92.756153 
4567.514224  	92.767547 
4568.478648  	92.743678 
4569.443073  	92.783267 
4570.407497  	92.799413 
4571.371921  	92.805234 
4572.336346  	92.754823 
4573.300770  	92.774262 
4574.265195  	92.778914 
4575.229619  	92.726357 
4576.194044  	92.695032 
4577.158468  	92.749629 
4578.122893  	92.807129 
4579.087317  	92.866327 
4580.051742  	92.892337 
4581.016166  	92.925229 
4581.980590  	92.894671 
4582.945015  	92.798697 
4583.909439  	92.780994 
4584.873864  	92.798698 
4585.838288  	92.770926 
4586.802713  	92.849722 
4587.767137  	92.732855 
4588.731562  	92.714230 
4589.695986  	92.808429 
4590.660411  	92.762468 
4591.624835  	92.726526 
4592.589259  	92.762789 
4593.553684  	92.799315 
4594.518108  	92.801644 
4595.482533  	92.787412 
4596.446957  	92.802253 
4597.411382  	92.707831 
4598.375806  	92.733798 
4599.340231  	92.816503 
4600.304655  	92.827148 
4601.269080  	92.845338 
4602.233504  	92.825349 
4603.197928  	92.812981 
4604.162353  	92.801510 
4605.126777  	92.734423 
4606.091202  	92.732457 
4607.055626  	92.780086 
4608.020051  	92.791552 
4608.984475  	92.762706 
4609.948900  	92.797978 
4610.913324  	92.814923 
4611.877749  	92.740594 
4612.842173  	92.733640 
4613.806598  	92.801414 
4614.771022  	92.828079 
4615.735446  	92.778171 
4616.699871  	92.742064 
4617.664295  	92.723772 
4618.628720  	92.713944 
4619.593144  	92.754213 
4620.557569  	92.838564 
4621.521993  	92.811050 
4622.486418  	92.679754 
4623.450842  	92.689837 
4624.415267  	92.736912 
4625.379691  	92.773902 
4626.344115  	92.802398 
4627.308540  	92.830173 
4628.272964  	92.793784 
4629.237389  	92.770694 
4630.201813  	92.794682 
4631.166238  	92.788561 
4632.130662  	92.724586 
4633.095087  	92.678924 
4634.059511  	92.682657 
4635.023936  	92.741538 
4635.988360  	92.768502 
4636.952784  	92.740151 
4637.917209  	92.751811 
4638.881633  	92.755275 
4639.846058  	92.698689 
4640.810482  	92.736261 
4641.774907  	92.776746 
4642.739331  	92.712532 
4643.703756  	92.652554 
4644.668180  	92.660896 
4645.632605  	92.637444 
4646.597029  	92.707715 
4647.561453  	92.734131 
4648.525878  	92.759359 
4649.490302  	92.794652 
4650.454727  	92.787756 
4651.419151  	92.752216 
4652.383576  	92.698560 
4653.348000  	92.686888 
4654.312425  	92.762696 
4655.276849  	92.804230 
4656.241274  	92.787882 
4657.205698  	92.772091 
4658.170122  	92.743576 
4659.134547  	92.706884 
4660.098971  	92.699516 
4661.063396  	92.741610 
4662.027820  	92.831620 
4662.992245  	92.786976 
4663.956669  	92.794742 
4664.921094  	92.825746 
4665.885518  	92.778998 
4666.849943  	92.774754 
4667.814367  	92.728444 
4668.778791  	92.717319 
4669.743216  	92.771844 
4670.707640  	92.766795 
4671.672065  	92.783577 
4672.636489  	92.732210 
4673.600914  	92.735963 
4674.565338  	92.737354 
4675.529763  	92.768131 
4676.494187  	92.820032 
4677.458612  	92.834089 
4678.423036  	92.800837 
4679.387461  	92.836390 
4680.351885  	92.934909 
4681.316309  	92.897317 
4682.280734  	92.770667 
4683.245158  	92.688656 
4684.209583  	92.708125 
4685.174007  	92.801319 
4686.138432  	92.819308 
4687.102856  	92.804042 
4688.067281  	92.752258 
4689.031705  	92.667782 
4689.996130  	92.726390 
4690.960554  	92.750583 
4691.924978  	92.668635 
4692.889403  	92.595704 
4693.853827  	92.645311 
4694.818252  	92.769110 
4695.782676  	92.774175 
4696.747101  	92.725588 
4697.711525  	92.772003 
4698.675950  	92.843250 
4699.640374  	92.803975 