##TITLE=No Description
##DATA TYPE=INFRARED SPECTRUM
##XUNITS=1/CM
##YUNITS=%T
400.236149  	118.788855 
401.200574  	107.586008 
402.164998  	86.992261 
403.129423  	79.364858 
404.093847  	80.940638 
405.058272  	71.740195 
406.022696  	71.715797 
406.987120  	81.582824 
407.951545  	94.968060 
408.915969  	86.289350 
409.880394  	83.298088 
410.844818  	93.731457 
411.809243  	100.818756 
412.773667  	98.293173 
413.738092  	90.851462 
414.702516  	78.974197 
415.666941  	76.491584 
416.631365  	86.707668 
417.595789  	91.654153 
418.560214  	94.043001 
419.524638  	90.213120 
420.489063  	82.420228 
421.453487  	81.172410 
422.417912  	81.912048 
423.382336  	83.713624 
424.346761  	82.961023 
425.311185  	79.701293 
426.275610  	78.496184 
427.240034  	78.235573 
428.204458  	78.323945 
429.168883  	80.264719 
430.133307  	81.126158 
431.097732  	79.920818 
432.062156  	77.205386 
433.026581  	75.700794 
433.991005  	77.618558 
434.955430  	78.502296 
435.919854  	77.949333 
436.884279  	76.936394 
437.848703  	78.412698 
438.813127  	79.739146 
439.777552  	80.238319 
440.741976  	80.902399 
441.706401  	81.614977 
442.670825  	82.292460 
443.635250  	81.275001 
444.599674  	81.281486 
445.564099  	82.145802 
446.528523  	81.429214 
447.492948  	82.367026 
448.457372  	84.349039 
449.421796  	83.080730 
450.386221  	81.876499 
451.350645  	82.424568 
452.315070  	82.677831 
453.279494  	82.834015 
454.243919  	82.689964 
455.208343  	81.637173 
456.172768  	80.905377 
457.137192  	81.053326 
458.101617  	81.885377 
459.066041  	81.524540 
460.030466  	81.389447 
460.994890  	82.018480 
461.959314  	82.006725 
462.923739  	81.632007 
463.888163  	81.399654 
464.852588  	81.082625 
465.817012  	81.894114 
466.781437  	82.117669 
467.745861  	81.245661 
468.710286  	80.280445 
469.674710  	79.757297 
470.639135  	80.209051 
471.603559  	80.601170 
472.567983  	81.098480 
473.532408  	81.122053 
474.496832  	80.863171 
475.461257  	80.935942 
476.425681  	80.275750 
477.390106  	80.716152 
478.354530  	81.115994 
479.318955  	80.135049 
480.283379  	79.607790 
481.247804  	80.651597 
482.212228  	80.179397 
483.176652  	79.890833 
484.141077  	80.972171 
485.105501  	81.157388 
486.069926  	80.078296 
487.034350  	80.085302 
487.998775  	80.689216 
488.963199  	81.244153 
489.927624  	81.425643 
490.892048  	81.049914 
491.856473  	80.437378 
492.820897  	80.408254 
493.785321  	79.847649 
494.749746  	79.113555 
495.714170  	79.174651 
496.678595  	79.032559 
497.643019  	79.099330 
498.607444  	78.886921 
499.571868  	78.043390 
500.536293  	77.751103 
501.500717  	77.050782 
502.465142  	76.703575 
503.429566  	77.505726 
504.393990  	77.969455 
505.358415  	77.884119 
506.322839  	77.109155 
507.287264  	77.279204 
508.251688  	78.365111 
509.216113  	79.398966 
510.180537  	80.198373 
511.144962  	80.799494 
512.109386  	81.023388 
513.073811  	81.147883 
514.038235  	81.253230 
515.002660  	80.834838 
515.967084  	80.283998 
516.931508  	80.064644 
517.895933  	80.674305 
518.860357  	80.837465 
519.824782  	80.433119 
520.789206  	80.913613 
521.753631  	81.266068 
522.718055  	81.205507 
523.682480  	80.879039 
524.646904  	80.781086 
525.611329  	80.548041 
526.575753  	80.628289 
527.540177  	81.352577 
528.504602  	81.723957 
529.469026  	81.336949 
530.433451  	81.381456 
531.397875  	81.727148 
532.362300  	81.896340 
533.326724  	82.248574 
534.291149  	82.107270 
535.255573  	81.857995 
536.219998  	82.131161 
537.184422  	82.340090 
538.148846  	82.157479 
539.113271  	82.407021 
540.077695  	82.389646 
541.042120  	82.546527 
542.006544  	82.652675 
542.970969  	82.713145 
543.935393  	82.404948 
544.899818  	81.888638 
545.864242  	82.071386 
546.828667  	82.515668 
547.793091  	82.230652 
548.757515  	82.355031 
549.721940  	82.590564 
550.686364  	82.649166 
551.650789  	82.852224 
552.615213  	82.379450 
553.579638  	82.415002 
554.544062  	82.722500 
555.508487  	82.880525 
556.472911  	82.489796 
557.437336  	82.191087 
558.401760  	82.350727 
559.366184  	82.711079 
560.330609  	82.801164 
561.295033  	82.656309 
562.259458  	82.607339 
563.223882  	82.302196 
564.188307  	82.082570 
565.152731  	82.319694 
566.117156  	82.446432 
567.081580  	82.168398 
568.046005  	82.063552 
569.010429  	81.858352 
569.974853  	81.863095 
570.939278  	82.062140 
571.903702  	82.191682 
572.868127  	82.298793 
573.832551  	82.094119 
574.796976  	82.036387 
575.761400  	81.588989 
576.725825  	81.610532 
577.690249  	81.819043 
578.654674  	81.886731 
579.619098  	81.993417 
580.583523  	81.731698 
581.547947  	81.962467 
582.512371  	82.166925 
583.476796  	81.986002 
584.441220  	81.794929 
585.405645  	81.835943 
586.370069  	82.165787 
587.334494  	82.066499 
588.298918  	81.971940 
589.263343  	81.915171 
590.227767  	81.955873 
591.192192  	81.600359 
592.156616  	81.360440 
593.121040  	81.768598 
594.085465  	81.907944 
595.049889  	81.848272 
596.014314  	81.954205 
596.978738  	81.982438 
597.943163  	82.025483 
598.907587  	81.851666 
599.872012  	81.458438 
600.836436  	81.377943 
601.800861  	81.573175 
602.765285  	81.543997 
603.729709  	81.531538 
604.694134  	81.556872 
605.658558  	81.541651 
606.622983  	81.533137 
607.587407  	81.331588 
608.551832  	81.311126 
609.516256  	81.457826 
610.480681  	81.381040 
611.445105  	81.230011 
612.409530  	81.283420 
613.373954  	81.352675 
614.338378  	81.141051 
615.302803  	80.890335 
616.267227  	80.770918 
617.231652  	80.913528 
618.196076  	80.950513 
619.160501  	80.989940 
620.124925  	80.804929 
621.089350  	80.795281 
622.053774  	80.705186 
623.018199  	81.020208 
623.982623  	80.876317 
624.947047  	80.500893 
625.911472  	80.351988 
626.875896  	80.471722 
627.840321  	80.325750 
628.804745  	80.319925 
629.769170  	79.977435 
630.733594  	79.509966 
631.698019  	79.368307 
632.662443  	79.564749 
633.626868  	79.900792 
634.591292  	80.205109 
635.555717  	80.059236 
636.520141  	80.246848 
637.484565  	80.335953 
638.448990  	80.519875 
639.413414  	80.484634 
640.377839  	80.448349 
641.342263  	80.401995 
642.306688  	80.143358 
643.271112  	80.034515 
644.235537  	79.986069 
645.199961  	79.987393 
646.164386  	80.077602 
647.128810  	80.040847 
648.093234  	79.935582 
649.057659  	79.767932 
650.022083  	79.739599 
650.986508  	79.798418 
651.950932  	79.764603 
652.915357  	79.565974 
653.879781  	79.525747 
654.844206  	79.558390 
655.808630  	79.475727 
656.773055  	79.267374 
657.737479  	79.234282 
658.701903  	79.120281 
659.666328  	79.019783 
660.630752  	79.010700 
661.595177  	78.952549 
662.559601  	78.799167 
663.524026  	78.595567 
664.488450  	78.494955 
665.452875  	78.476949 
666.417299  	78.431863 
667.381724  	78.684050 
668.346148  	78.458222 
669.310572  	77.808617 
670.274997  	77.711937 
671.239421  	77.793513 
672.203846  	77.711647 
673.168270  	77.531941 
674.132695  	77.403993 
675.097119  	77.282917 
676.061544  	77.016111 
677.025968  	76.707064 
677.990393  	76.525358 
678.954817  	76.451890 
679.919241  	76.426715 
680.883666  	76.424378 
681.848090  	76.345746 
682.812515  	76.322783 
683.776939  	76.184934 
684.741364  	76.041996 
685.705788  	75.806718 
686.670213  	75.589406 
687.634637  	75.353388 
688.599062  	75.105597 
689.563486  	74.856685 
690.527910  	74.680409 
691.492335  	74.382737 
692.456759  	74.041233 
693.421184  	73.594018 
694.385608  	73.309284 
695.350033  	72.884739 
696.314457  	72.329393 
697.278882  	71.694415 
698.243306  	70.983682 
699.207731  	70.361731 
700.172155  	69.723509 
701.136580  	68.917148 
702.101004  	68.263055 
703.065428  	67.800971 
704.029853  	67.377732 
704.994277  	66.825418 
705.958702  	66.202729 
706.923126  	65.590498 
707.887551  	64.995750 
708.851975  	64.245963 
709.816400  	63.280400 
710.780824  	62.423194 
711.745249  	61.476667 
712.709673  	60.327858 
713.674097  	59.162841 
714.638522  	57.957078 
715.602946  	56.596511 
716.567371  	55.008152 
717.531795  	53.395463 
718.496220  	51.993718 
719.460644  	50.702630 
720.425069  	49.421623 
721.389493  	48.487924 
722.353918  	47.899551 
723.318342  	47.723769 
724.282766  	48.294535 
725.247191  	49.765553 
726.211615  	51.872211 
727.176040  	54.341771 
728.140464  	56.794918 
729.104889  	59.291363 
730.069313  	61.789379 
731.033738  	64.347780 
731.998162  	66.948868 
732.962587  	69.600742 
733.927011  	72.202449 
734.891435  	74.760408 
735.855860  	77.266117 
736.820284  	79.650266 
737.784709  	81.722036 
738.749133  	83.512433 
739.713558  	84.926142 
740.677982  	86.026444 
741.642407  	86.849119 
742.606831  	87.427536 
743.571256  	87.654878 
744.535680  	87.769883 
745.500104  	87.933676 
746.464529  	87.962927 
747.428953  	87.897756 
748.393378  	87.825925 
749.357802  	87.664655 
750.322227  	87.562245 
751.286651  	87.389322 
752.251076  	87.280857 
753.215500  	87.233049 
754.179925  	87.105966 
755.144349  	86.996418 
756.108774  	86.936785 
757.073198  	86.762551 
758.037622  	86.582198 
759.002047  	86.376846 
759.966471  	86.267542 
760.930896  	86.162623 
761.895320  	86.039276 
762.859745  	85.963945 
763.824169  	85.841079 
764.788594  	85.656011 
765.753018  	85.492927 
766.717443  	85.367625 
767.681867  	85.211787 
768.646291  	85.005592 
769.610716  	84.860932 
770.575140  	84.690292 
771.539565  	84.547806 
772.503989  	84.343897 
773.468414  	84.156728 
774.432838  	84.043616 
775.397263  	83.981651 
776.361687  	83.894686 
777.326112  	83.824682 
778.290536  	83.730097 
779.254960  	83.618278 
780.219385  	83.400284 
781.183809  	83.295744 
782.148234  	82.961095 
783.112658  	83.011359 
784.077083  	82.849673 
785.041507  	82.455907 
786.005932  	82.281720 
786.970356  	81.962559 
787.934781  	81.633051 
788.899205  	81.301401 
789.863629  	81.088134 
790.828054  	80.861089 
791.792478  	80.555421 
792.756903  	80.480264 
793.721327  	80.670589 
794.685752  	80.988694 
795.650176  	81.589439 
796.614601  	82.176509 
797.579025  	82.527616 
798.543450  	82.506565 
799.507874  	82.444247 
800.472298  	82.529428 
801.436723  	82.593674 
802.401147  	82.457605 
803.365572  	82.378769 
804.329996  	82.362012 
805.294421  	82.283730 
806.258845  	82.268498 
807.223270  	82.294818 
808.187694  	82.225385 
809.152119  	82.201957 
810.116543  	82.184930 
811.080967  	82.125235 
812.045392  	82.089034 
813.009816  	82.126394 
813.974241  	82.099971 
814.938665  	82.013352 
815.903090  	81.978616 
816.867514  	81.912593 
817.831939  	81.889941 
818.796363  	81.883004 
819.760788  	81.868108 
820.725212  	81.807833 
821.689637  	81.670032 
822.654061  	81.494167 
823.618485  	81.352508 
824.582910  	81.223756 
825.547334  	81.048549 
826.511759  	80.912877 
827.476183  	80.813636 
828.440608  	80.718588 
829.405032  	80.510599 
830.369457  	80.225850 
831.333881  	80.054447 
832.298306  	79.895072 
833.262730  	79.638679 
834.227154  	79.467743 
835.191579  	79.315740 
836.156003  	79.058848 
837.120428  	78.733265 
838.084852  	78.357305 
839.049277  	78.105998 
840.013701  	77.895335 
840.978126  	77.573591 
841.942550  	77.310262 
842.906975  	77.075430 
843.871399  	76.732023 
844.835823  	76.409400 
845.800248  	76.265547 
846.764672  	76.363098 
847.729097  	76.627596 
848.693521  	76.846936 
849.657946  	77.165389 
850.622370  	77.535293 
851.586795  	77.832184 
852.551219  	77.997835 
853.515644  	78.162882 
854.480068  	78.424865 
855.444492  	78.584613 
856.408917  	78.592518 
857.373341  	78.631336 
858.337766  	78.746389 
859.302190  	78.895181 
860.266615  	78.926915 
861.231039  	78.792712 
862.195464  	78.636438 
863.159888  	78.430089 
864.124313  	78.109170 
865.088737  	77.673815 
866.053161  	77.102807 
867.017586  	76.245546 
867.982010  	75.205192 
868.946435  	73.998344 
869.910859  	72.515341 
870.875284  	70.939941 
871.839708  	70.194489 
872.804133  	70.932151 
873.768557  	72.731766 
874.732982  	74.483579 
875.697406  	75.844968 
876.661831  	76.926232 
877.626255  	77.816822 
878.590679  	78.597829 
879.555104  	79.279639 
880.519528  	79.864407 
881.483953  	80.345187 
882.448377  	80.727726 
883.412802  	81.088973 
884.377226  	81.429632 
885.341651  	81.656121 
886.306075  	81.753673 
887.270500  	81.784076 
888.234924  	81.858001 
889.199348  	81.823954 
890.163773  	81.746588 
891.128197  	81.718687 
892.092622  	81.650747 
893.057046  	81.443818 
894.021471  	81.259981 
894.985895  	81.257425 
895.950320  	81.280501 
896.914744  	81.233178 
897.879169  	81.190156 
898.843593  	81.147457 
899.808017  	81.148345 
900.772442  	81.183385 
901.736866  	81.228475 
902.701291  	81.344104 
903.665715  	81.418069 
904.630140  	81.489880 
905.594564  	81.533995 
906.558989  	81.639886 
907.523413  	81.746376 
908.487838  	81.807368 
909.452262  	81.870717 
910.416686  	81.975550 
911.381111  	82.043423 
912.345535  	82.033906 
913.309960  	81.969252 
914.274384  	81.938572 
915.238809  	81.918707 
916.203233  	81.871487 
917.167658  	81.827893 
918.132082  	81.722558 
919.096507  	81.669031 
920.060931  	81.661768 
921.025355  	81.599629 
921.989780  	81.513073 
922.954204  	81.432052 
923.918629  	81.343606 
924.883053  	81.270809 
925.847478  	81.158467 
926.811902  	81.028373 
927.776327  	80.943867 
928.740751  	80.857668 
929.705176  	80.794658 
930.669600  	80.708667 
931.634024  	80.604303 
932.598449  	80.524040 
933.562873  	80.446138 
934.527298  	80.308585 
935.491722  	80.175338 
936.456147  	80.095789 
937.420571  	80.024071 
938.384996  	79.899391 
939.349420  	79.735128 
940.313845  	79.590669 
941.278269  	79.506087 
942.242694  	79.437845 
943.207118  	79.317640 
944.171542  	79.178896 
945.135967  	79.040989 
946.100391  	78.898900 
947.064816  	78.723889 
948.029240  	78.545982 
948.993665  	78.415086 
949.958089  	78.245397 
950.922514  	78.039571 
951.886938  	77.904382 
952.851363  	77.730725 
953.815787  	77.490657 
954.780211  	77.308171 
955.744636  	77.127334 
956.709060  	76.925245 
957.673485  	76.735903 
958.637909  	76.495029 
959.602334  	76.201083 
960.566758  	75.927177 
961.531183  	75.670486 
962.495607  	75.395727 
963.460032  	75.150793 
964.424456  	74.923130 
965.388880  	74.634685 
966.353305  	74.386490 
967.317729  	74.272532 
968.282154  	74.175775 
969.246578  	74.076880 
970.211003  	74.087657 
971.175427  	74.191272 
972.139852  	74.358501 
973.104276  	74.592789 
974.068701  	74.876749 
975.033125  	75.177759 
975.997549  	75.447095 
976.961974  	75.711031 
977.926398  	75.923403 
978.890823  	76.062047 
979.855247  	76.153848 
980.819672  	76.177664 
981.784096  	76.185685 
982.748521  	76.189989 
983.712945  	76.151577 
984.677370  	76.016080 
985.641794  	75.905674 
986.606218  	75.843250 
987.570643  	75.740603 
988.535067  	75.647663 
989.499492  	75.582218 
990.463916  	75.478818 
991.428341  	75.352079 
992.392765  	75.189215 
993.357190  	75.014125 
994.321614  	74.865084 
995.286039  	74.708666 
996.250463  	74.471181 
997.214888  	74.168448 
998.179312  	73.901152 
999.143736  	73.656087 
1000.108161  	73.378985 
1001.072585  	73.082729 
1002.037010  	72.802462 
1003.001434  	72.466421 
1003.965859  	72.072415 
1004.930283  	71.710401 
1005.894708  	71.261946 
1006.859132  	70.690593 
1007.823557  	70.006182 
1008.787981  	69.301094 
1009.752405  	68.551908 
1010.716830  	67.625175 
1011.681254  	66.560291 
1012.645679  	65.435260 
1013.610103  	64.234636 
1014.574528  	63.040429 
1015.538952  	62.158946 
1016.503377  	61.871149 
1017.467801  	62.224386 
1018.432226  	63.144215 
1019.396650  	64.449704 
1020.361074  	65.923438 
1021.325499  	67.402571 
1022.289923  	68.777294 
1023.254348  	70.207969 
1024.218772  	71.831810 
1025.183197  	73.519102 
1026.147621  	74.965940 
1027.112046  	75.899634 
1028.076470  	76.312145 
1029.040895  	76.318414 
1030.005319  	76.042898 
1030.969743  	75.715703 
1031.934168  	75.425516 
1032.898592  	75.123340 
1033.863017  	74.729697 
1034.827441  	74.310625 
1035.791866  	74.003361 
1036.756290  	73.774871 
1037.720715  	73.521433 
1038.685139  	73.268844 
1039.649564  	73.095060 
1040.613988  	72.922544 
1041.578412  	72.733948 
1042.542837  	72.564998 
1043.507261  	72.465998 
1044.471686  	72.361608 
1045.436110  	72.221024 
1046.400535  	72.140369 
1047.364959  	72.099897 
1048.329384  	71.979632 
1049.293808  	71.846312 
1050.258233  	71.796836 
1051.222657  	71.759746 
1052.187081  	71.676408 
1053.151506  	71.500182 
1054.115930  	71.362383 
1055.080355  	71.223685 
1056.044779  	71.000535 
1057.009204  	70.730291 
1057.973628  	70.445758 
1058.938053  	70.240278 
1059.902477  	69.953137 
1060.866902  	69.597058 
1061.831326  	69.338694 
1062.795751  	69.069636 
1063.760175  	68.701271 
1064.724599  	68.322900 
1065.689024  	67.958361 
1066.653448  	67.577353 
1067.617873  	67.145300 
1068.582297  	66.647019 
1069.546722  	66.147594 
1070.511146  	65.649931 
1071.475571  	65.142488 
1072.439995  	64.593805 
1073.404420  	64.015025 
1074.368844  	63.389953 
1075.333268  	62.769358 
1076.297693  	62.064087 
1077.262117  	61.344379 
1078.226542  	60.714819 
1079.190966  	60.127697 
1080.155391  	59.550299 
1081.119815  	59.013093 
1082.084240  	58.550120 
1083.048664  	58.165548 
1084.013089  	57.813161 
1084.977513  	57.545038 
1085.941937  	57.315449 
1086.906362  	57.048860 
1087.870786  	56.786362 
1088.835211  	56.571800 
1089.799635  	56.390606 
1090.764060  	56.207047 
1091.728484  	56.073869 
1092.692909  	55.987232 
1093.657333  	55.917968 
1094.621758  	55.893121 
1095.586182  	55.955181 
1096.550606  	56.079128 
1097.515031  	56.304909 
1098.479455  	56.607171 
1099.443880  	56.953794 
1100.408304  	57.434204 
1101.372729  	57.962561 
1102.337153  	58.523649 
1103.301578  	59.160697 
1104.266002  	59.870207 
1105.230427  	60.587240 
1106.194851  	61.248726 
1107.159275  	61.900714 
1108.123700  	62.559876 
1109.088124  	63.107027 
1110.052549  	63.546318 
1111.016973  	63.911652 
1111.981398  	64.176818 
1112.945822  	64.321915 
1113.910247  	64.371344 
1114.874671  	64.349742 
1115.839096  	64.293303 
1116.803520  	64.251528 
1117.767945  	64.268851 
1118.732369  	64.434301 
1119.696793  	64.734045 
1120.661218  	65.086835 
1121.625642  	65.504195 
1122.590067  	66.038071 
1123.554491  	66.625055 
1124.518916  	67.262140 
1125.483340  	67.991533 
1126.447765  	68.808563 
1127.412189  	69.674670 
1128.376614  	70.560642 
1129.341038  	71.505424 
1130.305462  	72.521213 
1131.269887  	73.534350 
1132.234311  	74.488902 
1133.198736  	75.466323 
1134.163160  	76.463576 
1135.127585  	77.382725 
1136.092009  	78.232244 
1137.056434  	79.052854 
1138.020858  	79.869132 
1138.985283  	80.598798 
1139.949707  	81.220304 
1140.914131  	81.782261 
1141.878556  	82.310661 
1142.842980  	82.745908 
1143.807405  	83.161154 
1144.771829  	83.574548 
1145.736254  	83.921059 
1146.700678  	84.204265 
1147.665103  	84.418003 
1148.629527  	84.667899 
1149.593952  	84.908561 
1150.558376  	85.096785 
1151.522800  	85.220268 
1152.487225  	85.337676 
1153.451649  	85.433712 
1154.416074  	85.472556 
1155.380498  	85.467708 
1156.344923  	85.495488 
1157.309347  	85.534284 
1158.273772  	85.522189 
1159.238196  	85.436218 
1160.202621  	85.380032 
1161.167045  	85.344273 
1162.131469  	85.257379 
1163.095894  	85.176559 
1164.060318  	85.094778 
1165.024743  	84.976516 
1165.989167  	84.838249 
1166.953592  	84.665733 
1167.918016  	84.442681 
1168.882441  	84.160151 
1169.846865  	83.837044 
1170.811290  	83.537608 
1171.775714  	83.258249 
1172.740138  	83.022498 
1173.704563  	82.801239 
1174.668987  	82.617776 
1175.633412  	82.592248 
1176.597836  	82.616301 
1177.562261  	82.618730 
1178.526685  	82.601720 
1179.491110  	82.612880 
1180.455534  	82.613479 
1181.419959  	82.612105 
1182.384383  	82.556648 
1183.348808  	82.463308 
1184.313232  	82.351523 
1185.277656  	82.153466 
1186.242081  	81.883266 
1187.206505  	81.650647 
1188.170930  	81.421959 
1189.135354  	81.124248 
1190.099779  	80.806058 
1191.064203  	80.498620 
1192.028628  	80.179794 
1192.993052  	79.765863 
1193.957477  	79.333742 
1194.921901  	78.923377 
1195.886325  	78.507003 
1196.850750  	78.052421 
1197.815174  	77.586517 
1198.779599  	77.180633 
1199.744023  	76.784931 
1200.708448  	76.302511 
1201.672872  	75.836082 
1202.637297  	75.420936 
1203.601721  	75.007362 
1204.566146  	74.585095 
1205.530570  	74.146049 
1206.494994  	73.694470 
1207.459419  	73.279389 
1208.423843  	72.854460 
1209.388268  	72.416579 
1210.352692  	72.000505 
1211.317117  	71.535600 
1212.281541  	70.990383 
1213.245966  	70.515202 
1214.210390  	70.053483 
1215.174815  	69.515586 
1216.139239  	68.931203 
1217.103663  	68.349869 
1218.068088  	67.762917 
1219.032512  	67.139482 
1219.996937  	66.522230 
1220.961361  	65.972457 
1221.925786  	65.487435 
1222.890210  	65.006130 
1223.854635  	64.501031 
1224.819059  	63.969121 
1225.783484  	63.481814 
1226.747908  	62.977155 
1227.712332  	62.368702 
1228.676757  	61.723778 
1229.641181  	61.071537 
1230.605606  	60.396225 
1231.570030  	59.675023 
1232.534455  	58.951783 
1233.498879  	58.276221 
1234.463304  	57.647290 
1235.427728  	57.032784 
1236.392153  	56.533259 
1237.356577  	56.131355 
1238.321002  	55.803802 
1239.285426  	55.579312 
1240.249850  	55.487223 
1241.214275  	55.537646 
1242.178699  	55.656408 
1243.143124  	55.850636 
1244.107548  	56.148071 
1245.071973  	56.579151 
1246.036397  	57.053584 
1247.000822  	57.511635 
1247.965246  	58.027840 
1248.929671  	58.589468 
1249.894095  	59.117842 
1250.858519  	59.627626 
1251.822944  	60.127310 
1252.787368  	60.584292 
1253.751793  	61.004066 
1254.716217  	61.368213 
1255.680642  	61.693942 
1256.645066  	62.010598 
1257.609491  	62.267138 
1258.573915  	62.481926 
1259.538340  	62.710616 
1260.502764  	62.988939 
1261.467188  	63.463200 
1262.431613  	63.978208 
1263.396037  	64.525440 
1264.360462  	65.123091 
1265.324886  	65.744758 
1266.289311  	66.420372 
1267.253735  	67.191706 
1268.218160  	67.957267 
1269.182584  	68.679339 
1270.147009  	69.373087 
1271.111433  	70.099947 
1272.075857  	70.780938 
1273.040282  	71.532658 
1274.004706  	72.189288 
1274.969131  	72.784322 
1275.933555  	73.341446 
1276.897980  	73.870080 
1277.862404  	74.375920 
1278.826829  	74.841343 
1279.791253  	75.237650 
1280.755678  	75.685582 
1281.720102  	76.196266 
1282.684526  	76.655063 
1283.648951  	77.054415 
1284.613375  	77.455627 
1285.577800  	77.911908 
1286.542224  	78.303777 
1287.506649  	78.561867 
1288.471073  	78.972766 
1289.435498  	79.579158 
1290.399922  	80.087737 
1291.364347  	80.595396 
1292.328771  	81.158687 
1293.293195  	81.703431 
1294.257620  	82.247206 
1295.222044  	82.737021 
1296.186469  	83.135128 
1297.150893  	83.639554 
1298.115318  	84.275467 
1299.079742  	84.766341 
1300.044167  	85.238428 
1301.008591  	85.694098 
1301.973016  	86.090704 
1302.937440  	86.394675 
1303.901865  	86.656872 
1304.866289  	86.901374 
1305.830713  	87.080913 
1306.795138  	87.235450 
1307.759562  	87.355732 
1308.723987  	87.548478 
1309.688411  	87.877226 
1310.652836  	88.061905 
1311.617260  	88.071615 
1312.581685  	87.816664 
1313.546109  	87.960853 
1314.510534  	88.205562 
1315.474958  	88.462113 
1316.439382  	88.469663 
1317.403807  	88.403749 
1318.368231  	88.449327 
1319.332656  	88.368816 
1320.297080  	88.698185 
1321.261505  	88.998391 
1322.225929  	89.183102 
1323.190354  	89.169102 
1324.154778  	89.194900 
1325.119203  	89.175678 
1326.083627  	89.042419 
1327.048051  	88.827462 
1328.012476  	88.518424 
1328.976900  	88.065859 
1329.941325  	87.418197 
1330.905749  	86.682380 
1331.870174  	85.758606 
1332.834598  	84.582261 
1333.799023  	83.308409 
1334.763447  	82.014847 
1335.727872  	80.611458 
1336.692296  	79.107214 
1337.656720  	78.258886 
1338.621145  	77.330130 
1339.585569  	76.708192 
1340.549994  	77.446641 
1341.514418  	79.428163 
1342.478843  	81.066112 
1343.443267  	82.333845 
1344.407692  	83.636385 
1345.372116  	84.899510 
1346.336541  	86.016664 
1347.300965  	86.945215 
1348.265389  	87.647745 
1349.229814  	88.093184 
1350.194238  	88.605281 
1351.158663  	89.062333 
1352.123087  	89.309529 
1353.087512  	89.492272 
1354.051936  	89.450096 
1355.016361  	89.256271 
1355.980785  	89.540123 
1356.945210  	89.658012 
1357.909634  	89.487700 
1358.874059  	89.482240 
1359.838483  	89.424963 
1360.802907  	88.687886 
1361.767332  	88.107955 
1362.731756  	87.183429 
1363.696181  	87.093966 
1364.660605  	88.316670 
1365.625030  	88.496344 
1366.589454  	88.313514 
1367.553879  	87.900180 
1368.518303  	87.246901 
1369.482728  	87.231661 
1370.447152  	87.652571 
1371.411576  	87.652279 
1372.376001  	87.463332 
1373.340425  	86.733548 
1374.304850  	86.153319 
1375.269274  	86.616164 
1376.233699  	87.488408 
1377.198123  	87.666402 
1378.162548  	87.397624 
1379.126972  	87.465861 
1380.091397  	87.649045 
1381.055821  	87.853450 
1382.020245  	87.880689 
1382.984670  	87.866336 
1383.949094  	87.889751 
1384.913519  	87.876378 
1385.877943  	87.443230 
1386.842368  	86.389750 
1387.806792  	86.143877 
1388.771217  	87.276804 
1389.735641  	87.742135 
1390.700066  	87.624254 
1391.664490  	87.608206 
1392.628914  	87.571062 
1393.593339  	86.920613 
1394.557763  	85.498248 
1395.522188  	85.122869 
1396.486612  	85.714414 
1397.451037  	85.542926 
1398.415461  	84.673199 
1399.379886  	84.159691 
1400.344310  	84.581637 
1401.308735  	84.635609 
1402.273159  	83.994417 
1403.237583  	83.180177 
1404.202008  	81.884836 
1405.166432  	80.287578 
1406.130857  	79.977394 
1407.095281  	79.879160 
1408.059706  	79.518694 
1409.024130  	79.518503 
1409.988555  	79.789362 
1410.952979  	80.565087 
1411.917404  	81.642628 
1412.881828  	83.314582 
1413.846252  	84.851815 
1414.810677  	86.056137 
1415.775101  	86.637683 
1416.739526  	86.771436 
1417.703950  	86.789507 
1418.668375  	86.671630 
1419.632799  	86.537706 
1420.597224  	88.588403 
1421.561648  	89.477715 
1422.526073  	89.626099 
1423.490497  	88.682327 
1424.454922  	88.314677 
1425.419346  	89.500170 
1426.383770  	89.921890 
1427.348195  	89.796596 
1428.312619  	89.427095 
1429.277044  	88.910183 
1430.241468  	88.475929 
1431.205893  	88.894283 
1432.170317  	88.870642 
1433.134742  	88.533444 
1434.099166  	88.631851 
1435.063591  	88.397655 
1436.028015  	87.031522 
1436.992439  	85.958064 
1437.956864  	87.521686 
1438.921288  	88.281024 
1439.885713  	88.377729 
1440.850137  	88.362526 
1441.814562  	88.337160 
1442.778986  	88.321697 
1443.743411  	88.244424 
1444.707835  	88.145735 
1445.672260  	88.007162 
1446.636684  	87.764983 
1447.601108  	86.880618 
1448.565533  	86.729237 
1449.529957  	87.587591 
1450.494382  	87.754084 
1451.458806  	87.248418 
1452.423231  	86.819523 
1453.387655  	87.224166 
1454.352080  	86.829654 
1455.316504  	85.633434 
1456.280929  	84.693937 
1457.245353  	83.936746 
1458.209777  	84.214778 
1459.174202  	85.237684 
1460.138626  	86.807170 
1461.103051  	87.703925 
1462.067475  	87.887636 
1463.031900  	87.911106 
1463.996324  	87.501018 
1464.960749  	86.554454 
1465.925173  	87.122429 
1466.889598  	87.781770 
1467.854022  	87.820420 
1468.818446  	87.782342 
1469.782871  	87.493856 
1470.747295  	86.791107 
1471.711720  	85.120376 
1472.676144  	84.020275 
1473.640569  	84.818398 
1474.604993  	86.554418 
1475.569418  	86.887269 
1476.533842  	86.517097 
1477.498267  	87.896045 
1478.462691  	88.765857 
1479.427116  	88.974282 
1480.391540  	88.833146 
1481.355964  	88.390689 
1482.320389  	88.984892 
1483.284813  	89.607440 
1484.249238  	89.807519 
1485.213662  	89.672721 
1486.178087  	89.143748 
1487.142511  	88.522687 
1488.106936  	88.603768 
1489.071360  	87.709247 
1490.035785  	86.232201 
1491.000209  	87.537715 
1491.964633  	89.340490 
1492.929058  	90.066251 
1493.893482  	90.079965 
1494.857907  	89.707950 
1495.822331  	88.590774 
1496.786756  	87.879005 
1497.751180  	88.429612 
1498.715605  	87.834994 
1499.680029  	87.783186 
1500.644454  	87.987178 
1501.608878  	87.201825 
1502.573302  	86.669444 
1503.537727  	86.387764 
1504.502151  	85.550966 
1505.466576  	83.883969 
1506.431000  	80.904379 
1507.395425  	80.644630 
1508.359849  	83.153176 
1509.324274  	85.156912 
1510.288698  	86.693634 
1511.253123  	88.128198 
1512.217547  	88.089668 
1513.181971  	88.797942 
1514.146396  	89.246887 
1515.110820  	88.264970 
1516.075245  	87.171007 
1517.039669  	85.822741 
1518.004094  	87.484311 
1518.968518  	88.808442 
1519.932943  	87.819264 
1520.897367  	85.266012 
1521.861792  	85.601728 
1522.826216  	87.024978 
1523.790640  	88.095157 
1524.755065  	87.689721 
1525.719489  	87.171288 
1526.683914  	87.801134 
1527.648338  	87.470353 
1528.612763  	87.881643 
1529.577187  	88.995686 
1530.541612  	89.353315 
1531.506036  	88.542474 
1532.470461  	87.997919 
1533.434885  	87.087833 
1534.399309  	87.394179 
1535.363734  	88.406571 
1536.328158  	88.932985 
1537.292583  	89.066014 
1538.257007  	87.997075 
1539.221432  	85.274947 
1540.185856  	84.994943 
1541.150281  	86.396562 
1542.114705  	86.350572 
1543.079130  	86.376169 
1544.043554  	86.553285 
1545.007979  	86.239112 
1545.972403  	87.429975 
1546.936827  	89.000935 
1547.901252  	89.338880 
1548.865676  	88.797367 
1549.830101  	86.979105 
1550.794525  	87.452279 
1551.758950  	88.963153 
1552.723374  	89.006684 
1553.687799  	88.089160 
1554.652223  	87.025454 
1555.616648  	88.050209 
1556.581072  	88.298162 
1557.545496  	87.046330 
1558.509921  	83.056964 
1559.474345  	82.449448 
1560.438770  	85.457457 
1561.403194  	87.922472 
1562.367619  	88.765537 
1563.332043  	88.961413 
1564.296468  	88.545312 
1565.260892  	88.179867 
1566.225317  	88.766951 
1567.189741  	88.978384 
1568.154165  	88.512755 
1569.118590  	87.088409 
1570.083014  	86.734991 
1571.047439  	88.121811 
1572.011863  	88.486784 
1572.976288  	88.358458 
1573.940712  	88.159401 
1574.905137  	87.671019 
1575.869561  	86.493435 
1576.833986  	85.791526 
1577.798410  	86.800432 
1578.762834  	87.536968 
1579.727259  	87.906124 
1580.691683  	88.187866 
1581.656108  	88.401886 
1582.620532  	88.570037 
1583.584957  	88.714755 
1584.549381  	88.903850 
1585.513806  	89.043622 
1586.478230  	89.120773 
1587.442655  	89.161398 
1588.407079  	89.174681 
1589.371503  	89.017389 
1590.335928  	88.915367 
1591.300352  	88.946182 
1592.264777  	88.985538 
1593.229201  	88.985037 
1594.193626  	88.694846 
1595.158050  	88.576170 
1596.122475  	88.686046 
1597.086899  	88.776619 
1598.051324  	88.892576 
1599.015748  	88.829165 
1599.980173  	88.756791 
1600.944597  	88.540954 
1601.909021  	88.403578 
1602.873446  	88.154920 
1603.837870  	88.144640 
1604.802295  	88.358347 
1605.766719  	88.294495 
1606.731144  	87.900442 
1607.695568  	87.708948 
1608.659993  	87.688234 
1609.624417  	87.357179 
1610.588842  	87.588185 
1611.553266  	87.743762 
1612.517690  	87.674781 
1613.482115  	87.616068 
1614.446539  	87.503251 
1615.410964  	87.133724 
1616.375388  	86.216589 
1617.339813  	86.030556 
1618.304237  	87.017865 
1619.268662  	87.388327 
1620.233086  	87.406036 
1621.197511  	87.362465 
1622.161935  	86.943409 
1623.126359  	85.941961 
1624.090784  	86.002972 
1625.055208  	86.928181 
1626.019633  	87.143738 
1626.984057  	86.871328 
1627.948482  	86.275268 
1628.912906  	86.645617 
1629.877331  	87.019975 
1630.841755  	87.031691 
1631.806180  	86.982208 
1632.770604  	86.905393 
1633.735028  	86.582165 
1634.699453  	85.646442 
1635.663877  	83.912811 
1636.628302  	84.716003 
1637.592726  	84.963184 
1638.557151  	85.723105 
1639.521575  	86.216718 
1640.486000  	86.164255 
1641.450424  	86.156001 
1642.414849  	86.063957 
1643.379273  	86.098220 
1644.343697  	85.977302 
1645.308122  	85.120673 
1646.272546  	83.597563 
1647.236971  	83.016847 
1648.201395  	83.347327 
1649.165820  	84.717420 
1650.130244  	85.263883 
1651.094669  	84.963961 
1652.059093  	83.913351 
1653.023518  	80.718118 
1653.987942  	80.378928 
1654.952366  	82.752420 
1655.916791  	84.222366 
1656.881215  	84.564088 
1657.845640  	84.736426 
1658.810064  	84.848076 
1659.774489  	84.786197 
1660.738913  	84.384498 
1661.703338  	83.782034 
1662.667762  	83.000719 
1663.632187  	83.196588 
1664.596611  	83.683447 
1665.561036  	83.676438 
1666.525460  	83.509730 
1667.489884  	82.941398 
1668.454309  	81.560364 
1669.418733  	80.562495 
1670.383158  	81.332020 
1671.347582  	81.117690 
1672.312007  	81.276811 
1673.276431  	81.710899 
1674.240856  	81.305084 
1675.205280  	80.077977 
1676.169705  	80.132366 
1677.134129  	80.728547 
1678.098553  	80.617904 
1679.062978  	79.997752 
1680.027402  	78.544846 
1680.991827  	78.403832 
1681.956251  	78.886920 
1682.920676  	77.736117 
1683.885100  	74.287291 
1684.849525  	74.131433 
1685.813949  	77.181995 
1686.778374  	77.851626 
1687.742798  	77.258445 
1688.707222  	76.529754 
1689.671647  	76.430267 
1690.636071  	76.214692 
1691.600496  	76.293064 
1692.564920  	75.900411 
1693.529345  	75.129527 
1694.493769  	74.056254 
1695.458194  	72.289461 
1696.422618  	70.501086 
1697.387043  	70.562779 
1698.351467  	70.162535 
1699.315891  	69.023788 
1700.280316  	65.879049 
1701.244740  	65.713172 
1702.209165  	66.146874 
1703.173589  	65.483256 
1704.138014  	63.995429 
1705.102438  	62.562234 
1706.066863  	61.523286 
1707.031287  	60.270508 
1707.995712  	59.852217 
1708.960136  	59.287503 
1709.924560  	58.227793 
1710.888985  	57.596641 
1711.853409  	57.546524 
1712.817834  	57.210972 
1713.782258  	56.670090 
1714.746683  	56.255077 
1715.711107  	57.057926 
1716.675532  	57.688667 
1717.639956  	57.415778 
1718.604381  	58.854258 
1719.568805  	61.507874 
1720.533230  	63.043179 
1721.497654  	64.124982 
1722.462078  	65.103201 
1723.426503  	65.865733 
1724.390927  	67.155485 
1725.355352  	68.489634 
1726.319776  	69.566400 
1727.284201  	70.626413 
1728.248625  	71.655782 
1729.213050  	72.055268 
1730.177474  	72.300998 
1731.141899  	74.193454 
1732.106323  	75.272011 
1733.070747  	75.001864 
1734.035172  	74.260745 
1734.999596  	77.313929 
1735.964021  	79.954635 
1736.928445  	81.210434 
1737.892870  	82.165471 
1738.857294  	82.853447 
1739.821719  	83.299147 
1740.786143  	85.154272 
1741.750568  	86.529847 
1742.714992  	86.599370 
1743.679416  	86.541866 
1744.643841  	88.010423 
1745.608265  	89.137035 
1746.572690  	89.390933 
1747.537114  	89.381166 
1748.501539  	89.407959 
1749.465963  	89.845724 
1750.430388  	90.368536 
1751.394812  	89.786732 
1752.359237  	91.096674 
1753.323661  	92.386362 
1754.288085  	92.923250 
1755.252510  	92.983265 
1756.216934  	92.288592 
1757.181359  	91.607606 
1758.145783  	92.297883 
1759.110208  	92.796714 
1760.074632  	93.035421 
1761.039057  	92.453106 
1762.003481  	91.415080 
1762.967906  	92.393188 
1763.932330  	93.163347 
1764.896754  	93.306971 
1765.861179  	93.293751 
1766.825603  	93.096462 
1767.790028  	92.147177 
1768.754452  	91.804703 
1769.718877  	92.768102 
1770.683301  	92.501698 
1771.647726  	91.376046 
1772.612150  	90.916591 
1773.576575  	91.996426 
1774.540999  	92.692198 
1775.505423  	92.291630 
1776.469848  	92.498647 
1777.434272  	93.143277 
1778.398697  	92.947837 
1779.363121  	92.614569 
1780.327546  	92.152358 
1781.291970  	92.033482 
1782.256395  	92.754283 
1783.220819  	93.062295 
1784.185244  	92.702673 
1785.149668  	92.122600 
1786.114093  	92.674322 
1787.078517  	93.073675 
1788.042941  	93.025351 
1789.007366  	92.920240 
1789.971790  	92.597345 
1790.936215  	91.611098 
1791.900639  	91.154434 
1792.865064  	91.104508 
1793.829488  	91.993839 
1794.793913  	92.414306 
1795.758337  	91.771808 
1796.722762  	91.808363 
1797.687186  	92.568693 
1798.651610  	92.582512 
1799.616035  	91.956817 
1800.580459  	91.893225 
1801.544884  	91.711861 
1802.509308  	91.495286 
1803.473733  	92.249629 
1804.438157  	92.752495 
1805.402582  	92.738348 
1806.367006  	92.678401 
1807.331431  	92.368852 
1808.295855  	92.214515 
1809.260279  	92.520679 
1810.224704  	92.086223 
1811.189128  	91.679624 
1812.153553  	92.028301 
1813.117977  	92.414895 
1814.082402  	92.748727 
1815.046826  	92.771909 
1816.011251  	92.805192 
1816.975675  	92.517916 
1817.940100  	92.292094 
1818.904524  	92.599364 
1819.868948  	92.722733 
1820.833373  	92.635040 
1821.797797  	92.547762 
1822.762222  	92.301969 
1823.726646  	92.252641 
1824.691071  	91.693155 
1825.655495  	91.025435 
1826.619920  	92.067737 
1827.584344  	92.495641 
1828.548769  	92.039430 
1829.513193  	90.888375 
1830.477617  	90.861951 
1831.442042  	92.050639 
1832.406466  	92.423301 
1833.370891  	92.309245 
1834.335315  	92.551105 
1835.299740  	92.721833 
1836.264164  	92.507740 
1837.228589  	92.026724 
1838.193013  	92.275553 
1839.157438  	92.628124 
1840.121862  	92.698972 
1841.086287  	92.684420 
1842.050711  	92.324026 
1843.015135  	91.961923 
1843.979560  	91.238232 
1844.943984  	91.052859 
1845.908409  	91.930990 
1846.872833  	92.225680 
1847.837258  	91.793291 
1848.801682  	92.035673 
1849.766107  	92.639448 
1850.730531  	92.898203 
1851.694956  	92.900021 
1852.659380  	92.791272 
1853.623804  	92.768244 
1854.588229  	92.795882 
1855.552653  	92.869676 
1856.517078  	92.858614 
1857.481502  	92.774177 
1858.445927  	92.580942 
1859.410351  	92.534364 
1860.374776  	92.597504 
1861.339200  	92.522659 
1862.303625  	92.588573 
1863.268049  	92.761314 
1864.232473  	92.804689 
1865.196898  	92.777401 
1866.161322  	92.413550 
1867.125747  	91.930516 
1868.090171  	91.356696 
1869.054596  	90.960701 
1870.019020  	91.448042 
1870.983445  	92.201294 
1871.947869  	92.671921 
1872.912294  	92.953052 
1873.876718  	92.935268 
1874.841142  	92.815318 
1875.805567  	92.753928 
1876.769991  	92.759066 
1877.734416  	92.738070 
1878.698840  	92.700825 
1879.663265  	92.610766 
1880.627689  	92.688696 
1881.592114  	92.719924 
1882.556538  	92.762523 
1883.520963  	92.766486 
1884.485387  	92.608980 
1885.449811  	92.538191 
1886.414236  	92.728356 
1887.378660  	92.811942 
1888.343085  	92.595677 
1889.307509  	91.715106 
1890.271934  	91.549359 
1891.236358  	92.309874 
1892.200783  	92.588043 
1893.165207  	92.588239 
1894.129632  	92.452479 
1895.094056  	91.990866 
1896.058480  	92.094770 
1897.022905  	92.597577 
1897.987329  	92.607887 
1898.951754  	92.588915 
1899.916178  	92.696291 
1900.880603  	92.656937 
1901.845027  	92.470759 
1902.809452  	92.541018 
1903.773876  	92.596549 
1904.738301  	92.548762 
1905.702725  	92.563411 
1906.667150  	92.600138 
1907.631574  	92.363136 
1908.595998  	92.173413 
1909.560423  	92.059762 
1910.524847  	92.000662 
1911.489272  	92.418357 
1912.453696  	92.492365 
1913.418121  	92.448911 
1914.382545  	92.407947 
1915.346970  	92.469004 
1916.311394  	92.444030 
1917.275819  	92.018416 
1918.240243  	91.374637 
1919.204667  	92.021580 
1920.169092  	92.411692 
1921.133516  	92.319884 
1922.097941  	91.789273 
1923.062365  	91.232815 
1924.026790  	91.990123 
1924.991214  	92.579824 
1925.955639  	92.431141 
1926.920063  	92.448304 
1927.884488  	92.502228 
1928.848912  	92.458915 
1929.813336  	92.578631 
1930.777761  	92.687642 
1931.742185  	92.483581 
1932.706610  	92.406191 
1933.671034  	92.542692 
1934.635459  	92.574641 
1935.599883  	92.503519 
1936.564308  	92.493627 
1937.528732  	92.260460 
1938.493157  	92.248074 
1939.457581  	92.549502 
1940.422005  	92.608676 
1941.386430  	92.076506 
1942.350854  	91.093132 
1943.315279  	91.088442 
1944.279703  	91.948347 
1945.244128  	92.042902 
1946.208552  	92.017998 
1947.172977  	92.145090 
1948.137401  	92.340320 
1949.101826  	92.300005 
1950.066250  	92.431290 
1951.030674  	92.441810 
1951.995099  	92.400489 
1952.959523  	92.467016 
1953.923948  	92.459629 
1954.888372  	92.278400 
1955.852797  	92.280218 
1956.817221  	92.471259 
1957.781646  	92.408987 
1958.746070  	92.315434 
1959.710495  	92.344496 
1960.674919  	92.128518 
1961.639344  	92.077063 
1962.603768  	92.068880 
1963.568192  	92.254833 
1964.532617  	92.639733 
1965.497041  	92.855628 
1966.461466  	92.536990 
1967.425890  	92.120094 
1968.390315  	92.424916 
1969.354739  	92.831876 
1970.319164  	92.751841 
1971.283588  	92.934707 
1972.248013  	92.990972 
1973.212437  	92.792790 
1974.176861  	92.667066 
1975.141286  	92.611442 
1976.105710  	92.817605 
1977.070135  	93.291497 
1978.034559  	93.109258 
1978.998984  	92.437599 
1979.963408  	92.167217 
1980.927833  	92.379833 
1981.892257  	92.638338 
1982.856682  	92.488748 
1983.821106  	92.446062 
1984.785530  	92.614845 
1985.749955  	92.351045 
1986.714379  	92.400500 
1987.678804  	92.380488 
1988.643228  	92.211496 
1989.607653  	92.558199 
1990.572077  	92.555781 
1991.536502  	91.866347 
1992.500926  	91.697128 
1993.465351  	92.217588 
1994.429775  	92.570522 
1995.394199  	92.675416 
1996.358624  	92.572807 
1997.323048  	92.494428 
1998.287473  	92.675610 
1999.251897  	92.919731 
2000.216322  	93.168716 
2001.180746  	93.303075 
2002.145171  	93.181991 
2003.109595  	93.253080 
2004.074020  	93.338640 
2005.038444  	93.438452 
2006.002868  	93.486253 
2006.967293  	92.960452 
2007.931717  	92.371309 
2008.896142  	92.445958 
2009.860566  	93.087032 
2010.824991  	93.283908 
2011.789415  	93.013867 
2012.753840  	92.811431 
2013.718264  	92.644976 
2014.682689  	92.631717 
2015.647113  	92.783984 
2016.611537  	92.560846 
2017.575962  	92.541995 
2018.540386  	92.730121 
2019.504811  	92.695425 
2020.469235  	92.999335 
2021.433660  	93.234944 
2022.398084  	93.076624 
2023.362509  	93.196819 
2024.326933  	93.156499 
2025.291358  	92.743595 
2026.255782  	92.681118 
2027.220207  	92.805217 
2028.184631  	92.895391 
2029.149055  	93.415177 
2030.113480  	93.383301 
2031.077904  	93.258855 
2032.042329  	93.057011 
2033.006753  	93.016791 
2033.971178  	93.175229 
2034.935602  	93.019666 
2035.900027  	92.858226 
2036.864451  	92.857941 
2037.828876  	92.903426 
2038.793300  	92.966835 
2039.757724  	92.704115 
2040.722149  	92.464777 
2041.686573  	92.392989 
2042.650998  	92.611084 
2043.615422  	92.500759 
2044.579847  	92.431693 
2045.544271  	92.524764 
2046.508696  	92.599111 
2047.473120  	92.607744 
2048.437545  	92.635803 
2049.401969  	92.620945 
2050.366393  	92.159474 
2051.330818  	91.883875 
2052.295242  	92.324195 
2053.259667  	92.561314 
2054.224091  	92.393865 
2055.188516  	92.152378 
2056.152940  	92.298191 
2057.117365  	92.333257 
2058.081789  	92.229007 
2059.046214  	92.316965 
2060.010638  	92.334557 
2060.975062  	92.149529 
2061.939487  	92.197658 
2062.903911  	92.219310 
2063.868336  	92.190840 
2064.832760  	91.980902 
2065.797185  	92.107974 
2066.761609  	92.353144 
2067.726034  	92.330650 
2068.690458  	92.308152 
2069.654883  	92.250697 
2070.619307  	92.150115 
2071.583731  	92.204190 
2072.548156  	92.104828 
2073.512580  	91.967989 
2074.477005  	91.871937 
2075.441429  	92.048419 
2076.405854  	92.158863 
2077.370278  	92.134647 
2078.334703  	92.114861 
2079.299127  	92.094960 
2080.263552  	92.065595 
2081.227976  	92.004548 
2082.192401  	91.894409 
2083.156825  	91.889123 
2084.121249  	92.001936 
2085.085674  	92.241226 
2086.050098  	92.251013 
2087.014523  	92.195508 
2087.978947  	92.229770 
2088.943372  	92.103193 
2089.907796  	91.920126 
2090.872221  	91.999323 
2091.836645  	92.304620 
2092.801070  	92.331218 
2093.765494  	92.249555 
2094.729918  	92.224307 
2095.694343  	92.184442 
2096.658767  	92.030540 
2097.623192  	91.985522 
2098.587616  	92.046821 
2099.552041  	92.119737 
2100.516465  	92.187674 
2101.480890  	92.203282 
2102.445314  	92.129946 
2103.409739  	92.060739 
2104.374163  	92.022189 
2105.338587  	91.944156 
2106.303012  	91.992669 
2107.267436  	92.032016 
2108.231861  	91.942832 
2109.196285  	91.982574 
2110.160710  	92.078667 
2111.125134  	92.071116 
2112.089559  	92.097723 
2113.053983  	92.195265 
2114.018408  	92.135820 
2114.982832  	91.965193 
2115.947256  	91.920264 
2116.911681  	92.053612 
2117.876105  	92.164412 
2118.840530  	92.166615 
2119.804954  	92.268517 
2120.769379  	92.348679 
2121.733803  	92.367314 
2122.698228  	92.442281 
2123.662652  	92.413919 
2124.627077  	92.231102 
2125.591501  	92.301523 
2126.555925  	92.592882 
2127.520350  	92.639178 
2128.484774  	92.559743 
2129.449199  	92.638246 
2130.413623  	92.674505 
2131.378048  	92.570809 
2132.342472  	92.635667 
2133.306897  	92.729993 
2134.271321  	92.540627 
2135.235746  	92.319453 
2136.200170  	92.406787 
2137.164594  	92.728080 
2138.129019  	92.795158 
2139.093443  	92.701342 
2140.057868  	92.783663 
2141.022292  	92.906114 
2141.986717  	92.767081 
2142.951141  	92.658907 
2143.915566  	92.885378 
2144.879990  	92.982625 
2145.844415  	93.025531 
2146.808839  	93.200862 
2147.773264  	93.203973 
2148.737688  	92.910649 
2149.702112  	92.879589 
2150.666537  	93.298620 
2151.630961  	93.503154 
2152.595386  	93.686935 
2153.559810  	93.697925 
2154.524235  	93.815170 
2155.488659  	94.054022 
2156.453084  	94.377167 
2157.417508  	94.371362 
2158.381933  	94.188079 
2159.346357  	93.329085 
2160.310781  	92.449616 
2161.275206  	92.124053 
2162.239630  	92.353119 
2163.204055  	92.776456 
2164.168479  	92.856527 
2165.132904  	92.822281 
2166.097328  	92.725368 
2167.061753  	92.785609 
2168.026177  	92.631689 
2168.990602  	92.206300 
2169.955026  	92.414337 
2170.919450  	93.059856 
2171.883875  	92.901830 
2172.848299  	92.713610 
2173.812724  	92.877979 
2174.777148  	92.841040 
2175.741573  	92.541893 
2176.705997  	92.198536 
2177.670422  	92.429295 
2178.634846  	92.797871 
2179.599271  	92.743985 
2180.563695  	92.650914 
2181.528119  	92.619478 
2182.492544  	92.564296 
2183.456968  	92.395453 
2184.421393  	92.284434 
2185.385817  	92.641564 
2186.350242  	92.714503 
2187.314666  	92.418628 
2188.279091  	92.540268 
2189.243515  	92.671750 
2190.207940  	92.512253 
2191.172364  	92.626083 
2192.136788  	92.616060 
2193.101213  	92.524627 
2194.065637  	92.384122 
2195.030062  	92.202259 
2195.994486  	92.142627 
2196.958911  	92.451675 
2197.923335  	92.739792 
2198.887760  	92.690438 
2199.852184  	92.628453 
2200.816609  	92.548255 
2201.781033  	92.489739 
2202.745458  	92.590090 
2203.709882  	92.504911 
2204.674306  	92.436670 
2205.638731  	92.432003 
2206.603155  	92.439944 
2207.567580  	92.402527 
2208.532004  	92.341663 
2209.496429  	92.239666 
2210.460853  	92.277103 
2211.425278  	92.381565 
2212.389702  	92.396735 
2213.354127  	92.251747 
2214.318551  	92.138085 
2215.282975  	92.067411 
2216.247400  	92.159957 
2217.211824  	92.316951 
2218.176249  	92.352976 
2219.140673  	92.305069 
2220.105098  	92.100089 
2221.069522  	92.104473 
2222.033947  	92.280897 
2222.998371  	92.201699 
2223.962796  	92.133288 
2224.927220  	92.214351 
2225.891644  	92.094904 
2226.856069  	92.005949 
2227.820493  	91.999924 
2228.784918  	92.139011 
2229.749342  	92.144118 
2230.713767  	92.101622 
2231.678191  	92.133539 
2232.642616  	92.254241 
2233.607040  	92.351628 
2234.571465  	92.215965 
2235.535889  	92.052269 
2236.500313  	92.068796 
2237.464738  	92.233639 
2238.429162  	92.394498 
2239.393587  	92.276268 
2240.358011  	92.159519 
2241.322436  	92.343130 
2242.286860  	92.255699 
2243.251285  	92.102024 
2244.215709  	92.079306 
2245.180134  	91.973108 
2246.144558  	91.825776 
2247.108982  	91.931196 
2248.073407  	92.086837 
2249.037831  	92.169531 
2250.002256  	92.129960 
2250.966680  	92.126887 
2251.931105  	92.150918 
2252.895529  	92.014399 
2253.859954  	91.969459 
2254.824378  	92.036060 
2255.788803  	92.016080 
2256.753227  	92.036621 
2257.717651  	92.146181 
2258.682076  	92.064604 
2259.646500  	91.984883 
2260.610925  	91.860751 
2261.575349  	91.802311 
2262.539774  	91.897301 
2263.504198  	91.954878 
2264.468623  	91.908688 
2265.433047  	91.989939 
2266.397472  	92.109071 
2267.361896  	92.031904 
2268.326321  	91.904404 
2269.290745  	91.873789 
2270.255169  	91.976179 
2271.219594  	92.003441 
2272.184018  	91.893507 
2273.148443  	91.821854 
2274.112867  	91.821342 
2275.077292  	91.799255 
2276.041716  	91.741070 
2277.006141  	91.797838 
2277.970565  	91.885282 
2278.934990  	91.878043 
2279.899414  	91.827784 
2280.863838  	91.806603 
2281.828263  	91.756467 
2282.792687  	91.683619 
2283.757112  	91.670212 
2284.721536  	91.675431 
2285.685961  	91.679346 
2286.650385  	91.697307 
2287.614810  	91.634120 
2288.579234  	91.595291 
2289.543659  	91.585612 
2290.508083  	91.668441 
2291.472507  	91.672548 
2292.436932  	91.680393 
2293.401356  	91.638440 
2294.365781  	91.535186 
2295.330205  	91.546397 
2296.294630  	91.501666 
2297.259054  	91.464767 
2298.223479  	91.411848 
2299.187903  	91.476681 
2300.152328  	91.481045 
2301.116752  	91.445224 
2302.081176  	91.531142 
2303.045601  	91.461653 
2304.010025  	91.540287 
2304.974450  	91.407852 
2305.938874  	91.387353 
2306.903299  	91.253465 
2307.867723  	91.287674 
2308.832148  	91.248689 
2309.796572  	91.276942 
2310.760997  	91.284329 
2311.725421  	91.221903 
2312.689845  	91.338545 
2313.654270  	91.391670 
2314.618694  	91.439864 
2315.583119  	91.479181 
2316.547543  	91.540430 
2317.511968  	91.514761 
2318.476392  	91.503381 
2319.440817  	91.461754 
2320.405241  	91.463014 
2321.369666  	91.557014 
2322.334090  	91.604146 
2323.298515  	91.541953 
2324.262939  	91.501984 
2325.227363  	91.859032 
2326.191788  	92.194935 
2327.156212  	92.389063 
2328.120637  	92.424318 
2329.085061  	92.443445 
2330.049486  	92.525398 
2331.013910  	92.586129 
2331.978335  	92.707781 
2332.942759  	92.859006 
2333.907184  	92.960860 
2334.871608  	93.057413 
2335.836032  	93.189165 
2336.800457  	93.289810 
2337.764881  	93.271127 
2338.729306  	93.210095 
2339.693730  	93.080045 
2340.658155  	93.137918 
2341.622579  	93.289347 
2342.587004  	93.233101 
2343.551428  	93.032830 
2344.515853  	92.791819 
2345.480277  	92.567211 
2346.444701  	92.396480 
2347.409126  	92.262771 
2348.373550  	91.990789 
2349.337975  	91.865381 
2350.302399  	92.096722 
2351.266824  	92.485250 
2352.231248  	92.816439 
2353.195673  	92.945382 
2354.160097  	92.991398 
2355.124522  	93.064029 
2356.088946  	93.335085 
2357.053370  	93.516519 
2358.017795  	93.567312 
2358.982219  	93.512736 
2359.946644  	93.797129 
2360.911068  	93.915444 
2361.875493  	93.726331 
2362.839917  	93.531807 
2363.804342  	93.509155 
2364.768766  	93.546060 
2365.733191  	93.509040 
2366.697615  	93.286452 
2367.662039  	93.028917 
2368.626464  	92.780044 
2369.590888  	92.606445 
2370.555313  	92.494308 
2371.519737  	92.348214 
2372.484162  	92.193659 
2373.448586  	92.080300 
2374.413011  	91.913135 
2375.377435  	91.788345 
2376.341860  	91.697278 
2377.306284  	91.595217 
2378.270708  	91.451650 
2379.235133  	91.361852 
2380.199557  	91.417556 
2381.163982  	91.488498 
2382.128406  	91.552706 
2383.092831  	91.623435 
2384.057255  	91.643945 
2385.021680  	91.700181 
2385.986104  	91.796705 
2386.950529  	91.874004 
2387.914953  	91.896781 
2388.879378  	91.885831 
2389.843802  	91.967523 
2390.808226  	92.007261 
2391.772651  	91.957759 
2392.737075  	91.939225 
2393.701500  	91.991080 
2394.665924  	92.035915 
2395.630349  	92.008420 
2396.594773  	91.979839 
2397.559198  	91.991685 
2398.523622  	92.076441 
2399.488047  	92.075505 
2400.452471  	91.991220 
2401.416895  	92.028380 
2402.381320  	92.083981 
2403.345744  	92.076767 
2404.310169  	92.078425 
2405.274593  	92.063226 
2406.239018  	92.025746 
2407.203442  	92.042408 
2408.167867  	92.060126 
2409.132291  	92.054691 
2410.096716  	91.999537 
2411.061140  	91.915239 
2412.025564  	91.956674 
2412.989989  	92.001640 
2413.954413  	92.002041 
2414.918838  	92.022762 
2415.883262  	92.023250 
2416.847687  	92.033410 
2417.812111  	92.079591 
2418.776536  	92.072614 
2419.740960  	92.063370 
2420.705385  	92.106788 
2421.669809  	92.074719 
2422.634233  	92.060966 
2423.598658  	92.033657 
2424.563082  	92.018877 
2425.527507  	92.098995 
2426.491931  	92.097898 
2427.456356  	92.028469 
2428.420780  	92.080008 
2429.385205  	92.074916 
2430.349629  	92.061299 
2431.314054  	92.023293 
2432.278478  	92.031267 
2433.242902  	92.042229 
2434.207327  	92.045583 
2435.171751  	92.073249 
2436.136176  	92.089968 
2437.100600  	92.133309 
2438.065025  	92.110128 
2439.029449  	92.087410 
2439.993874  	92.064808 
2440.958298  	92.035273 
2441.922723  	92.026060 
2442.887147  	92.038533 
2443.851572  	92.089016 
2444.815996  	92.069684 
2445.780420  	92.008436 
2446.744845  	91.942908 
2447.709269  	91.962065 
2448.673694  	92.041031 
2449.638118  	92.029735 
2450.602543  	92.016061 
2451.566967  	92.024793 
2452.531392  	92.040718 
2453.495816  	92.004713 
2454.460241  	91.984518 
2455.424665  	92.023792 
2456.389089  	91.990663 
2457.353514  	91.998484 
2458.317938  	92.007873 
2459.282363  	91.999607 
2460.246787  	92.035266 
2461.211212  	92.017790 
2462.175636  	92.031579 
2463.140061  	92.070910 
2464.104485  	92.045916 
2465.068910  	92.032622 
2466.033334  	92.009616 
2466.997758  	91.977149 
2467.962183  	92.008342 
2468.926607  	92.003750 
2469.891032  	92.011494 
2470.855456  	92.065913 
2471.819881  	92.105513 
2472.784305  	92.124260 
2473.748730  	92.111113 
2474.713154  	92.062142 
2475.677579  	92.028387 
2476.642003  	92.003370 
2477.606427  	92.026177 
2478.570852  	92.059996 
2479.535276  	92.074005 
2480.499701  	92.034425 
2481.464125  	92.040453 
2482.428550  	92.073823 
2483.392974  	92.071669 
2484.357399  	92.106004 
2485.321823  	92.054848 
2486.286248  	91.978406 
2487.250672  	92.004915 
2488.215096  	92.098465 
2489.179521  	92.094948 
2490.143945  	92.019975 
2491.108370  	91.942657 
2492.072794  	91.951301 
2493.037219  	91.976403 
2494.001643  	91.980345 
2494.966068  	92.020511 
2495.930492  	92.049663 
2496.894917  	91.992099 
2497.859341  	91.976207 
2498.823765  	92.017412 
2499.788190  	92.035002 
2500.752614  	92.035305 
2501.717039  	92.003365 
2502.681463  	91.973496 
2503.645888  	91.972217 
2504.610312  	91.978619 
2505.574737  	91.972722 
2506.539161  	91.974393 
2507.503586  	92.024843 
2508.468010  	92.021035 
2509.432435  	91.964394 
2510.396859  	91.963171 
2511.361283  	91.985036 
2512.325708  	91.955760 
2513.290132  	91.949104 
2514.254557  	92.002701 
2515.218981  	91.964765 
2516.183406  	91.953752 
2517.147830  	92.031868 
2518.112255  	91.974810 
2519.076679  	91.929416 
2520.041104  	91.958043 
2521.005528  	91.939736 
2521.969952  	91.887544 
2522.934377  	91.911298 
2523.898801  	91.999223 
2524.863226  	92.016658 
2525.827650  	91.961260 
2526.792075  	91.987812 
2527.756499  	91.953721 
2528.720924  	91.926251 
2529.685348  	91.891434 
2530.649773  	91.881735 
2531.614197  	91.897886 
2532.578621  	91.935799 
2533.543046  	91.979217 
2534.507470  	92.003420 
2535.471895  	91.970770 
2536.436319  	91.920021 
2537.400744  	91.904557 
2538.365168  	91.899397 
2539.329593  	91.972214 
2540.294017  	91.969740 
2541.258442  	91.904307 
2542.222866  	91.904621 
2543.187290  	91.933599 
2544.151715  	91.982831 
2545.116139  	91.966033 
2546.080564  	91.920378 
2547.044988  	91.918428 
2548.009413  	91.887156 
2548.973837  	91.865813 
2549.938262  	91.911059 
2550.902686  	91.964227 
2551.867111  	91.988112 
2552.831535  	91.894714 
2553.795959  	91.833244 
2554.760384  	91.889607 
2555.724808  	91.925588 
2556.689233  	91.892856 
2557.653657  	91.881343 
2558.618082  	91.840385 
2559.582506  	91.902242 
2560.546931  	91.930375 
2561.511355  	91.838963 
2562.475780  	91.818007 
2563.440204  	91.859537 
2564.404629  	91.903313 
2565.369053  	91.921647 
2566.333477  	91.946697 
2567.297902  	91.987195 
2568.262326  	91.937336 
2569.226751  	91.813121 
2570.191175  	91.796374 
2571.155600  	91.877486 
2572.120024  	91.944711 
2573.084449  	91.951529 
2574.048873  	91.854539 
2575.013298  	91.779695 
2575.977722  	91.774589 
2576.942146  	91.821457 
2577.906571  	91.888587 
2578.870995  	91.908963 
2579.835420  	91.865950 
2580.799844  	91.878669 
2581.764269  	91.878238 
2582.728693  	91.876476 
2583.693118  	91.833225 
2584.657542  	91.793484 
2585.621967  	91.865471 
2586.586391  	91.883615 
2587.550815  	91.852646 
2588.515240  	91.856972 
2589.479664  	91.866361 
2590.444089  	91.852523 
2591.408513  	91.867068 
2592.372938  	91.856475 
2593.337362  	91.817751 
2594.301787  	91.839737 
2595.266211  	91.861924 
2596.230636  	91.870584 
2597.195060  	91.875465 
2598.159484  	91.876317 
2599.123909  	91.878014 
2600.088333  	91.902751 
2601.052758  	91.879907 
2602.017182  	91.839954 
2602.981607  	91.828694 
2603.946031  	91.858511 
2604.910456  	91.850039 
2605.874880  	91.855711 
2606.839305  	91.849659 
2607.803729  	91.853234 
2608.768153  	91.850773 
2609.732578  	91.802380 
2610.697002  	91.801397 
2611.661427  	91.818050 
2612.625851  	91.827051 
2613.590276  	91.830895 
2614.554700  	91.840395 
2615.519125  	91.836220 
2616.483549  	91.849474 
2617.447974  	91.826086 
2618.412398  	91.797130 
2619.376822  	91.778749 
2620.341247  	91.796452 
2621.305671  	91.783226 
2622.270096  	91.777842 
2623.234520  	91.796194 
2624.198945  	91.789004 
2625.163369  	91.828903 
2626.127794  	91.820102 
2627.092218  	91.804010 
2628.056643  	91.814499 
2629.021067  	91.791393 
2629.985492  	91.788667 
2630.949916  	91.822503 
2631.914340  	91.799059 
2632.878765  	91.770655 
2633.843189  	91.794722 
2634.807614  	91.800322 
2635.772038  	91.788656 
2636.736463  	91.766870 
2637.700887  	91.753450 
2638.665312  	91.780812 
2639.629736  	91.811721 
2640.594161  	91.840391 
2641.558585  	91.847002 
2642.523009  	91.812863 
2643.487434  	91.809807 
2644.451858  	91.839208 
2645.416283  	91.836022 
2646.380707  	91.821030 
2647.345132  	91.803709 
2648.309556  	91.803451 
2649.273981  	91.835638 
2650.238405  	91.855011 
2651.202830  	91.880553 
2652.167254  	91.878312 
2653.131678  	91.849840 
2654.096103  	91.808937 
2655.060527  	91.823210 
2656.024952  	91.859781 
2656.989376  	91.843825 
2657.953801  	91.812402 
2658.918225  	91.837599 
2659.882650  	91.857461 
2660.847074  	91.860482 
2661.811499  	91.898257 
2662.775923  	91.907176 
2663.740347  	91.907402 
2664.704772  	91.892833 
2665.669196  	91.910357 
2666.633621  	91.934793 
2667.598045  	91.934661 
2668.562470  	91.922847 
2669.526894  	91.914155 
2670.491319  	91.912701 
2671.455743  	91.947955 
2672.420168  	91.960765 
2673.384592  	91.924532 
2674.349016  	91.906973 
2675.313441  	91.920523 
2676.277865  	91.929761 
2677.242290  	91.936824 
2678.206714  	91.924762 
2679.171139  	91.910017 
2680.135563  	91.923671 
2681.099988  	91.947708 
2682.064412  	91.966994 
2683.028837  	91.965564 
2683.993261  	91.959928 
2684.957686  	91.985527 
2685.922110  	91.975933 
2686.886534  	91.940047 
2687.850959  	91.931029 
2688.815383  	91.963717 
2689.779808  	91.974283 
2690.744232  	91.948527 
2691.708657  	91.944879 
2692.673081  	91.962553 
2693.637506  	91.959741 
2694.601930  	91.961678 
2695.566355  	91.953034 
2696.530779  	91.927251 
2697.495203  	91.918917 
2698.459628  	91.931457 
2699.424052  	91.944921 
2700.388477  	91.921340 
2701.352901  	91.883082 
2702.317326  	91.884294 
2703.281750  	91.915805 
2704.246175  	91.939743 
2705.210599  	91.928999 
2706.175024  	91.907325 
2707.139448  	91.909371 
2708.103872  	91.928939 
2709.068297  	91.936515 
2710.032721  	91.904277 
2710.997146  	91.898789 
2711.961570  	91.903725 
2712.925995  	91.940891 
2713.890419  	91.952929 
2714.854844  	91.960186 
2715.819268  	91.959419 
2716.783693  	91.941974 
2717.748117  	91.937683 
2718.712541  	91.930624 
2719.676966  	91.919574 
2720.641390  	91.922940 
2721.605815  	91.946768 
2722.570239  	91.942882 
2723.534664  	91.927314 
2724.499088  	91.902432 
2725.463513  	91.899782 
2726.427937  	91.898028 
2727.392362  	91.896856 
2728.356786  	91.899471 
2729.321210  	91.876123 
2730.285635  	91.889406 
2731.250059  	91.890944 
2732.214484  	91.889153 
2733.178908  	91.899855 
2734.143333  	91.897995 
2735.107757  	91.880798 
2736.072182  	91.878433 
2737.036606  	91.893575 
2738.001031  	91.897621 
2738.965455  	91.895485 
2739.929879  	91.899706 
2740.894304  	91.890962 
2741.858728  	91.858123 
2742.823153  	91.830026 
2743.787577  	91.824712 
2744.752002  	91.853359 
2745.716426  	91.837241 
2746.680851  	91.798469 
2747.645275  	91.814566 
2748.609700  	91.848098 
2749.574124  	91.856880 
2750.538549  	91.828587 
2751.502973  	91.818459 
2752.467397  	91.854641 
2753.431822  	91.843561 
2754.396246  	91.840256 
2755.360671  	91.845816 
2756.325095  	91.865346 
2757.289520  	91.842402 
2758.253944  	91.841247 
2759.218369  	91.850538 
2760.182793  	91.850154 
2761.147218  	91.836126 
2762.111642  	91.833521 
2763.076066  	91.830082 
2764.040491  	91.851620 
2765.004915  	91.863534 
2765.969340  	91.857305 
2766.933764  	91.860883 
2767.898189  	91.859951 
2768.862613  	91.841828 
2769.827038  	91.824909 
2770.791462  	91.843267 
2771.755887  	91.824583 
2772.720311  	91.793104 
2773.684735  	91.785814 
2774.649160  	91.778274 
2775.613584  	91.785494 
2776.578009  	91.811066 
2777.542433  	91.824280 
2778.506858  	91.798530 
2779.471282  	91.800234 
2780.435707  	91.806599 
2781.400131  	91.782286 
2782.364556  	91.790299 
2783.328980  	91.808707 
2784.293404  	91.777028 
2785.257829  	91.769292 
2786.222253  	91.779906 
2787.186678  	91.790533 
2788.151102  	91.787692 
2789.115527  	91.822656 
2790.079951  	91.814856 
2791.044376  	91.782878 
2792.008800  	91.760068 
2792.973225  	91.748666 
2793.937649  	91.755779 
2794.902073  	91.757192 
2795.866498  	91.754083 
2796.830922  	91.760215 
2797.795347  	91.762820 
2798.759771  	91.759839 
2799.724196  	91.705938 
2800.688620  	91.674611 
2801.653045  	91.682832 
2802.617469  	91.688210 
2803.581894  	91.698358 
2804.546318  	91.700564 
2805.510743  	91.704915 
2806.475167  	91.706027 
2807.439591  	91.677301 
2808.404016  	91.669527 
2809.368440  	91.728452 
2810.332865  	91.739329 
2811.297289  	91.671695 
2812.261714  	91.653881 
2813.226138  	91.694214 
2814.190563  	91.691538 
2815.154987  	91.680526 
2816.119412  	91.667904 
2817.083836  	91.615406 
2818.048260  	91.611559 
2819.012685  	91.634766 
2819.977109  	91.666837 
2820.941534  	91.665119 
2821.905958  	91.658708 
2822.870383  	91.644479 
2823.834807  	91.625098 
2824.799232  	91.597563 
2825.763656  	91.604336 
2826.728081  	91.590549 
2827.692505  	91.574422 
2828.656929  	91.568590 
2829.621354  	91.546963 
2830.585778  	91.538569 
2831.550203  	91.537570 
2832.514627  	91.504001 
2833.479052  	91.463488 
2834.443476  	91.455128 
2835.407901  	91.458163 
2836.372325  	91.454259 
2837.336750  	91.423053 
2838.301174  	91.355918 
2839.265598  	91.307171 
2840.230023  	91.265482 
2841.194447  	91.202428 
2842.158872  	91.144790 
2843.123296  	91.059866 
2844.087721  	90.941090 
2845.052145  	90.809647 
2846.016570  	90.638170 
2846.980994  	90.433015 
2847.945419  	90.208342 
2848.909843  	90.030708 
2849.874267  	89.970362 
2850.838692  	90.030836 
2851.803116  	90.141235 
2852.767541  	90.269202 
2853.731965  	90.409798 
2854.696390  	90.535689 
2855.660814  	90.607777 
2856.625239  	90.696599 
2857.589663  	90.743829 
2858.554088  	90.781076 
2859.518512  	90.826513 
2860.482936  	90.863049 
2861.447361  	90.882930 
2862.411785  	90.924359 
2863.376210  	90.956013 
2864.340634  	90.934147 
2865.305059  	90.916701 
2866.269483  	90.944463 
2867.233908  	90.979726 
2868.198332  	90.977214 
2869.162757  	90.947383 
2870.127181  	90.945075 
2871.091606  	90.925441 
2872.056030  	90.927434 
2873.020454  	90.957994 
2873.984879  	90.969268 
2874.949303  	90.924773 
2875.913728  	90.908201 
2876.878152  	90.940862 
2877.842577  	90.913030 
2878.807001  	90.898797 
2879.771426  	90.937665 
2880.735850  	90.887507 
2881.700275  	90.827036 
2882.664699  	90.813986 
2883.629123  	90.815591 
2884.593548  	90.796787 
2885.557972  	90.761329 
2886.522397  	90.744906 
2887.486821  	90.714727 
2888.451246  	90.690679 
2889.415670  	90.697190 
2890.380095  	90.666412 
2891.344519  	90.623634 
2892.308944  	90.622313 
2893.273368  	90.600710 
2894.237792  	90.566857 
2895.202217  	90.517888 
2896.166641  	90.489040 
2897.131066  	90.450151 
2898.095490  	90.406325 
2899.059915  	90.369333 
2900.024339  	90.306243 
2900.988764  	90.271963 
2901.953188  	90.248888 
2902.917613  	90.181051 
2903.882037  	90.122325 
2904.846461  	90.073517 
2905.810886  	89.997748 
2906.775310  	89.959425 
2907.739735  	89.935300 
2908.704159  	89.848492 
2909.668584  	89.780045 
2910.633008  	89.716711 
2911.597433  	89.677060 
2912.561857  	89.633384 
2913.526282  	89.496265 
2914.490706  	89.336825 
2915.455130  	89.193664 
2916.419555  	89.121871 
2917.383979  	89.118984 
2918.348404  	89.139380 
2919.312828  	89.199583 
2920.277253  	89.295918 
2921.241677  	89.359796 
2922.206102  	89.480105 
2923.170526  	89.611368 
2924.134951  	89.729538 
2925.099375  	89.843471 
2926.063800  	89.924772 
2927.028224  	90.001042 
2927.992648  	90.066367 
2928.957073  	90.159507 
2929.921497  	90.237559 
2930.885922  	90.279110 
2931.850346  	90.336515 
2932.814771  	90.405738 
2933.779195  	90.485460 
2934.743620  	90.532533 
2935.708044  	90.543931 
2936.672469  	90.551492 
2937.636893  	90.602574 
2938.601317  	90.636840 
2939.565742  	90.645358 
2940.530166  	90.675958 
2941.494591  	90.664120 
2942.459015  	90.637828 
2943.423440  	90.646286 
2944.387864  	90.626585 
2945.352289  	90.599531 
2946.316713  	90.592250 
2947.281138  	90.594037 
2948.245562  	90.584489 
2949.209986  	90.473351 
2950.174411  	90.364564 
2951.138835  	90.386696 
2952.103260  	90.387450 
2953.067684  	90.296105 
2954.032109  	90.221462 
2954.996533  	90.218814 
2955.960958  	90.201689 
2956.925382  	90.166285 
2957.889807  	90.132807 
2958.854231  	90.125891 
2959.818655  	90.126970 
2960.783080  	90.139283 
2961.747504  	90.138849 
2962.711929  	90.133377 
2963.676353  	90.124775 
2964.640778  	90.085056 
2965.605202  	90.016601 
2966.569627  	89.985848 
2967.534051  	90.073253 
2968.498476  	90.166712 
2969.462900  	90.154445 
2970.427324  	90.162983 
2971.391749  	90.205358 
2972.356173  	90.288103 
2973.320598  	90.392445 
2974.285022  	90.437547 
2975.249447  	90.433399 
2976.213871  	90.513902 
2977.178296  	90.608893 
2978.142720  	90.665637 
2979.107145  	90.726118 
2980.071569  	90.799943 
2981.035993  	90.839224 
2982.000418  	90.924950 
2982.964842  	91.003120 
2983.929267  	91.050298 
2984.893691  	91.095060 
2985.858116  	91.107428 
2986.822540  	91.140557 
2987.786965  	91.181692 
2988.751389  	91.187500 
2989.715814  	91.216356 
2990.680238  	91.255024 
2991.644663  	91.297373 
2992.609087  	91.315348 
2993.573511  	91.318211 
2994.537936  	91.291228 
2995.502360  	91.327205 
2996.466785  	91.356199 
2997.431209  	91.384842 
2998.395634  	91.419332 
2999.360058  	91.433624 
3000.324483  	91.440449 
3001.288907  	91.418019 
3002.253332  	91.402244 
3003.217756  	91.421479 
3004.182180  	91.385816 
3005.146605  	91.366930 
3006.111029  	91.437191 
3007.075454  	91.502470 
3008.039878  	91.511462 
3009.004303  	91.516746 
3009.968727  	91.509224 
3010.933152  	91.494744 
3011.897576  	91.488596 
3012.862001  	91.441286 
3013.826425  	91.512607 
3014.790849  	91.641726 
3015.755274  	91.647265 
3016.719698  	91.662792 
3017.684123  	91.723431 
3018.648547  	91.742325 
3019.612972  	91.730182 
3020.577396  	91.768035 
3021.541821  	91.808954 
3022.506245  	91.809357 
3023.470670  	91.794714 
3024.435094  	91.838510 
3025.399518  	91.829492 
3026.363943  	91.835573 
3027.328367  	91.865841 
3028.292792  	91.913632 
3029.257216  	91.963757 
3030.221641  	91.845063 
3031.186065  	91.708476 
3032.150490  	91.708246 
3033.114914  	91.792786 
3034.079339  	91.800145 
3035.043763  	91.784677 
3036.008187  	91.820798 
3036.972612  	91.882170 
3037.937036  	91.905200 
3038.901461  	91.886151 
3039.865885  	91.873360 
3040.830310  	91.870037 
3041.794734  	91.852546 
3042.759159  	91.832113 
3043.723583  	91.827567 
3044.688008  	91.798362 
3045.652432  	91.805584 
3046.616857  	91.800290 
3047.581281  	91.763171 
3048.545705  	91.666774 
3049.510130  	91.594264 
3050.474554  	91.623132 
3051.438979  	91.664018 
3052.403403  	91.636189 
3053.367828  	91.600927 
3054.332252  	91.592268 
3055.296677  	91.605853 
3056.261101  	91.494642 
3057.225526  	91.488899 
3058.189950  	91.623779 
3059.154374  	91.688686 
3060.118799  	91.698690 
3061.083223  	91.702336 
3062.047648  	91.686907 
3063.012072  	91.684862 
3063.976497  	91.581756 
3064.940921  	91.479170 
3065.905346  	91.550776 
3066.869770  	91.533130 
3067.834195  	91.534733 
3068.798619  	91.624947 
3069.763043  	91.635318 
3070.727468  	91.653450 
3071.691892  	91.719888 
3072.656317  	91.707696 
3073.620741  	91.670370 
3074.585166  	91.686819 
3075.549590  	91.729431 
3076.514015  	91.723930 
3077.478439  	91.650828 
3078.442864  	91.639054 
3079.407288  	91.645426 
3080.371712  	91.624843 
3081.336137  	91.640597 
3082.300561  	91.658183 
3083.264986  	91.734321 
3084.229410  	91.792392 
3085.193835  	91.773971 
3086.158259  	91.792957 
3087.122684  	91.780927 
3088.087108  	91.736783 
3089.051533  	91.752823 
3090.015957  	91.782070 
3090.980381  	91.811184 
3091.944806  	91.831213 
3092.909230  	91.819391 
3093.873655  	91.744466 
3094.838079  	91.714571 
3095.802504  	91.716442 
3096.766928  	91.731776 
3097.731353  	91.759891 
3098.695777  	91.785927 
3099.660202  	91.744112 
3100.624626  	91.678669 
3101.589050  	91.619293 
3102.553475  	91.597441 
3103.517899  	91.606790 
3104.482324  	91.683569 
3105.446748  	91.727886 
3106.411173  	91.731554 
3107.375597  	91.749155 
3108.340022  	91.798619 
3109.304446  	91.790756 
3110.268871  	91.747024 
3111.233295  	91.760254 
3112.197720  	91.738151 
3113.162144  	91.714457 
3114.126568  	91.727736 
3115.090993  	91.749619 
3116.055417  	91.763572 
3117.019842  	91.764190 
3117.984266  	91.747226 
3118.948691  	91.679549 
3119.913115  	91.743273 
3120.877540  	91.816215 
3121.841964  	91.764435 
3122.806389  	91.688961 
3123.770813  	91.747921 
3124.735237  	91.810465 
3125.699662  	91.782983 
3126.664086  	91.751707 
3127.628511  	91.790824 
3128.592935  	91.796278 
3129.557360  	91.814113 
3130.521784  	91.850879 
3131.486209  	91.836355 
3132.450633  	91.750911 
3133.415058  	91.681447 
3134.379482  	91.818012 
3135.343906  	91.929288 
3136.308331  	91.909225 
3137.272755  	91.849286 
3138.237180  	91.866022 
3139.201604  	91.895418 
3140.166029  	91.851353 
3141.130453  	91.861886 
3142.094878  	91.838482 
3143.059302  	91.796239 
3144.023727  	91.859474 
3144.988151  	91.926742 
3145.952575  	91.875571 
3146.917000  	91.815424 
3147.881424  	91.833798 
3148.845849  	91.886824 
3149.810273  	91.892248 
3150.774698  	91.895067 
3151.739122  	91.889488 
3152.703547  	91.886744 
3153.667971  	91.882598 
3154.632396  	91.844300 
3155.596820  	91.829570 
3156.561244  	91.805596 
3157.525669  	91.799385 
3158.490093  	91.787244 
3159.454518  	91.813171 
3160.418942  	91.819002 
3161.383367  	91.805335 
3162.347791  	91.745250 
3163.312216  	91.738376 
3164.276640  	91.840107 
3165.241065  	91.880911 
3166.205489  	91.840219 
3167.169914  	91.807118 
3168.134338  	91.780358 
3169.098762  	91.760004 
3170.063187  	91.714776 
3171.027611  	91.734475 
3171.992036  	91.770453 
3172.956460  	91.777959 
3173.920885  	91.757711 
3174.885309  	91.745590 
3175.849734  	91.763923 
3176.814158  	91.790146 
3177.778583  	91.742822 
3178.743007  	91.686711 
3179.707431  	91.676467 
3180.671856  	91.720091 
3181.636280  	91.781771 
3182.600705  	91.778068 
3183.565129  	91.752439 
3184.529554  	91.736039 
3185.493978  	91.689842 
3186.458403  	91.648073 
3187.422827  	91.630634 
3188.387252  	91.655704 
3189.351676  	91.716139 
3190.316100  	91.729436 
3191.280525  	91.745966 
3192.244949  	91.759060 
3193.209374  	91.741510 
3194.173798  	91.655204 
3195.138223  	91.667108 
3196.102647  	91.679067 
3197.067072  	91.591085 
3198.031496  	91.564214 
3198.995921  	91.666602 
3199.960345  	91.696150 
3200.924769  	91.711802 
3201.889194  	91.746540 
3202.853618  	91.758480 
3203.818043  	91.726555 
3204.782467  	91.675483 
3205.746892  	91.645884 
3206.711316  	91.595199 
3207.675741  	91.559587 
3208.640165  	91.567098 
3209.604590  	91.562516 
3210.569014  	91.571887 
3211.533438  	91.642032 
3212.497863  	91.646049 
3213.462287  	91.561562 
3214.426712  	91.530609 
3215.391136  	91.566642 
3216.355561  	91.573866 
3217.319985  	91.586550 
3218.284410  	91.623329 
3219.248834  	91.630614 
3220.213259  	91.629499 
3221.177683  	91.676371 
3222.142107  	91.652014 
3223.106532  	91.587459 
3224.070956  	91.622655 
3225.035381  	91.608705 
3225.999805  	91.525713 
3226.964230  	91.513465 
3227.928654  	91.519154 
3228.893079  	91.544499 
3229.857503  	91.574360 
3230.821928  	91.541570 
3231.786352  	91.521251 
3232.750777  	91.536385 
3233.715201  	91.508750 
3234.679625  	91.499398 
3235.644050  	91.538007 
3236.608474  	91.537209 
3237.572899  	91.532276 
3238.537323  	91.587602 
3239.501748  	91.550240 
3240.466172  	91.487590 
3241.430597  	91.541690 
3242.395021  	91.553671 
3243.359446  	91.476267 
3244.323870  	91.411845 
3245.288294  	91.330946 
3246.252719  	91.347377 
3247.217143  	91.458980 
3248.181568  	91.571126 
3249.145992  	91.554142 
3250.110417  	91.520227 
3251.074841  	91.488020 
3252.039266  	91.475380 
3253.003690  	91.484096 
3253.968115  	91.412270 
3254.932539  	91.320739 
3255.896963  	91.304871 
3256.861388  	91.296824 
3257.825812  	91.365346 
3258.790237  	91.406295 
3259.754661  	91.371228 
3260.719086  	91.319595 
3261.683510  	91.363511 
3262.647935  	91.346164 
3263.612359  	91.323459 
3264.576784  	91.327399 
3265.541208  	91.265583 
3266.505632  	91.254174 
3267.470057  	91.314784 
3268.434481  	91.339125 
3269.398906  	91.318858 
3270.363330  	91.286449 
3271.327755  	91.304236 
3272.292179  	91.325925 
3273.256604  	91.293753 
3274.221028  	91.270272 
3275.185453  	91.311102 
3276.149877  	91.300949 
3277.114301  	91.225944 
3278.078726  	91.198475 
3279.043150  	91.216207 
3280.007575  	91.193798 
3280.971999  	91.156715 
3281.936424  	91.238245 
3282.900848  	91.302747 
3283.865273  	91.217440 
3284.829697  	91.171227 
3285.794122  	91.203806 
3286.758546  	91.215597 
3287.722971  	91.198178 
3288.687395  	91.155403 
3289.651819  	91.216217 
3290.616244  	91.252338 
3291.580668  	91.204785 
3292.545093  	91.169866 
3293.509517  	91.200878 
3294.473942  	91.261051 
3295.438366  	91.254043 
3296.402791  	91.220151 
3297.367215  	91.157209 
3298.331640  	91.119307 
3299.296064  	91.180807 
3300.260488  	91.279430 
3301.224913  	91.312434 
3302.189337  	91.314265 
3303.153762  	91.296361 
3304.118186  	91.328721 
3305.082611  	91.331989 
3306.047035  	91.287960 
3307.011460  	91.281669 
3307.975884  	91.260568 
3308.940309  	91.199618 
3309.904733  	91.247705 
3310.869157  	91.235104 
3311.833582  	91.228639 
3312.798006  	91.286639 
3313.762431  	91.279621 
3314.726855  	91.336328 
3315.691280  	91.335132 
3316.655704  	91.279915 
3317.620129  	91.267880 
3318.584553  	91.286263 
3319.548978  	91.256002 
3320.513402  	91.325284 
3321.477826  	91.349035 
3322.442251  	91.298789 
3323.406675  	91.322555 
3324.371100  	91.328422 
3325.335524  	91.319317 
3326.299949  	91.332595 
3327.264373  	91.264235 
3328.228798  	91.213355 
3329.193222  	91.186592 
3330.157647  	91.130796 
3331.122071  	91.146860 
3332.086495  	91.271685 
3333.050920  	91.246797 
3334.015344  	91.163721 
3334.979769  	91.145144 
3335.944193  	91.190456 
3336.908618  	91.121256 
3337.873042  	91.121718 
3338.837467  	91.205297 
3339.801891  	91.227053 
3340.766316  	91.275470 
3341.730740  	91.247209 
3342.695164  	91.183548 
3343.659589  	91.240959 
3344.624013  	91.350140 
3345.588438  	91.365238 
3346.552862  	91.333768 
3347.517287  	91.293515 
3348.481711  	91.291728 
3349.446136  	91.351205 
3350.410560  	91.376847 
3351.374985  	91.413241 
3352.339409  	91.471633 
3353.303834  	91.429031 
3354.268258  	91.380927 
3355.232682  	91.366458 
3356.197107  	91.284919 
3357.161531  	91.292548 
3358.125956  	91.366616 
3359.090380  	91.365590 
3360.054805  	91.258999 
3361.019229  	91.233796 
3361.983654  	91.273101 
3362.948078  	91.419918 
3363.912503  	91.485777 
3364.876927  	91.376696 
3365.841351  	91.356229 
3366.805776  	91.402627 
3367.770200  	91.350232 
3368.734625  	91.298176 
3369.699049  	91.399514 
3370.663474  	91.546323 
3371.627898  	91.550111 
3372.592323  	91.466325 
3373.556747  	91.431366 
3374.521172  	91.468650 
3375.485596  	91.505127 
3376.450020  	91.486972 
3377.414445  	91.469369 
3378.378869  	91.467591 
3379.343294  	91.542721 
3380.307718  	91.558430 
3381.272143  	91.535407 
3382.236567  	91.521465 
3383.200992  	91.482755 
3384.165416  	91.434915 
3385.129841  	91.416927 
3386.094265  	91.452384 
3387.058689  	91.534522 
3388.023114  	91.590949 
3388.987538  	91.620763 
3389.951963  	91.624881 
3390.916387  	91.555404 
3391.880812  	91.406428 
3392.845236  	91.169311 
3393.809661  	91.248159 
3394.774085  	91.481380 
3395.738510  	91.535188 
3396.702934  	91.469139 
3397.667358  	91.280929 
3398.631783  	91.438259 
3399.596207  	91.633231 
3400.560632  	91.563229 
3401.525056  	91.484409 
3402.489481  	91.509996 
3403.453905  	91.446136 
3404.418330  	91.432841 
3405.382754  	91.483217 
3406.347179  	91.456828 
3407.311603  	91.422388 
3408.276028  	91.437932 
3409.240452  	91.435530 
3410.204876  	91.390233 
3411.169301  	91.426743 
3412.133725  	91.500769 
3413.098150  	91.531718 
3414.062574  	91.487965 
3415.026999  	91.480738 
3415.991423  	91.397473 
3416.955848  	91.327292 
3417.920272  	91.379734 
3418.884697  	91.437649 
3419.849121  	91.193259 
3420.813545  	90.834194 
3421.777970  	90.932757 
3422.742394  	91.112818 
3423.706819  	91.200118 
3424.671243  	91.282328 
3425.635668  	91.319600 
3426.600092  	91.299041 
3427.564517  	91.269459 
3428.528941  	91.304981 
3429.493366  	91.399303 
3430.457790  	91.353171 
3431.422214  	91.311385 
3432.386639  	91.391827 
3433.351063  	91.470268 
3434.315488  	91.507046 
3435.279912  	91.532334 
3436.244337  	91.517702 
3437.208761  	91.466173 
3438.173186  	91.482127 
3439.137610  	91.479065 
3440.102035  	91.510336 
3441.066459  	91.580320 
3442.030883  	91.498966 
3442.995308  	91.231202 
3443.959732  	91.348569 
3444.924157  	91.507899 
3445.888581  	91.465653 
3446.853006  	91.055264 
3447.817430  	90.748328 
3448.781855  	91.269967 
3449.746279  	91.603655 
3450.710704  	91.690313 
3451.675128  	91.654913 
3452.639552  	91.715243 
3453.603977  	91.769341 
3454.568401  	91.781247 
3455.532826  	91.767782 
3456.497250  	91.710091 
3457.461675  	91.627041 
3458.426099  	91.614983 
3459.390524  	91.678430 
3460.354948  	91.713867 
3461.319373  	91.563768 
3462.283797  	91.481689 
3463.248221  	91.508553 
3464.212646  	91.706850 
3465.177070  	91.761436 
3466.141495  	91.730664 
3467.105919  	91.560963 
3468.070344  	91.684144 
3469.034768  	91.917701 
3469.999193  	91.901875 
3470.963617  	91.813635 
3471.928042  	91.862854 
3472.892466  	91.888856 
3473.856891  	91.855883 
3474.821315  	91.691031 
3475.785739  	91.736433 
3476.750164  	91.878338 
3477.714588  	91.930058 
3478.679013  	91.967078 
3479.643437  	91.860734 
3480.607862  	91.470760 
3481.572286  	91.262645 
3482.536711  	91.236369 
3483.501135  	91.572097 
3484.465560  	91.846884 
3485.429984  	91.804509 
3486.394408  	91.788793 
3487.358833  	91.730702 
3488.323257  	91.457044 
3489.287682  	91.475769 
3490.252106  	91.701903 
3491.216531  	91.734133 
3492.180955  	91.804215 
3493.145380  	91.950791 
3494.109804  	92.036086 
3495.074229  	91.833643 
3496.038653  	91.561169 
3497.003077  	91.517305 
3497.967502  	91.707296 
3498.931926  	91.868324 
3499.896351  	91.785109 
3500.860775  	91.657481 
3501.825200  	91.263639 
3502.789624  	90.820419 
3503.754049  	90.765430 
3504.718473  	91.200795 
3505.682898  	91.594520 
3506.647322  	91.921799 
3507.611746  	91.940312 
3508.576171  	91.545836 
3509.540595  	90.902565 
3510.505020  	91.122904 
3511.469444  	91.570041 
3512.433869  	91.618442 
3513.398293  	91.738549 
3514.362718  	91.862294 
3515.327142  	91.979874 
3516.291567  	92.001362 
3517.255991  	91.815209 
3518.220415  	91.685792 
3519.184840  	91.717660 
3520.149264  	91.753319 
3521.113689  	91.799323 
3522.078113  	91.593638 
3523.042538  	90.882948 
3524.006962  	90.536812 
3524.971387  	90.918374 
3525.935811  	91.048942 
3526.900236  	90.945070 
3527.864660  	90.832082 
3528.829085  	90.974594 
3529.793509  	91.118526 
3530.757933  	91.376062 
3531.722358  	91.481597 
3532.686782  	91.736574 
3533.651207  	91.934403 
3534.615631  	91.959543 
3535.580056  	91.663695 
3536.544480  	90.998027 
3537.508905  	91.166617 
3538.473329  	91.740904 
3539.437754  	91.756162 
3540.402178  	91.764417 
3541.366602  	91.802522 
3542.331027  	91.809279 
3543.295451  	91.581413 
3544.259876  	91.190066 
3545.224300  	90.384153 
3546.188725  	90.125759 
3547.153149  	90.101012 
3548.117574  	90.488872 
3549.081998  	91.387137 
3550.046423  	91.729490 
3551.010847  	91.630988 
3551.975271  	91.036942 
3552.939696  	90.706183 
3553.904120  	91.065100 
3554.868545  	91.493381 
3555.832969  	91.921066 
3556.797394  	91.858832 
3557.761818  	91.840926 
3558.726243  	91.923676 
3559.690667  	91.500329 
3560.655092  	91.022542 
3561.619516  	91.421855 
3562.583940  	91.422065 
3563.548365  	91.259218 
3564.512789  	91.177982 
3565.477214  	90.440575 
3566.441638  	88.331376 
3567.406063  	88.101973 
3568.370487  	88.531483 
3569.334912  	90.006855 
3570.299336  	91.246866 
3571.263761  	91.438357 
3572.228185  	91.770077 
3573.192609  	91.820507 
3574.157034  	91.749431 
3575.121458  	91.676582 
3576.085883  	91.791423 
3577.050307  	91.754619 
3578.014732  	91.688391 
3578.979156  	91.761869 
3579.943581  	91.385450 
3580.908005  	91.340958 
3581.872430  	91.794620 
3582.836854  	91.826843 
3583.801278  	91.649781 
3584.765703  	91.658651 
3585.730127  	91.302556 
3586.694552  	89.727010 
3587.658976  	88.690420 
3588.623401  	89.104279 
3589.587825  	90.073193 
3590.552250  	91.365385 
3591.516674  	91.803641 
3592.481099  	91.708664 
3593.445523  	91.017066 
3594.409948  	91.032776 
3595.374372  	90.662735 
3596.338796  	90.447107 
3597.303221  	91.334038 
3598.267645  	91.424290 
3599.232070  	91.016047 
3600.196494  	91.073262 
3601.160919  	90.861490 
3602.125343  	91.173980 
3603.089768  	91.466253 
3604.054192  	91.775161 
3605.018617  	91.980431 
3605.983041  	91.791753 
3606.947465  	90.665983 
3607.911890  	90.086817 
3608.876314  	90.483164 
3609.840739  	90.167882 
3610.805163  	91.006484 
3611.769588  	91.133695 
3612.734012  	89.945922 
3613.698437  	89.979545 
3614.662861  	90.307084 
3615.627286  	90.351687 
3616.591710  	91.249386 
3617.556134  	90.719792 
3618.520559  	89.753810 
3619.484983  	89.716565 
3620.449408  	89.750655 
3621.413832  	90.519128 
3622.378257  	91.279482 
3623.342681  	91.716189 
3624.307106  	91.906352 
3625.271530  	91.890091 
3626.235955  	91.355611 
3627.200379  	91.093366 
3628.164803  	90.315672 
3629.129228  	87.671114 
3630.093652  	88.010703 
3631.058077  	90.368347 
3632.022501  	91.394659 
3632.986926  	91.424102 
3633.951350  	90.671089 
3634.915775  	91.000403 
3635.880199  	91.833129 
3636.844624  	91.966008 
3637.809048  	91.790907 
3638.773472  	91.669020 
3639.737897  	91.875968 
3640.702321  	91.977102 
3641.666746  	91.735325 
3642.631170  	91.266048 
3643.595595  	91.482662 
3644.560019  	91.895873 
3645.524444  	91.614094 
3646.488868  	90.573581 
3647.453293  	88.826385 
3648.417717  	88.864949 
3649.382142  	88.699290 
3650.346566  	87.756414 
3651.310990  	88.094036 
3652.275415  	90.162943 
3653.239839  	91.534074 
3654.204264  	91.932400 
3655.168688  	91.807609 
3656.133113  	90.907712 
3657.097537  	90.536463 
3658.061962  	91.660514 
3659.026386  	91.969504 
3659.990811  	91.830675 
3660.955235  	91.972114 
3661.919659  	92.231182 
3662.884084  	92.247057 
3663.848508  	92.206122 
3664.812933  	92.160665 
3665.777357  	92.210836 
3666.741782  	92.251071 
3667.706206  	92.168797 
3668.670631  	91.288005 
3669.635055  	90.037982 
3670.599480  	89.486434 
3671.563904  	89.922581 
3672.528328  	91.369172 
3673.492753  	91.701607 
3674.457177  	90.626531 
3675.421602  	87.800464 
3676.386026  	88.052589 
3677.350451  	90.014189 
3678.314875  	90.896693 
3679.279300  	90.990814 
3680.243724  	90.982123 
3681.208149  	91.794034 
3682.172573  	92.233457 
3683.136997  	92.279643 
3684.101422  	92.186905 
3685.065846  	92.024965 
3686.030271  	92.128878 
3686.994695  	91.977015 
3687.959120  	91.237877 
3688.923544  	90.064113 
3689.887969  	90.484244 
3690.852393  	90.137375 
3691.816818  	89.844913 
3692.781242  	91.356514 
3693.745666  	91.935256 
3694.710091  	92.044074 
3695.674515  	92.161276 
3696.638940  	92.033777 
3697.603364  	92.147718 
3698.567789  	92.426339 
3699.532213  	92.349573 
3700.496638  	92.245696 
3701.461062  	91.549084 
3702.425487  	90.864221 
3703.389911  	91.758621 
3704.354335  	92.308088 
3705.318760  	92.258174 
3706.283184  	92.187283 
3707.247609  	92.254019 
3708.212033  	92.266334 
3709.176458  	91.662455 
3710.140882  	90.804016 
3711.105307  	90.534889 
3712.069731  	89.589677 
3713.034156  	89.544367 
3713.998580  	91.065221 
3714.963005  	91.303763 
3715.927429  	91.630563 
3716.891853  	92.256009 
3717.856278  	92.348857 
3718.820702  	91.710857 
3719.785127  	91.318875 
3720.749551  	91.938102 
3721.713976  	91.674303 
3722.678400  	90.319302 
3723.642825  	90.807674 
3724.607249  	91.279542 
3725.571674  	90.591074 
3726.536098  	90.314434 
3727.500522  	90.582563 
3728.464947  	91.613270 
3729.429371  	92.227032 
3730.393796  	92.123128 
3731.358220  	91.720757 
3732.322645  	90.860238 
3733.287069  	90.810677 
3734.251494  	90.397998 
3735.215918  	87.273179 
3736.180343  	87.331519 
3737.144767  	89.163499 
3738.109191  	90.221650 
3739.073616  	90.663571 
3740.038040  	91.273733 
3741.002465  	91.019806 
3741.966889  	91.071088 
3742.931314  	91.609555 
3743.895738  	90.797661 
3744.860163  	87.481185 
3745.824587  	89.259520 
3746.789012  	90.619385 
3747.753436  	90.729152 
3748.717860  	90.575854 
3749.682285  	89.975339 
3750.646709  	89.549383 
3751.611134  	89.437624 
3752.575558  	88.456067 
3753.539983  	89.942913 
3754.504407  	91.089687 
3755.468832  	91.720594 
3756.433256  	91.542191 
3757.397681  	91.419608 
3758.362105  	91.581470 
3759.326529  	90.770915 
3760.290954  	90.230470 
3761.255378  	91.600389 
3762.219803  	92.093575 
3763.184227  	92.137096 
3764.148652  	92.162432 
3765.113076  	91.802812 
3766.077501  	90.901823 
3767.041925  	91.517842 
3768.006350  	92.152199 
3768.970774  	91.895161 
3769.935199  	90.897190 
3770.899623  	90.897865 
3771.864047  	91.789853 
3772.828472  	92.200011 
3773.792896  	92.323081 
3774.757321  	92.428355 
3775.721745  	92.542938 
3776.686170  	92.611417 
3777.650594  	92.448517 
3778.615019  	92.010939 
3779.579443  	91.175258 
3780.543868  	91.229025 
3781.508292  	92.085565 
3782.472716  	92.257167 
3783.437141  	92.328097 
3784.401565  	92.016645 
3785.365990  	91.536424 
3786.330414  	91.863376 
3787.294839  	92.224994 
3788.259263  	92.424265 
3789.223688  	92.476020 
3790.188112  	92.474324 
3791.152537  	92.558738 
3792.116961  	92.570340 
3793.081385  	92.573244 
3794.045810  	92.553521 
3795.010234  	92.388512 
3795.974659  	91.898109 
3796.939083  	91.054381 
3797.903508  	91.297980 
3798.867932  	91.894108 
3799.832357  	92.006121 
3800.796781  	91.106195 
3801.761206  	89.536004 
3802.725630  	89.909732 
3803.690054  	91.055068 
3804.654479  	91.985807 
3805.618903  	92.128856 
3806.583328  	91.472481 
3807.547752  	90.716608 
3808.512177  	91.700350 
3809.476601  	92.218455 
3810.441026  	92.282218 
3811.405450  	92.408259 
3812.369875  	92.506328 
3813.334299  	92.554145 
3814.298723  	92.403676 
3815.263148  	91.818540 
3816.227572  	90.373126 
3817.191997  	90.650292 
3818.156421  	91.744520 
3819.120846  	91.750584 
3820.085270  	91.052308 
3821.049695  	89.427372 
3822.014119  	89.108313 
3822.978544  	90.941356 
3823.942968  	91.672397 
3824.907392  	91.901283 
3825.871817  	91.823868 
3826.836241  	91.292242 
3827.800666  	91.327865 
3828.765090  	91.986726 
3829.729515  	92.304363 
3830.693939  	92.193377 
3831.658364  	91.462293 
3832.622788  	91.359784 
3833.587213  	92.059732 
3834.551637  	91.810101 
3835.516062  	91.107292 
3836.480486  	91.558308 
3837.444910  	91.283008 
3838.409335  	89.936438 
3839.373759  	90.326475 
3840.338184  	90.039373 
3841.302608  	90.066363 
3842.267033  	91.330451 
3843.231457  	91.505116 
3844.195882  	90.666833 
3845.160306  	91.437263 
3846.124731  	92.165480 
3847.089155  	92.308716 
3848.053579  	92.351199 
3849.018004  	92.180275 
3849.982428  	91.666337 
3850.946853  	91.646901 
3851.911277  	90.917469 
3852.875702  	89.152326 
3853.840126  	88.603740 
3854.804551  	88.772552 
3855.768975  	90.691684 
3856.733400  	91.063936 
3857.697824  	90.646815 
3858.662248  	91.606334 
3859.626673  	92.293246 
3860.591097  	92.295851 
3861.555522  	91.729997 
3862.519946  	91.076565 
3863.484371  	91.350828 
3864.448795  	90.706608 
3865.413220  	89.620427 
3866.377644  	90.951088 
3867.342069  	92.068849 
3868.306493  	92.070670 
3869.270917  	90.862248 
3870.235342  	88.842575 
3871.199766  	89.944688 
3872.164191  	91.288001 
3873.128615  	91.683095 
3874.093040  	90.458878 
3875.057464  	90.297394 
3876.021889  	91.937550 
3876.986313  	92.428800 
3877.950738  	92.480021 
3878.915162  	92.380254 
3879.879586  	91.436500 
3880.844011  	89.609910 
3881.808435  	90.720419 
3882.772860  	91.816469 
3883.737284  	91.526494 
3884.701709  	91.380365 
3885.666133  	90.651582 
3886.630558  	90.229409 
3887.594982  	91.771337 
3888.559407  	92.380967 
3889.523831  	92.385537 
3890.488256  	91.971287 
3891.452680  	90.737350 
3892.417104  	90.542179 
3893.381529  	91.599844 
3894.345953  	91.628063 
3895.310378  	91.906691 
3896.274802  	92.408427 
3897.239227  	92.381068 
3898.203651  	91.730770 
3899.168076  	90.751877 
3900.132500  	90.541212 
3901.096925  	91.320663 
3902.061349  	90.171638 
3903.025773  	89.969558 
3903.990198  	90.556890 
3904.954622  	90.044064 
3905.919047  	90.310555 
3906.883471  	91.136446 
3907.847896  	92.182040 
3908.812320  	92.551600 
3909.776745  	92.573042 
3910.741169  	92.576620 
3911.705594  	92.570363 
3912.670018  	92.534461 
3913.634442  	92.517755 
3914.598867  	92.582886 
3915.563291  	92.483701 
3916.527716  	91.577923 
3917.492140  	90.708775 
3918.456565  	91.519079 
3919.420989  	91.910106 
3920.385414  	91.275371 
3921.349838  	91.735048 
3922.314263  	92.453185 
3923.278687  	92.153091 
3924.243111  	91.289823 
3925.207536  	90.804065 
3926.171960  	91.518500 
3927.136385  	92.380889 
3928.100809  	92.496802 
3929.065234  	92.258657 
3930.029658  	91.872565 
3930.994083  	91.679134 
3931.958507  	91.347671 
3932.922932  	90.909066 
3933.887356  	91.628912 
3934.851780  	92.135708 
3935.816205  	92.439951 
3936.780629  	92.580287 
3937.745054  	92.474307 
3938.709478  	92.297019 
3939.673903  	92.476673 
3940.638327  	92.517977 
3941.602752  	92.326651 
3942.567176  	91.477195 
3943.531601  	90.998637 
3944.496025  	91.857565 
3945.460449  	92.341792 
3946.424874  	92.446628 
3947.389298  	91.868113 
3948.353723  	91.429478 
3949.318147  	91.699253 
3950.282572  	91.475981 
3951.246996  	91.797266 
3952.211421  	92.415694 
3953.175845  	92.370889 
3954.140270  	92.426624 
3955.104694  	92.524460 
3956.069119  	92.456981 
3957.033543  	92.323781 
3957.997967  	92.345076 
3958.962392  	92.443718 
3959.926816  	92.444028 
3960.891241  	92.377971 
3961.855665  	91.996999 
3962.820090  	91.954811 
3963.784514  	92.450389 
3964.748939  	92.528935 
3965.713363  	92.574997 
3966.677788  	92.639357 
3967.642212  	92.646570 
3968.606636  	92.499580 
3969.571061  	92.300824 
3970.535485  	92.431474 
3971.499910  	92.516486 
3972.464334  	92.292257 
3973.428759  	92.358941 
3974.393183  	92.471137 
3975.357608  	92.343104 
3976.322032  	92.175832 
3977.286457  	92.332450 
3978.250881  	92.601400 
3979.215305  	92.650651 
3980.179730  	92.617616 
3981.144154  	92.573024 
3982.108579  	92.519194 
3983.073003  	92.557919 
3984.037428  	92.661641 
3985.001852  	92.655527 
3985.966277  	92.622583 
3986.930701  	92.682081 
3987.895126  	92.691805 
3988.859550  	92.623420 
3989.823974  	92.473970 
3990.788399  	92.279710 
3991.752823  	92.396323 
3992.717248  	92.571419 
3993.681672  	92.570677 
3994.646097  	92.453577 
3995.610521  	92.339869 
3996.574946  	92.529862 
3997.539370  	92.651111 
3998.503795  	92.668106 
3999.468219  	92.644066 
4000.432643  	92.696272 
4001.397068  	92.702633 
4002.361492  	92.666439 
4003.325917  	92.640828 
4004.290341  	92.664480 
4005.254766  	92.707141 
4006.219190  	92.704825 
4007.183615  	92.635353 
4008.148039  	92.537397 
4009.112464  	92.420590 
4010.076888  	92.528953 
4011.041313  	92.641444 
4012.005737  	92.675910 
4012.970161  	92.632059 
4013.934586  	92.629038 
4014.899010  	92.629471 
4015.863435  	92.620475 
4016.827859  	92.604761 
4017.792284  	92.597547 
4018.756708  	92.598775 
4019.721133  	92.552527 
4020.685557  	92.585953 
4021.649982  	92.702326 
4022.614406  	92.747123 
4023.578830  	92.710960 
4024.543255  	92.669974 
4025.507679  	92.611472 
4026.472104  	92.613082 
4027.436528  	92.672064 
4028.400953  	92.665306 
4029.365377  	92.634610 
4030.329802  	92.618107 
4031.294226  	92.627619 
4032.258651  	92.619972 
4033.223075  	92.708084 
4034.187499  	92.769245 
4035.151924  	92.716074 
4036.116348  	92.675249 
4037.080773  	92.697272 
4038.045197  	92.689575 
4039.009622  	92.641845 
4039.974046  	92.631309 
4040.938471  	92.646358 
4041.902895  	92.666739 
4042.867320  	92.673974 
4043.831744  	92.562879 
4044.796168  	92.487480 
4045.760593  	92.522349 
4046.725017  	92.639506 
4047.689442  	92.687642 
4048.653866  	92.692988 
4049.618291  	92.670162 
4050.582715  	92.646081 
4051.547140  	92.628618 
4052.511564  	92.655204 
4053.475989  	92.678508 
4054.440413  	92.644034 
4055.404837  	92.614698 
4056.369262  	92.650000 
4057.333686  	92.678887 
4058.298111  	92.690700 
4059.262535  	92.692196 
4060.226960  	92.677119 
4061.191384  	92.625442 
4062.155809  	92.687234 
4063.120233  	92.726796 
4064.084658  	92.691037 
4065.049082  	92.667606 
4066.013506  	92.694046 
4066.977931  	92.711777 
4067.942355  	92.711353 
4068.906780  	92.667390 
4069.871204  	92.675081 
4070.835629  	92.688044 
4071.800053  	92.699109 
4072.764478  	92.670028 
4073.728902  	92.622208 
4074.693327  	92.651780 
4075.657751  	92.721738 
4076.622176  	92.666922 
4077.586600  	92.648260 
4078.551024  	92.673921 
4079.515449  	92.625957 
4080.479873  	92.588328 
4081.444298  	92.610600 
4082.408722  	92.598157 
4083.373147  	92.612192 
4084.337571  	92.656855 
4085.301996  	92.641564 
4086.266420  	92.572385 
4087.230845  	92.567487 
4088.195269  	92.553762 
4089.159693  	92.567978 
4090.124118  	92.617313 
4091.088542  	92.617257 
4092.052967  	92.633187 
4093.017391  	92.652740 
4093.981816  	92.634790 
4094.946240  	92.629876 
4095.910665  	92.659648 
4096.875089  	92.736940 
4097.839514  	92.714651 
4098.803938  	92.633032 
4099.768362  	92.666166 
4100.732787  	92.694655 
4101.697211  	92.645809 
4102.661636  	92.670983 
4103.626060  	92.712188 
4104.590485  	92.651170 
4105.554909  	92.605162 
4106.519334  	92.612446 
4107.483758  	92.603276 
4108.448183  	92.657986 
4109.412607  	92.705959 
4110.377031  	92.669905 
4111.341456  	92.682507 
4112.305880  	92.707590 
4113.270305  	92.680994 
4114.234729  	92.693439 
4115.199154  	92.712390 
4116.163578  	92.686017 
4117.128003  	92.683475 
4118.092427  	92.720230 
4119.056852  	92.707206 
4120.021276  	92.621365 
4120.985700  	92.607449 
4121.950125  	92.662733 
4122.914549  	92.643051 
4123.878974  	92.641152 
4124.843398  	92.690817 
4125.807823  	92.716929 
4126.772247  	92.686503 
4127.736672  	92.668182 
4128.701096  	92.670662 
4129.665521  	92.689776 
4130.629945  	92.698483 
4131.594370  	92.755309 
4132.558794  	92.769912 
4133.523218  	92.695052 
4134.487643  	92.672923 
4135.452067  	92.700620 
4136.416492  	92.720720 
4137.380916  	92.714962 
4138.345341  	92.677482 
4139.309765  	92.645179 
4140.274190  	92.677190 
4141.238614  	92.717870 
4142.203039  	92.712227 
4143.167463  	92.771654 
4144.131887  	92.767183 
4145.096312  	92.689439 
4146.060736  	92.692723 
4147.025161  	92.754455 
4147.989585  	92.725895 
4148.954010  	92.651104 
4149.918434  	92.674684 
4150.882859  	92.714686 
4151.847283  	92.732655 
4152.811708  	92.694832 
4153.776132  	92.678183 
4154.740556  	92.692888 
4155.704981  	92.689447 
4156.669405  	92.697413 
4157.633830  	92.708376 
4158.598254  	92.720403 
4159.562679  	92.690322 
4160.527103  	92.649401 
4161.491528  	92.646173 
4162.455952  	92.699120 
4163.420377  	92.742740 
4164.384801  	92.739024 
4165.349225  	92.711553 
4166.313650  	92.663636 
4167.278074  	92.629707 
4168.242499  	92.677841 
4169.206923  	92.780249 
4170.171348  	92.832116 
4171.135772  	92.827008 
4172.100197  	92.810746 
4173.064621  	92.817163 
4174.029046  	92.819891 
4174.993470  	92.753901 
4175.957894  	92.702495 
4176.922319  	92.754576 
4177.886743  	92.762930 
4178.851168  	92.699594 
4179.815592  	92.673289 
4180.780017  	92.689143 
4181.744441  	92.747502 
4182.708866  	92.756133 
4183.673290  	92.778134 
4184.637715  	92.806906 
4185.602139  	92.799722 
4186.566563  	92.754909 
4187.530988  	92.744713 
4188.495412  	92.775424 
4189.459837  	92.815000 
4190.424261  	92.774193 
4191.388686  	92.751587 
4192.353110  	92.760077 
4193.317535  	92.756055 
4194.281959  	92.755577 
4195.246384  	92.773351 
4196.210808  	92.774116 
4197.175233  	92.735442 
4198.139657  	92.746899 
4199.104081  	92.809001 
4200.068506  	92.836446 
4201.032930  	92.793390 
4201.997355  	92.785700 
4202.961779  	92.827457 
4203.926204  	92.770619 
4204.890628  	92.721638 
4205.855053  	92.722964 
4206.819477  	92.713992 
4207.783902  	92.732755 
4208.748326  	92.800016 
4209.712750  	92.834344 
4210.677175  	92.858597 
4211.641599  	92.826572 
4212.606024  	92.768590 
4213.570448  	92.753700 
4214.534873  	92.781670 
4215.499297  	92.772922 
4216.463722  	92.789565 
4217.428146  	92.731777 
4218.392571  	92.751963 
4219.356995  	92.848705 
4220.321419  	92.861219 
4221.285844  	92.851604 
4222.250268  	92.869356 
4223.214693  	92.751436 
4224.179117  	92.678641 
4225.143542  	92.725805 
4226.107966  	92.817383 
4227.072391  	92.829642 
4228.036815  	92.765293 
4229.001240  	92.711411 
4229.965664  	92.697627 
4230.930088  	92.693693 
4231.894513  	92.727501 
4232.858937  	92.774872 
4233.823362  	92.799699 
4234.787786  	92.791749 
4235.752211  	92.804366 
4236.716635  	92.828896 
4237.681060  	92.818691 
4238.645484  	92.767059 
4239.609909  	92.720924 
4240.574333  	92.717194 
4241.538757  	92.787256 
4242.503182  	92.835453 
4243.467606  	92.838871 
4244.432031  	92.791978 
4245.396455  	92.744455 
4246.360880  	92.733371 
4247.325304  	92.783758 
4248.289729  	92.807401 
4249.254153  	92.822607 
4250.218578  	92.864914 
4251.183002  	92.866271 
4252.147427  	92.836144 
4253.111851  	92.828714 
4254.076275  	92.764178 
4255.040700  	92.772855 
4256.005124  	92.782695 
4256.969549  	92.845930 
4257.933973  	92.844982 
4258.898398  	92.788100 
4259.862822  	92.724156 
4260.827247  	92.729159 
4261.791671  	92.780896 
4262.756096  	92.794255 
4263.720520  	92.747899 
4264.684944  	92.747927 
4265.649369  	92.745000 
4266.613793  	92.792255 
4267.578218  	92.762231 
4268.542642  	92.758131 
4269.507067  	92.808553 
4270.471491  	92.777592 
4271.435916  	92.764427 
4272.400340  	92.722344 
4273.364765  	92.709925 
4274.329189  	92.769457 
4275.293613  	92.818853 
4276.258038  	92.844481 
4277.222462  	92.813065 
4278.186887  	92.738513 
4279.151311  	92.645796 
4280.115736  	92.662487 
4281.080160  	92.750411 
4282.044585  	92.775391 
4283.009009  	92.751464 
4283.973434  	92.737923 
4284.937858  	92.708547 
4285.902282  	92.686548 
4286.866707  	92.706987 
4287.831131  	92.749240 
4288.795556  	92.790660 
4289.759980  	92.799196 
4290.724405  	92.734607 
4291.688829  	92.722173 
4292.653254  	92.727924 
4293.617678  	92.792585 
4294.582103  	92.831969 
4295.546527  	92.816516 
4296.510951  	92.812004 
4297.475376  	92.856850 
4298.439800  	92.847140 
4299.404225  	92.824030 
4300.368649  	92.810003 
4301.333074  	92.772342 
4302.297498  	92.691049 
4303.261923  	92.695790 
4304.226347  	92.815567 
4305.190772  	92.933256 
4306.155196  	92.859815 
4307.119620  	92.808533 
4308.084045  	92.792073 
4309.048469  	92.779647 
4310.012894  	92.798655 
4310.977318  	92.852018 
4311.941743  	92.830033 
4312.906167  	92.803692 
4313.870592  	92.749578 
4314.835016  	92.764902 
4315.799441  	92.765163 
4316.763865  	92.759288 
4317.728290  	92.801422 
4318.692714  	92.905239 
4319.657138  	92.860919 
4320.621563  	92.757022 
4321.585987  	92.719525 
4322.550412  	92.744145 
4323.514836  	92.780609 
4324.479261  	92.808672 
4325.443685  	92.801332 
4326.408110  	92.798092 
4327.372534  	92.830329 
4328.336959  	92.821550 
4329.301383  	92.779988 
4330.265807  	92.830875 
4331.230232  	92.893108 
4332.194656  	92.830946 
4333.159081  	92.828059 
4334.123505  	92.859569 
4335.087930  	92.837507 
4336.052354  	92.790588 
4337.016779  	92.742818 
4337.981203  	92.772630 
4338.945628  	92.875278 
4339.910052  	92.872423 
4340.874476  	92.803684 
4341.838901  	92.826000 
4342.803325  	92.789400 
4343.767750  	92.726233 
4344.732174  	92.770590 
4345.696599  	92.801105 
4346.661023  	92.782392 
4347.625448  	92.754775 
4348.589872  	92.781097 
4349.554297  	92.835823 
4350.518721  	92.864129 
4351.483145  	92.860338 
4352.447570  	92.813878 
4353.411994  	92.824753 
4354.376419  	92.836524 
4355.340843  	92.841594 
4356.305268  	92.853812 
4357.269692  	92.899137 
4358.234117  	92.951809 
4359.198541  	92.906217 
4360.162966  	92.856162 
4361.127390  	92.832509 
4362.091814  	92.843157 
4363.056239  	92.814283 
4364.020663  	92.822683 
4364.985088  	92.868552 
4365.949512  	92.830804 
4366.913937  	92.803998 
4367.878361  	92.783268 
4368.842786  	92.811071 
4369.807210  	92.833791 
4370.771635  	92.789605 
4371.736059  	92.761406 
4372.700484  	92.807048 
4373.664908  	92.847709 
4374.629332  	92.870956 
4375.593757  	92.878381 
4376.558181  	92.912923 
4377.522606  	92.938218 
4378.487030  	92.869971 
4379.451455  	92.788705 
4380.415879  	92.793297 
4381.380304  	92.761977 
4382.344728  	92.784122 
4383.309153  	92.870166 
4384.273577  	92.882712 
4385.238001  	92.878755 
4386.202426  	92.893260 
4387.166850  	92.905841 
4388.131275  	92.895708 
4389.095699  	92.795862 
4390.060124  	92.753270 
4391.024548  	92.824584 
4391.988973  	92.916944 
4392.953397  	92.898607 
4393.917822  	92.874718 
4394.882246  	92.843976 
4395.846670  	92.804432 
4396.811095  	92.758762 
4397.775519  	92.820440 
4398.739944  	92.940313 
4399.704368  	92.969366 
4400.668793  	92.949335 
4401.633217  	92.825020 
4402.597642  	92.808441 
4403.562066  	92.964027 
4404.526491  	92.985416 
4405.490915  	92.888594 
4406.455339  	92.809430 
4407.419764  	92.812390 
4408.384188  	92.892871 
4409.348613  	92.910714 
4410.313037  	92.898791 
4411.277462  	92.782021 
4412.241886  	92.743940 
4413.206311  	92.863497 
4414.170735  	92.922751 
4415.135160  	92.886920 
4416.099584  	92.832644 
4417.064008  	92.774497 
4418.028433  	92.738907 
4418.992857  	92.799047 
4419.957282  	92.803804 
4420.921706  	92.758922 
4421.886131  	92.768200 
4422.850555  	92.822311 
4423.814980  	92.824259 
4424.779404  	92.764294 
4425.743829  	92.743285 
4426.708253  	92.772845 
4427.672677  	92.795127 
4428.637102  	92.808187 
4429.601526  	92.808244 
4430.565951  	92.799509 
4431.530375  	92.747547 
4432.494800  	92.700593 
4433.459224  	92.683678 
4434.423649  	92.720515 
4435.388073  	92.794876 
4436.352498  	92.898078 
4437.316922  	92.919371 
4438.281347  	92.863715 
4439.245771  	92.777644 
4440.210195  	92.808516 
4441.174620  	92.835012 
4442.139044  	92.821849 
4443.103469  	92.871378 
4444.067893  	92.821834 
4445.032318  	92.814618 
4445.996742  	92.793987 
4446.961167  	92.802804 
4447.925591  	92.859484 
4448.890016  	92.810531 
4449.854440  	92.736527 
4450.818864  	92.773696 
4451.783289  	92.760937 
4452.747713  	92.727183 
4453.712138  	92.808992 
4454.676562  	92.758193 
4455.640987  	92.762235 
4456.605411  	92.836732 
4457.569836  	92.850688 
4458.534260  	92.792605 
4459.498685  	92.783363 
4460.463109  	92.767137 
4461.427533  	92.779734 
4462.391958  	92.784259 
4463.356382  	92.755779 
4464.320807  	92.820962 
4465.285231  	92.841729 
4466.249656  	92.822770 
4467.214080  	92.821024 
4468.178505  	92.817629 
4469.142929  	92.835734 
4470.107354  	92.843803 
4471.071778  	92.879964 
4472.036202  	92.888526 
4473.000627  	92.826746 
4473.965051  	92.814592 
4474.929476  	92.832504 
4475.893900  	92.804727 
4476.858325  	92.793764 
4477.822749  	92.798273 
4478.787174  	92.796402 
4479.751598  	92.861196 
4480.716023  	92.881675 
4481.680447  	92.794492 
4482.644871  	92.770138 
4483.609296  	92.808194 
4484.573720  	92.862129 
4485.538145  	92.919846 
4486.502569  	92.942731 
4487.466994  	92.946320 
4488.431418  	92.942834 
4489.395843  	92.837293 
4490.360267  	92.823625 
4491.324692  	92.850337 
4492.289116  	92.882599 
4493.253541  	92.884978 
4494.217965  	92.901652 
4495.182389  	92.938530 
4496.146814  	92.901097 
4497.111238  	92.890129 
4498.075663  	92.904969 
4499.040087  	92.865292 
4500.004512  	92.800263 
4500.968936  	92.836970 
4501.933361  	92.886338 
4502.897785  	92.913877 
4503.862210  	92.902869 
4504.826634  	92.883233 
4505.791058  	92.928435 
4506.755483  	92.958898 
4507.719907  	92.934202 
4508.684332  	92.933108 
4509.648756  	92.916715 
4510.613181  	92.843895 
4511.577605  	92.865327 
4512.542030  	92.904373 
4513.506454  	92.948540 
4514.470879  	92.922033 
4515.435303  	92.857447 
4516.399727  	92.888544 
4517.364152  	92.874076 
4518.328576  	92.874773 
4519.293001  	92.887759 
4520.257425  	92.837357 
4521.221850  	92.800187 
4522.186274  	92.897699 
4523.150699  	92.907944 
4524.115123  	92.816355 
4525.079548  	92.819156 
4526.043972  	92.815386 
4527.008396  	92.848822 
4527.972821  	92.899931 
4528.937245  	92.929163 
4529.901670  	92.843213 
4530.866094  	92.799710 
4531.830519  	92.871773 
4532.794943  	92.879275 
4533.759368  	92.848802 
4534.723792  	92.853814 
4535.688217  	92.848894 
4536.652641  	92.900163 
4537.617065  	92.949285 
4538.581490  	92.985824 
4539.545914  	92.964534 
4540.510339  	92.960368 
4541.474763  	92.924921 
4542.439188  	92.872678 
4543.403612  	92.888956 
4544.368037  	92.867976 
4545.332461  	92.857015 
4546.296886  	92.915626 
4547.261310  	92.910830 
4548.225734  	92.913155 
4549.190159  	92.922092 
4550.154583  	92.951979 
4551.119008  	92.958457 
4552.083432  	92.919781 
4553.047857  	92.885825 
4554.012281  	92.924097 
4554.976706  	92.906562 
4555.941130  	92.829963 
4556.905555  	92.827695 
4557.869979  	92.908204 
4558.834404  	92.983301 
4559.798828  	92.949402 
4560.763252  	92.845944 
4561.727677  	92.837979 
4562.692101  	92.852926 
4563.656526  	92.926734 
4564.620950  	92.998767 
4565.585375  	92.919738 
4566.549799  	92.846609 
4567.514224  	92.857124 
4568.478648  	92.842356 
4569.443073  	92.815124 
4570.407497  	92.841684 
4571.371921  	92.941570 
4572.336346  	92.980881 
4573.300770  	92.984725 
4574.265195  	92.893244 
4575.229619  	92.828916 
4576.194044  	92.824434 
4577.158468  	92.861283 
4578.122893  	92.962805 
4579.087317  	92.957233 
4580.051742  	92.918071 
4581.016166  	92.958268 
4581.980590  	92.981941 
4582.945015  	92.953931 
4583.909439  	92.935011 
4584.873864  	92.878001 
4585.838288  	92.812545 
4586.802713  	92.891394 
4587.767137  	92.845763 
4588.731562  	92.839820 
4589.695986  	92.904299 
4590.660411  	92.878507 
4591.624835  	92.857216 
4592.589259  	92.861551 
4593.553684  	92.845452 
4594.518108  	92.818796 
4595.482533  	92.797621 
4596.446957  	92.816815 
4597.411382  	92.833288 
4598.375806  	92.902927 
4599.340231  	93.002927 
4600.304655  	92.945047 
4601.269080  	92.857543 
4602.233504  	92.898823 
4603.197928  	92.888638 
4604.162353  	92.884501 
4605.126777  	92.885103 
4606.091202  	92.973892 
4607.055626  	93.001721 
4608.020051  	92.931130 
4608.984475  	92.843584 
4609.948900  	92.957800 
4610.913324  	93.009107 
4611.877749  	92.909951 
4612.842173  	92.876182 
4613.806598  	92.918431 
4614.771022  	92.922765 
4615.735446  	92.924136 
4616.699871  	92.903809 
4617.664295  	92.818656 
4618.628720  	92.781083 
4619.593144  	92.807492 
4620.557569  	92.896843 
4621.521993  	92.872901 
4622.486418  	92.849576 
4623.450842  	92.919850 
4624.415267  	92.847877 
4625.379691  	92.861410 
4626.344115  	92.905117 
4627.308540  	92.951884 
4628.272964  	92.913287 
4629.237389  	92.869358 
4630.201813  	92.844194 
4631.166238  	92.878600 
4632.130662  	92.869284 
4633.095087  	92.817573 
4634.059511  	92.812674 
4635.023936  	92.899043 
4635.988360  	92.969672 
4636.952784  	92.916104 
4637.917209  	92.883021 
4638.881633  	92.822185 
4639.846058  	92.806539 
4640.810482  	92.890432 
4641.774907  	92.870310 
4642.739331  	92.851286 
4643.703756  	92.821417 
4644.668180  	92.799430 
4645.632605  	92.761599 
4646.597029  	92.841850 
4647.561453  	92.867000 
4648.525878  	92.868148 
4649.490302  	92.889734 
4650.454727  	92.953053 
4651.419151  	92.932823 
4652.383576  	92.957562 
4653.348000  	92.995649 
4654.312425  	92.972948 
4655.276849  	92.957665 
4656.241274  	92.905477 
4657.205698  	92.885812 
4658.170122  	92.836608 
4659.134547  	92.818901 
4660.098971  	92.861441 
4661.063396  	92.873592 
4662.027820  	92.879650 
4662.992245  	92.861709 
4663.956669  	92.858556 
4664.921094  	92.914405 
4665.885518  	92.952754 
4666.849943  	92.921223 
4667.814367  	92.842070 
4668.778791  	92.881746 
4669.743216  	92.911539 
4670.707640  	92.829990 
4671.672065  	92.802607 
4672.636489  	92.788284 
4673.600914  	92.813174 
4674.565338  	92.882471 
4675.529763  	92.892070 
4676.494187  	92.928227 
4677.458612  	93.001817 
4678.423036  	93.035632 
4679.387461  	93.041159 
4680.351885  	92.986506 
4681.316309  	92.857887 
4682.280734  	92.792390 
4683.245158  	92.784220 
4684.209583  	92.826245 
4685.174007  	92.894936 
4686.138432  	92.850001 
4687.102856  	92.820054 
4688.067281  	92.848329 
4689.031705  	92.818925 
4689.996130  	92.851587 
4690.960554  	92.966816 
4691.924978  	92.927074 
4692.889403  	92.820738 
4693.853827  	92.776436 
4694.818252  	92.839263 
4695.782676  	92.915804 
4696.747101  	92.946233 
4697.711525  	92.997684 
4698.675950  	92.979377 
4699.640374  	92.858764 