##TITLE=No Description
##DATA TYPE=INFRARED SPECTRUM
##XUNITS=1/CM
##YUNITS=%T
400.236149  	160.550261 
401.200574  	143.177370 
402.164998  	110.112912 
403.129423  	110.571255 
404.093847  	115.780318 
405.058272  	96.171215 
406.022696  	83.532558 
406.987120  	82.256133 
407.951545  	92.273601 
408.915969  	94.345536 
409.880394  	83.723604 
410.844818  	83.787131 
411.809243  	89.917687 
412.773667  	92.927933 
413.738092  	85.558239 
414.702516  	79.492329 
415.666941  	81.183091 
416.631365  	90.835049 
417.595789  	97.528613 
418.560214  	88.654679 
419.524638  	88.405603 
420.489063  	88.326070 
421.453487  	84.743333 
422.417912  	87.418017 
423.382336  	89.997370 
424.346761  	85.477270 
425.311185  	80.184554 
426.275610  	81.045033 
427.240034  	84.638937 
428.204458  	87.117284 
429.168883  	84.343412 
430.133307  	82.047609 
431.097732  	80.501491 
432.062156  	79.136178 
433.026581  	79.756334 
433.991005  	81.522148 
434.955430  	82.149584 
435.919854  	81.158125 
436.884279  	81.315777 
437.848703  	83.596954 
438.813127  	84.552995 
439.777552  	84.319856 
440.741976  	84.026320 
441.706401  	85.202114 
442.670825  	86.768014 
443.635250  	86.131778 
444.599674  	85.252916 
445.564099  	85.451529 
446.528523  	86.475310 
447.492948  	87.142659 
448.457372  	87.383644 
449.421796  	86.594126 
450.386221  	85.253443 
451.350645  	84.522240 
452.315070  	83.592034 
453.279494  	83.922191 
454.243919  	85.124710 
455.208343  	86.424653 
456.172768  	87.155333 
457.137192  	86.294557 
458.101617  	85.862039 
459.066041  	86.457543 
460.030466  	85.792203 
460.994890  	84.333511 
461.959314  	84.166731 
462.923739  	84.847594 
463.888163  	84.682603 
464.852588  	84.120155 
465.817012  	84.432794 
466.781437  	84.375033 
467.745861  	83.021922 
468.710286  	82.755888 
469.674710  	83.412092 
470.639135  	83.368116 
471.603559  	82.893837 
472.567983  	83.472899 
473.532408  	84.085405 
474.496832  	83.767655 
475.461257  	83.888837 
476.425681  	83.990177 
477.390106  	84.465742 
478.354530  	84.632207 
479.318955  	84.264769 
480.283379  	84.073537 
481.247804  	84.143062 
482.212228  	83.841760 
483.176652  	84.281702 
484.141077  	85.215658 
485.105501  	84.568894 
486.069926  	83.418283 
487.034350  	83.739677 
487.998775  	83.639169 
488.963199  	83.404531 
489.927624  	83.742178 
490.892048  	83.470568 
491.856473  	82.741679 
492.820897  	83.081350 
493.785321  	83.102423 
494.749746  	82.309526 
495.714170  	82.239484 
496.678595  	82.103987 
497.643019  	81.888824 
498.607444  	82.191141 
499.571868  	81.623682 
500.536293  	80.972761 
501.500717  	80.459453 
502.465142  	80.460706 
503.429566  	80.927084 
504.393990  	80.798015 
505.358415  	80.499153 
506.322839  	80.119959 
507.287264  	80.452061 
508.251688  	81.696877 
509.216113  	82.830331 
510.180537  	83.514684 
511.144962  	84.125209 
512.109386  	84.031958 
513.073811  	83.833314 
514.038235  	84.269878 
515.002660  	83.853803 
515.967084  	83.192270 
516.931508  	83.063081 
517.895933  	83.593516 
518.860357  	83.669407 
519.824782  	83.181418 
520.789206  	83.639519 
521.753631  	84.343131 
522.718055  	84.530976 
523.682480  	84.435452 
524.646904  	84.277474 
525.611329  	83.929918 
526.575753  	84.156791 
527.540177  	84.783078 
528.504602  	85.069263 
529.469026  	84.807538 
530.433451  	84.453553 
531.397875  	84.385608 
532.362300  	84.639169 
533.326724  	85.159861 
534.291149  	85.079061 
535.255573  	84.821800 
536.219998  	84.670067 
537.184422  	85.148109 
538.148846  	85.127933 
539.113271  	85.230416 
540.077695  	85.370564 
541.042120  	85.862886 
542.006544  	85.820010 
542.970969  	85.518001 
543.935393  	85.473071 
544.899818  	85.587324 
545.864242  	85.855302 
546.828667  	85.723759 
547.793091  	85.310289 
548.757515  	85.393737 
549.721940  	85.777040 
550.686364  	85.656799 
551.650789  	86.009583 
552.615213  	85.986665 
553.579638  	86.071147 
554.544062  	85.919795 
555.508487  	85.946798 
556.472911  	85.974105 
557.437336  	85.856242 
558.401760  	85.886710 
559.366184  	85.950806 
560.330609  	85.831950 
561.295033  	85.797590 
562.259458  	85.844055 
563.223882  	85.493185 
564.188307  	85.462309 
565.152731  	85.881468 
566.117156  	85.663506 
567.081580  	85.186051 
568.046005  	85.232638 
569.010429  	85.223125 
569.974853  	85.141320 
570.939278  	85.094144 
571.903702  	85.120329 
572.868127  	85.287884 
573.832551  	85.205120 
574.796976  	85.068991 
575.761400  	84.575556 
576.725825  	84.752058 
577.690249  	85.112498 
578.654674  	85.301632 
579.619098  	85.243526 
580.583523  	84.986818 
581.547947  	85.049418 
582.512371  	85.285710 
583.476796  	85.185472 
584.441220  	84.849839 
585.405645  	84.897169 
586.370069  	85.296354 
587.334494  	85.347348 
588.298918  	85.350180 
589.263343  	85.228472 
590.227767  	85.162589 
591.192192  	84.838631 
592.156616  	84.607576 
593.121040  	84.991511 
594.085465  	85.067399 
595.049889  	84.976024 
596.014314  	85.075416 
596.978738  	85.168697 
597.943163  	85.131677 
598.907587  	84.941621 
599.872012  	84.661782 
600.836436  	84.740914 
601.800861  	84.907885 
602.765285  	84.922248 
603.729709  	84.947455 
604.694134  	84.935102 
605.658558  	84.873391 
606.622983  	84.826320 
607.587407  	84.681057 
608.551832  	84.621323 
609.516256  	84.726726 
610.480681  	84.650908 
611.445105  	84.531825 
612.409530  	84.599368 
613.373954  	84.804405 
614.338378  	84.547659 
615.302803  	84.347507 
616.267227  	84.404662 
617.231652  	84.520150 
618.196076  	84.389384 
619.160501  	84.375930 
620.124925  	84.178829 
621.089350  	84.029477 
622.053774  	83.948101 
623.018199  	84.097084 
623.982623  	83.926193 
624.947047  	83.784893 
625.911472  	83.679589 
626.875896  	83.651251 
627.840321  	83.619528 
628.804745  	83.723450 
629.769170  	83.381290 
630.733594  	82.793648 
631.698019  	82.662111 
632.662443  	82.870287 
633.626868  	83.126642 
634.591292  	83.577417 
635.555717  	83.697084 
636.520141  	83.781897 
637.484565  	83.715824 
638.448990  	83.635106 
639.413414  	83.441237 
640.377839  	83.448365 
641.342263  	83.511493 
642.306688  	83.289670 
643.271112  	83.238926 
644.235537  	83.219966 
645.199961  	83.233789 
646.164386  	83.348192 
647.128810  	83.281793 
648.093234  	83.213211 
649.057659  	83.109549 
650.022083  	83.139062 
650.986508  	83.175096 
651.950932  	82.995646 
652.915357  	82.850222 
653.879781  	82.840576 
654.844206  	82.830995 
655.808630  	82.761539 
656.773055  	82.675996 
657.737479  	82.812362 
658.701903  	82.708328 
659.666328  	82.407873 
660.630752  	82.249260 
661.595177  	82.263204 
662.559601  	82.232954 
663.524026  	82.202128 
664.488450  	82.094013 
665.452875  	81.937190 
666.417299  	81.882129 
667.381724  	82.066362 
668.346148  	81.256439 
669.310572  	80.892975 
670.274997  	81.089091 
671.239421  	81.189608 
672.203846  	81.198545 
673.168270  	80.988968 
674.132695  	80.650540 
675.097119  	80.492733 
676.061544  	80.326927 
677.025968  	80.126820 
677.990393  	79.954898 
678.954817  	79.693020 
679.919241  	79.511497 
680.883666  	79.500929 
681.848090  	79.566627 
682.812515  	79.550054 
683.776939  	79.320259 
684.741364  	79.171084 
685.705788  	79.063740 
686.670213  	79.008814 
687.634637  	78.678693 
688.599062  	78.324769 
689.563486  	78.131752 
690.527910  	77.939041 
691.492335  	77.641159 
692.456759  	77.380593 
693.421184  	76.941072 
694.385608  	76.559998 
695.350033  	76.173949 
696.314457  	75.620581 
697.278882  	74.866976 
698.243306  	74.215732 
699.207731  	73.618016 
700.172155  	73.030942 
701.136580  	72.255661 
702.101004  	71.520826 
703.065428  	71.066658 
704.029853  	70.675530 
704.994277  	69.982156 
705.958702  	69.264205 
706.923126  	68.589966 
707.887551  	67.891345 
708.851975  	67.092949 
709.816400  	66.112141 
710.780824  	65.159015 
711.745249  	64.238171 
712.709673  	63.088221 
713.674097  	61.794285 
714.638522  	60.546702 
715.602946  	59.240100 
716.567371  	57.698722 
717.531795  	56.241667 
718.496220  	54.780849 
719.460644  	53.266451 
720.425069  	51.996387 
721.389493  	51.140606 
722.353918  	50.602926 
723.318342  	50.539829 
724.282766  	51.187621 
725.247191  	52.681239 
726.211615  	54.831711 
727.176040  	57.250008 
728.140464  	59.652286 
729.104889  	62.145928 
730.069313  	64.593310 
731.033738  	67.047715 
731.998162  	69.443170 
732.962587  	71.960111 
733.927011  	74.548663 
734.891435  	77.075503 
735.855860  	79.414911 
736.820284  	81.606653 
737.784709  	83.654191 
738.749133  	85.344342 
739.713558  	86.738741 
740.677982  	87.822069 
741.642407  	88.590024 
742.606831  	89.276031 
743.571256  	89.700992 
744.535680  	89.831800 
745.500104  	89.898174 
746.464529  	89.990821 
747.428953  	90.015556 
748.393378  	89.977345 
749.357802  	89.841515 
750.322227  	89.686642 
751.286651  	89.524121 
752.251076  	89.433307 
753.215500  	89.322683 
754.179925  	89.169714 
755.144349  	89.082356 
756.108774  	89.083711 
757.073198  	89.017887 
758.037622  	88.903363 
759.002047  	88.736825 
759.966471  	88.571058 
760.930896  	88.372366 
761.895320  	88.267059 
762.859745  	88.283763 
763.824169  	88.175175 
764.788594  	87.909958 
765.753018  	87.742314 
766.717443  	87.676115 
767.681867  	87.530314 
768.646291  	87.253504 
769.610716  	87.134497 
770.575140  	87.073208 
771.539565  	86.983325 
772.503989  	86.711814 
773.468414  	86.578382 
774.432838  	86.522873 
775.397263  	86.391049 
776.361687  	86.217230 
777.326112  	86.163326 
778.290536  	86.008772 
779.254960  	85.831819 
780.219385  	85.759214 
781.183809  	85.935548 
782.148234  	85.748365 
783.112658  	85.484326 
784.077083  	85.134601 
785.041507  	84.909028 
786.005932  	84.680608 
786.970356  	84.302788 
787.934781  	83.970595 
788.899205  	83.768077 
789.863629  	83.593093 
790.828054  	83.225736 
791.792478  	82.910752 
792.756903  	82.882107 
793.721327  	83.090530 
794.685752  	83.408664 
795.650176  	83.900540 
796.614601  	84.413226 
797.579025  	84.774970 
798.543450  	84.788689 
799.507874  	84.782632 
800.472298  	84.861151 
801.436723  	84.851146 
802.401147  	84.733172 
803.365572  	84.652163 
804.329996  	84.664413 
805.294421  	84.631990 
806.258845  	84.510436 
807.223270  	84.551171 
808.187694  	84.555643 
809.152119  	84.574238 
810.116543  	84.542045 
811.080967  	84.436685 
812.045392  	84.367195 
813.009816  	84.335572 
813.974241  	84.341292 
814.938665  	84.400585 
815.903090  	84.393831 
816.867514  	84.326757 
817.831939  	84.276026 
818.796363  	84.268360 
819.760788  	84.223373 
820.725212  	84.144594 
821.689637  	84.043615 
822.654061  	83.951941 
823.618485  	83.870889 
824.582910  	83.689503 
825.547334  	83.448292 
826.511759  	83.390583 
827.476183  	83.384099 
828.440608  	83.259965 
829.405032  	83.009427 
830.369457  	82.802161 
831.333881  	82.682420 
832.298306  	82.535331 
833.262730  	82.285802 
834.227154  	82.066291 
835.191579  	81.882305 
836.156003  	81.689032 
837.120428  	81.363171 
838.084852  	81.002216 
839.049277  	80.761659 
840.013701  	80.491993 
840.978126  	80.181372 
841.942550  	79.898114 
842.906975  	79.584345 
843.871399  	79.281701 
844.835823  	78.980929 
845.800248  	78.798267 
846.764672  	78.818965 
847.729097  	78.993563 
848.693521  	79.196748 
849.657946  	79.545632 
850.622370  	79.890551 
851.586795  	80.196038 
852.551219  	80.343483 
853.515644  	80.540628 
854.480068  	80.774529 
855.444492  	80.878983 
856.408917  	80.923162 
857.373341  	81.082490 
858.337766  	81.189082 
859.302190  	81.212597 
860.266615  	81.230623 
861.231039  	81.200590 
862.195464  	81.048086 
863.159888  	80.789247 
864.124313  	80.499613 
865.088737  	80.146117 
866.053161  	79.648148 
867.017586  	78.845978 
867.982010  	77.874067 
868.946435  	76.642809 
869.910859  	75.033703 
870.875284  	73.355015 
871.839708  	72.525384 
872.804133  	73.258734 
873.768557  	75.064682 
874.732982  	76.933082 
875.697406  	78.382190 
876.661831  	79.419959 
877.626255  	80.238327 
878.590679  	80.987088 
879.555104  	81.675377 
880.519528  	82.266653 
881.483953  	82.732027 
882.448377  	83.146609 
883.412802  	83.558729 
884.377226  	83.897695 
885.341651  	84.124817 
886.306075  	84.239989 
887.270500  	84.333213 
888.234924  	84.404862 
889.199348  	84.385060 
890.163773  	84.295194 
891.128197  	84.214924 
892.092622  	84.157475 
893.057046  	84.052701 
894.021471  	83.969842 
894.985895  	84.016091 
895.950320  	83.956004 
896.914744  	83.828754 
897.879169  	83.803349 
898.843593  	83.815436 
899.808017  	83.875704 
900.772442  	83.932687 
901.736866  	83.922366 
902.701291  	84.016557 
903.665715  	84.158863 
904.630140  	84.257173 
905.594564  	84.325660 
906.558989  	84.412921 
907.523413  	84.530081 
908.487838  	84.626376 
909.452262  	84.725395 
910.416686  	84.796757 
911.381111  	84.830244 
912.345535  	84.793392 
913.309960  	84.764824 
914.274384  	84.756154 
915.238809  	84.737989 
916.203233  	84.696666 
917.167658  	84.686363 
918.132082  	84.618290 
919.096507  	84.585983 
920.060931  	84.565185 
921.025355  	84.536610 
921.989780  	84.474558 
922.954204  	84.344634 
923.918629  	84.220084 
924.883053  	84.177642 
925.847478  	84.165109 
926.811902  	84.100934 
927.776327  	84.034704 
928.740751  	83.922794 
929.705176  	83.852681 
930.669600  	83.790190 
931.634024  	83.692415 
932.598449  	83.624229 
933.562873  	83.573912 
934.527298  	83.491857 
935.491722  	83.351799 
936.456147  	83.266914 
937.420571  	83.251690 
938.384996  	83.146020 
939.349420  	82.984020 
940.313845  	82.870157 
941.278269  	82.808259 
942.242694  	82.710719 
943.207118  	82.558854 
944.171542  	82.460404 
945.135967  	82.368292 
946.100391  	82.239371 
947.064816  	82.112271 
948.029240  	81.989393 
948.993665  	81.867701 
949.958089  	81.705511 
950.922514  	81.544826 
951.886938  	81.431450 
952.851363  	81.241172 
953.815787  	81.017136 
954.780211  	80.871988 
955.744636  	80.748584 
956.709060  	80.559256 
957.673485  	80.367308 
958.637909  	80.167074 
959.602334  	79.914784 
960.566758  	79.672148 
961.531183  	79.436460 
962.495607  	79.181420 
963.460032  	78.962211 
964.424456  	78.721684 
965.388880  	78.435557 
966.353305  	78.208679 
967.317729  	78.060527 
968.282154  	77.928444 
969.246578  	77.845745 
970.211003  	77.850164 
971.175427  	77.951419 
972.139852  	78.113048 
973.104276  	78.343584 
974.068701  	78.646101 
975.033125  	78.986231 
975.997549  	79.287792 
976.961974  	79.568144 
977.926398  	79.850893 
978.890823  	80.071032 
979.855247  	80.245187 
980.819672  	80.386012 
981.784096  	80.490435 
982.748521  	80.576586 
983.712945  	80.570896 
984.677370  	80.474897 
985.641794  	80.395544 
986.606218  	80.325578 
987.570643  	80.228230 
988.535067  	80.170627 
989.499492  	80.141934 
990.463916  	80.093590 
991.428341  	79.989590 
992.392765  	79.817549 
993.357190  	79.684660 
994.321614  	79.578416 
995.286039  	79.417163 
996.250463  	79.246383 
997.214888  	79.079856 
998.179312  	78.902545 
999.143736  	78.634654 
1000.108161  	78.354987 
1001.072585  	78.140733 
1002.037010  	77.907107 
1003.001434  	77.558958 
1003.965859  	77.170495 
1004.930283  	76.791328 
1005.894708  	76.323288 
1006.859132  	75.788319 
1007.823557  	75.195649 
1008.787981  	74.511590 
1009.752405  	73.737507 
1010.716830  	72.797499 
1011.681254  	71.687716 
1012.645679  	70.500639 
1013.610103  	69.203270 
1014.574528  	67.863517 
1015.538952  	66.865422 
1016.503377  	66.521944 
1017.467801  	66.796788 
1018.432226  	67.576805 
1019.396650  	68.761432 
1020.361074  	70.174802 
1021.325499  	71.589168 
1022.289923  	72.890916 
1023.254348  	74.266965 
1024.218772  	75.820187 
1025.183197  	77.454891 
1026.147621  	78.905815 
1027.112046  	79.926090 
1028.076470  	80.406776 
1029.040895  	80.470395 
1030.005319  	80.332946 
1030.969743  	80.109663 
1031.934168  	79.890481 
1032.898592  	79.645947 
1033.863017  	79.314933 
1034.827441  	78.954816 
1035.791866  	78.626207 
1036.756290  	78.322151 
1037.720715  	78.090546 
1038.685139  	77.860836 
1039.649564  	77.649614 
1040.613988  	77.486874 
1041.578412  	77.294078 
1042.542837  	77.112011 
1043.507261  	77.040571 
1044.471686  	76.967380 
1045.436110  	76.875431 
1046.400535  	76.892903 
1047.364959  	76.882315 
1048.329384  	76.790705 
1049.293808  	76.746745 
1050.258233  	76.779594 
1051.222657  	76.785315 
1052.187081  	76.703609 
1053.151506  	76.579401 
1054.115930  	76.505205 
1055.080355  	76.369616 
1056.044779  	76.150450 
1057.009204  	75.933297 
1057.973628  	75.692374 
1058.938053  	75.410997 
1059.902477  	75.088088 
1060.866902  	74.736999 
1061.831326  	74.411163 
1062.795751  	74.058147 
1063.760175  	73.667306 
1064.724599  	73.236792 
1065.689024  	72.814303 
1066.653448  	72.358411 
1067.617873  	71.857729 
1068.582297  	71.361633 
1069.546722  	70.847449 
1070.511146  	70.310825 
1071.475571  	69.767735 
1072.439995  	69.166909 
1073.404420  	68.524433 
1074.368844  	67.833581 
1075.333268  	67.114693 
1076.297693  	66.384250 
1077.262117  	65.665790 
1078.226542  	64.981239 
1079.190966  	64.290783 
1080.155391  	63.613497 
1081.119815  	63.001946 
1082.084240  	62.489785 
1083.048664  	62.064037 
1084.013089  	61.701577 
1084.977513  	61.397830 
1085.941937  	61.104452 
1086.906362  	60.815476 
1087.870786  	60.578429 
1088.835211  	60.342623 
1089.799635  	60.070311 
1090.764060  	59.847544 
1091.728484  	59.707295 
1092.692909  	59.615545 
1093.657333  	59.518501 
1094.621758  	59.456973 
1095.586182  	59.493408 
1096.550606  	59.596776 
1097.515031  	59.836159 
1098.479455  	60.148024 
1099.443880  	60.494783 
1100.408304  	60.939742 
1101.372729  	61.444657 
1102.337153  	62.017190 
1103.301578  	62.625798 
1104.266002  	63.276548 
1105.230427  	63.954758 
1106.194851  	64.600428 
1107.159275  	65.245912 
1108.123700  	65.900469 
1109.088124  	66.480676 
1110.052549  	66.906615 
1111.016973  	67.226164 
1111.981398  	67.495510 
1112.945822  	67.650626 
1113.910247  	67.659596 
1114.874671  	67.583140 
1115.839096  	67.461159 
1116.803520  	67.342713 
1117.767945  	67.280894 
1118.732369  	67.393736 
1119.696793  	67.630141 
1120.661218  	67.880916 
1121.625642  	68.192913 
1122.590067  	68.672647 
1123.554491  	69.206796 
1124.518916  	69.741173 
1125.483340  	70.383148 
1126.447765  	71.088413 
1127.412189  	71.833895 
1128.376614  	72.592863 
1129.341038  	73.443149 
1130.305462  	74.405301 
1131.269887  	75.342988 
1132.234311  	76.230729 
1133.198736  	77.163187 
1134.163160  	78.112176 
1135.127585  	79.006573 
1136.092009  	79.865197 
1137.056434  	80.719398 
1138.020858  	81.577500 
1138.985283  	82.313946 
1139.949707  	82.913528 
1140.914131  	83.519196 
1141.878556  	84.095227 
1142.842980  	84.551209 
1143.807405  	84.997838 
1144.771829  	85.465331 
1145.736254  	85.851136 
1146.700678  	86.177234 
1147.665103  	86.460310 
1148.629527  	86.729322 
1149.593952  	86.982337 
1150.558376  	87.180162 
1151.522800  	87.339262 
1152.487225  	87.507897 
1153.451649  	87.647242 
1154.416074  	87.733486 
1155.380498  	87.782207 
1156.344923  	87.854416 
1157.309347  	87.919489 
1158.273772  	87.913645 
1159.238196  	87.854578 
1160.202621  	87.863855 
1161.167045  	87.870256 
1162.131469  	87.784417 
1163.095894  	87.709432 
1164.060318  	87.637236 
1165.024743  	87.524799 
1165.989167  	87.342677 
1166.953592  	87.134104 
1167.918016  	86.902809 
1168.882441  	86.616722 
1169.846865  	86.258909 
1170.811290  	85.938115 
1171.775714  	85.671385 
1172.740138  	85.455202 
1173.704563  	85.251293 
1174.668987  	85.060625 
1175.633412  	85.033994 
1176.597836  	85.075801 
1177.562261  	85.083999 
1178.526685  	85.087184 
1179.491110  	85.119547 
1180.455534  	85.121549 
1181.419959  	85.119899 
1182.384383  	85.111704 
1183.348808  	85.037193 
1184.313232  	84.970921 
1185.277656  	84.864053 
1186.242081  	84.672808 
1187.206505  	84.475552 
1188.170930  	84.250724 
1189.135354  	83.988637 
1190.099779  	83.730671 
1191.064203  	83.483502 
1192.028628  	83.196520 
1192.993052  	82.826929 
1193.957477  	82.437791 
1194.921901  	82.076419 
1195.886325  	81.718559 
1196.850750  	81.302531 
1197.815174  	80.880475 
1198.779599  	80.510990 
1199.744023  	80.160906 
1200.708448  	79.744993 
1201.672872  	79.327158 
1202.637297  	78.945757 
1203.601721  	78.563671 
1204.566146  	78.154621 
1205.530570  	77.737565 
1206.494994  	77.317116 
1207.459419  	76.917878 
1208.423843  	76.491903 
1209.388268  	76.052901 
1210.352692  	75.616921 
1211.317117  	75.132548 
1212.281541  	74.626967 
1213.245966  	74.142807 
1214.210390  	73.649758 
1215.174815  	73.115868 
1216.139239  	72.533613 
1217.103663  	71.933693 
1218.068088  	71.344699 
1219.032512  	70.737317 
1219.996937  	70.134252 
1220.961361  	69.575763 
1221.925786  	69.075018 
1222.890210  	68.549032 
1223.854635  	68.007482 
1224.819059  	67.464556 
1225.783484  	66.940085 
1226.747908  	66.376642 
1227.712332  	65.754740 
1228.676757  	65.089425 
1229.641181  	64.372307 
1230.605606  	63.608326 
1231.570030  	62.831098 
1232.534455  	62.080135 
1233.498879  	61.364697 
1234.463304  	60.650471 
1235.427728  	59.955610 
1236.392153  	59.368497 
1237.356577  	58.887140 
1238.321002  	58.508662 
1239.285426  	58.250327 
1240.249850  	58.110142 
1241.214275  	58.064868 
1242.178699  	58.097431 
1243.143124  	58.232885 
1244.107548  	58.490150 
1245.071973  	58.865265 
1246.036397  	59.261347 
1247.000822  	59.645501 
1247.965246  	60.088623 
1248.929671  	60.547182 
1249.894095  	60.992559 
1250.858519  	61.471973 
1251.822944  	61.924811 
1252.787368  	62.318978 
1253.751793  	62.671465 
1254.716217  	62.978326 
1255.680642  	63.269106 
1256.645066  	63.527097 
1257.609491  	63.744372 
1258.573915  	63.938837 
1259.538340  	64.131279 
1260.502764  	64.351605 
1261.467188  	64.788591 
1262.431613  	65.302298 
1263.396037  	65.840118 
1264.360462  	66.390784 
1265.324886  	66.974619 
1266.289311  	67.640702 
1267.253735  	68.401040 
1268.218160  	69.120687 
1269.182584  	69.804545 
1270.147009  	70.519765 
1271.111433  	71.267800 
1272.075857  	71.933042 
1273.040282  	72.672060 
1274.004706  	73.315078 
1274.969131  	73.903658 
1275.933555  	74.459978 
1276.897980  	74.982009 
1277.862404  	75.508545 
1278.826829  	75.969482 
1279.791253  	76.375865 
1280.755678  	76.837373 
1281.720102  	77.317753 
1282.684526  	77.776135 
1283.648951  	78.210210 
1284.613375  	78.635363 
1285.577800  	79.074984 
1286.542224  	79.447404 
1287.506649  	79.719966 
1288.471073  	80.147655 
1289.435498  	80.733343 
1290.399922  	81.233912 
1291.364347  	81.735570 
1292.328771  	82.305784 
1293.293195  	82.844781 
1294.257620  	83.364218 
1295.222044  	83.849216 
1296.186469  	84.311667 
1297.150893  	84.843726 
1298.115318  	85.470739 
1299.079742  	85.973601 
1300.044167  	86.462564 
1301.008591  	86.916904 
1301.973016  	87.305853 
1302.937440  	87.618819 
1303.901865  	87.897702 
1304.866289  	88.147980 
1305.830713  	88.380785 
1306.795138  	88.588680 
1307.759562  	88.734574 
1308.723987  	88.941736 
1309.688411  	89.283777 
1310.652836  	89.489192 
1311.617260  	89.550439 
1312.581685  	89.367949 
1313.546109  	89.533805 
1314.510534  	89.776981 
1315.474958  	90.055163 
1316.439382  	90.072811 
1317.403807  	90.010434 
1318.368231  	90.047263 
1319.332656  	89.985541 
1320.297080  	90.320748 
1321.261505  	90.588913 
1322.225929  	90.773685 
1323.190354  	90.766383 
1324.154778  	90.757192 
1325.119203  	90.735726 
1326.083627  	90.632018 
1327.048051  	90.451811 
1328.012476  	90.208267 
1328.976900  	89.822381 
1329.941325  	89.247414 
1330.905749  	88.590998 
1331.870174  	87.781783 
1332.834598  	86.730692 
1333.799023  	85.563157 
1334.763447  	84.351197 
1335.727872  	82.984541 
1336.692296  	81.483885 
1337.656720  	80.583734 
1338.621145  	79.584427 
1339.585569  	78.875140 
1340.549994  	79.465999 
1341.514418  	81.227331 
1342.478843  	82.675931 
1343.443267  	83.843496 
1344.407692  	85.090813 
1345.372116  	86.305910 
1346.336541  	87.400295 
1347.300965  	88.327072 
1348.265389  	89.032794 
1349.229814  	89.501802 
1350.194238  	90.007267 
1351.158663  	90.466155 
1352.123087  	90.749973 
1353.087512  	90.967526 
1354.051936  	90.963204 
1355.016361  	90.792547 
1355.980785  	91.057322 
1356.945210  	91.173860 
1357.909634  	91.045520 
1358.874059  	91.068920 
1359.838483  	91.030827 
1360.802907  	90.341254 
1361.767332  	89.753692 
1362.731756  	88.840281 
1363.696181  	88.799654 
1364.660605  	89.952630 
1365.625030  	90.101609 
1366.589454  	89.937706 
1367.553879  	89.539521 
1368.518303  	88.942595 
1369.482728  	88.951060 
1370.447152  	89.337037 
1371.411576  	89.320165 
1372.376001  	89.129932 
1373.340425  	88.433442 
1374.304850  	87.903297 
1375.269274  	88.380786 
1376.233699  	89.191382 
1377.198123  	89.348455 
1378.162548  	89.104143 
1379.126972  	89.163361 
1380.091397  	89.318769 
1381.055821  	89.501990 
1382.020245  	89.522144 
1382.984670  	89.496413 
1383.949094  	89.518606 
1384.913519  	89.499524 
1385.877943  	89.083061 
1386.842368  	88.066287 
1387.806792  	87.854663 
1388.771217  	88.945281 
1389.735641  	89.374697 
1390.700066  	89.273638 
1391.664490  	89.281540 
1392.628914  	89.252465 
1393.593339  	88.598869 
1394.557763  	87.233985 
1395.522188  	86.937188 
1396.486612  	87.519065 
1397.451037  	87.327132 
1398.415461  	86.454159 
1399.379886  	85.981745 
1400.344310  	86.424690 
1401.308735  	86.441016 
1402.273159  	85.806391 
1403.237583  	85.016924 
1404.202008  	83.730236 
1405.166432  	82.212638 
1406.130857  	81.929867 
1407.095281  	81.764718 
1408.059706  	81.353209 
1409.024130  	81.300957 
1409.988555  	81.552195 
1410.952979  	82.287788 
1411.917404  	83.339570 
1412.881828  	84.993136 
1413.846252  	86.515845 
1414.810677  	87.719707 
1415.775101  	88.320101 
1416.739526  	88.492457 
1417.703950  	88.582990 
1418.668375  	88.433438 
1419.632799  	88.319268 
1420.597224  	90.418898 
1421.561648  	91.261725 
1422.526073  	91.412254 
1423.490497  	90.561623 
1424.454922  	90.282266 
1425.419346  	91.390822 
1426.383770  	91.747221 
1427.348195  	91.634973 
1428.312619  	91.320524 
1429.277044  	90.773231 
1430.241468  	90.309629 
1431.205893  	90.765021 
1432.170317  	90.746250 
1433.134742  	90.431714 
1434.099166  	90.532760 
1435.063591  	90.252751 
1436.028015  	88.881502 
1436.992439  	87.914912 
1437.956864  	89.416949 
1438.921288  	90.079934 
1439.885713  	90.149352 
1440.850137  	90.154378 
1441.814562  	90.119332 
1442.778986  	90.119372 
1443.743411  	90.073617 
1444.707835  	89.973738 
1445.672260  	89.818363 
1446.636684  	89.555380 
1447.601108  	88.696133 
1448.565533  	88.637323 
1449.529957  	89.452858 
1450.494382  	89.573947 
1451.458806  	89.102229 
1452.423231  	88.716701 
1453.387655  	89.104537 
1454.352080  	88.708206 
1455.316504  	87.551398 
1456.280929  	86.616528 
1457.245353  	85.949686 
1458.209777  	86.147727 
1459.174202  	87.122674 
1460.138626  	88.693594 
1461.103051  	89.577162 
1462.067475  	89.801747 
1463.031900  	89.838709 
1463.996324  	89.386379 
1464.960749  	88.481490 
1465.925173  	89.027966 
1466.889598  	89.569309 
1467.854022  	89.569036 
1468.818446  	89.538100 
1469.782871  	89.244074 
1470.747295  	88.491849 
1471.711720  	86.848970 
1472.676144  	85.892017 
1473.640569  	86.669189 
1474.604993  	88.227916 
1475.569418  	88.397519 
1476.533842  	88.002597 
1477.498267  	89.386161 
1478.462691  	90.208713 
1479.427116  	90.408059 
1480.391540  	90.252330 
1481.355964  	89.838213 
1482.320389  	90.430823 
1483.284813  	90.990468 
1484.249238  	91.190549 
1485.213662  	91.075910 
1486.178087  	90.528760 
1487.142511  	89.958059 
1488.106936  	90.067836 
1489.071360  	89.156611 
1490.035785  	87.757533 
1491.000209  	89.079701 
1491.964633  	90.812125 
1492.929058  	91.477049 
1493.893482  	91.511038 
1494.857907  	91.163160 
1495.822331  	90.104593 
1496.786756  	89.504526 
1497.751180  	89.962166 
1498.715605  	89.334081 
1499.680029  	89.337080 
1500.644454  	89.489964 
1501.608878  	88.723738 
1502.573302  	88.263027 
1503.537727  	88.029213 
1504.502151  	87.173704 
1505.466576  	85.462818 
1506.431000  	82.501551 
1507.395425  	82.331313 
1508.359849  	84.808282 
1509.324274  	86.740682 
1510.288698  	88.236225 
1511.253123  	89.587960 
1512.217547  	89.579351 
1513.181971  	90.318244 
1514.146396  	90.745250 
1515.110820  	89.821040 
1516.075245  	88.718047 
1517.039669  	87.369270 
1518.004094  	89.120911 
1518.968518  	90.378379 
1519.932943  	89.396172 
1520.897367  	86.983984 
1521.861792  	87.279651 
1522.826216  	88.600071 
1523.790640  	89.647939 
1524.755065  	89.238520 
1525.719489  	88.798973 
1526.683914  	89.398631 
1527.648338  	89.045653 
1528.612763  	89.478143 
1529.577187  	90.590137 
1530.541612  	90.930296 
1531.506036  	90.154244 
1532.470461  	89.602301 
1533.434885  	88.617359 
1534.399309  	89.022722 
1535.363734  	90.017579 
1536.328158  	90.522344 
1537.292583  	90.637465 
1538.257007  	89.571423 
1539.221432  	86.929929 
1540.185856  	86.709974 
1541.150281  	88.023688 
1542.114705  	88.056522 
1543.079130  	88.233998 
1544.043554  	88.376349 
1545.007979  	88.012101 
1545.972403  	89.183211 
1546.936827  	90.652283 
1547.901252  	90.934057 
1548.865676  	90.383721 
1549.830101  	88.635924 
1550.794525  	89.128791 
1551.758950  	90.551455 
1552.723374  	90.586673 
1553.687799  	89.705942 
1554.652223  	88.730592 
1555.616648  	89.701883 
1556.581072  	89.858555 
1557.545496  	88.555444 
1558.509921  	84.739743 
1559.474345  	84.076615 
1560.438770  	87.029629 
1561.403194  	89.551178 
1562.367619  	90.345168 
1563.332043  	90.529082 
1564.296468  	90.126690 
1565.260892  	89.777080 
1566.225317  	90.337678 
1567.189741  	90.533597 
1568.154165  	90.076288 
1569.118590  	88.649071 
1570.083014  	88.287066 
1571.047439  	89.627976 
1572.011863  	89.977497 
1572.976288  	89.896004 
1573.940712  	89.748930 
1574.905137  	89.285972 
1575.869561  	88.097803 
1576.833986  	87.416300 
1577.798410  	88.353000 
1578.762834  	89.090733 
1579.727259  	89.479287 
1580.691683  	89.752871 
1581.656108  	89.938636 
1582.620532  	90.101718 
1583.584957  	90.257228 
1584.549381  	90.431827 
1585.513806  	90.530424 
1586.478230  	90.613064 
1587.442655  	90.666258 
1588.407079  	90.669752 
1589.371503  	90.519249 
1590.335928  	90.439974 
1591.300352  	90.488487 
1592.264777  	90.519645 
1593.229201  	90.523284 
1594.193626  	90.236848 
1595.158050  	90.150667 
1596.122475  	90.276215 
1597.086899  	90.355855 
1598.051324  	90.452794 
1599.015748  	90.393410 
1599.980173  	90.338046 
1600.944597  	90.146580 
1601.909021  	90.023733 
1602.873446  	89.816836 
1603.837870  	89.809473 
1604.802295  	89.979804 
1605.766719  	89.925606 
1606.731144  	89.571906 
1607.695568  	89.401024 
1608.659993  	89.375383 
1609.624417  	89.038773 
1610.588842  	89.287991 
1611.553266  	89.438647 
1612.517690  	89.368555 
1613.482115  	89.348050 
1614.446539  	89.274688 
1615.410964  	88.882368 
1616.375388  	87.913558 
1617.339813  	87.843798 
1618.304237  	88.805634 
1619.268662  	89.165923 
1620.233086  	89.242480 
1621.197511  	89.206710 
1622.161935  	88.777067 
1623.126359  	87.793736 
1624.090784  	87.939515 
1625.055208  	88.801994 
1626.019633  	88.993089 
1626.984057  	88.733822 
1627.948482  	88.221010 
1628.912906  	88.619777 
1629.877331  	88.930039 
1630.841755  	88.928347 
1631.806180  	88.890963 
1632.770604  	88.855156 
1633.735028  	88.525975 
1634.699453  	87.525697 
1635.663877  	85.777780 
1636.628302  	86.677431 
1637.592726  	86.915034 
1638.557151  	87.694429 
1639.521575  	88.171402 
1640.486000  	88.128574 
1641.450424  	88.133131 
1642.414849  	88.071100 
1643.379273  	88.082530 
1644.343697  	87.941890 
1645.308122  	87.099845 
1646.272546  	85.660174 
1647.236971  	85.101854 
1648.201395  	85.437495 
1649.165820  	86.775323 
1650.130244  	87.314705 
1651.094669  	87.023330 
1652.059093  	85.966803 
1653.023518  	82.823664 
1653.987942  	82.400417 
1654.952366  	84.773413 
1655.916791  	86.211350 
1656.881215  	86.543748 
1657.845640  	86.712232 
1658.810064  	86.802222 
1659.774489  	86.728978 
1660.738913  	86.294610 
1661.703338  	85.633849 
1662.667762  	84.883286 
1663.632187  	85.179279 
1664.596611  	85.546589 
1665.561036  	85.474186 
1666.525460  	85.309191 
1667.489884  	84.762958 
1668.454309  	83.388754 
1669.418733  	82.432490 
1670.383158  	83.128135 
1671.347582  	82.838717 
1672.312007  	83.029499 
1673.276431  	83.431627 
1674.240856  	82.945449 
1675.205280  	81.694543 
1676.169705  	81.863251 
1677.134129  	82.410420 
1678.098553  	82.257040 
1679.062978  	81.585121 
1680.027402  	80.179466 
1680.991827  	80.056864 
1681.956251  	80.444300 
1682.920676  	79.262218 
1683.885100  	75.893619 
1684.849525  	75.798274 
1685.813949  	78.801072 
1686.778374  	79.343728 
1687.742798  	78.709843 
1688.707222  	78.028877 
1689.671647  	77.896707 
1690.636071  	77.641545 
1691.600496  	77.638674 
1692.564920  	77.217743 
1693.529345  	76.459386 
1694.493769  	75.343427 
1695.458194  	73.514970 
1696.422618  	71.891710 
1697.387043  	71.917362 
1698.351467  	71.406479 
1699.315891  	70.172792 
1700.280316  	67.122374 
1701.244740  	67.091105 
1702.209165  	67.341809 
1703.173589  	66.598202 
1704.138014  	65.110016 
1705.102438  	63.757099 
1706.066863  	62.719011 
1707.031287  	61.618924 
1707.995712  	61.255090 
1708.960136  	60.679195 
1709.924560  	59.697368 
1710.888985  	59.174911 
1711.853409  	59.203923 
1712.817834  	58.958121 
1713.782258  	58.492755 
1714.746683  	58.209640 
1715.711107  	59.121098 
1716.675532  	59.674373 
1717.639956  	59.312255 
1718.604381  	60.820271 
1719.568805  	63.484534 
1720.533230  	65.010725 
1721.497654  	66.078074 
1722.462078  	67.031608 
1723.426503  	67.765108 
1724.390927  	69.010575 
1725.355352  	70.252735 
1726.319776  	71.293694 
1727.284201  	72.332389 
1728.248625  	73.291613 
1729.213050  	73.610372 
1730.177474  	73.897495 
1731.141899  	75.779887 
1732.106323  	76.750815 
1733.070747  	76.402048 
1734.035172  	75.590038 
1734.999596  	78.683619 
1735.964021  	81.253557 
1736.928445  	82.425068 
1737.892870  	83.381553 
1738.857294  	83.976297 
1739.821719  	84.378038 
1740.786143  	86.272837 
1741.750568  	87.530187 
1742.714992  	87.550804 
1743.679416  	87.561178 
1744.643841  	89.021013 
1745.608265  	90.077662 
1746.572690  	90.305663 
1747.537114  	90.286206 
1748.501539  	90.293434 
1749.465963  	90.755152 
1750.430388  	91.194992 
1751.394812  	90.638225 
1752.359237  	91.968750 
1753.323661  	93.146060 
1754.288085  	93.654300 
1755.252510  	93.709199 
1756.216934  	93.063098 
1757.181359  	92.449591 
1758.145783  	93.101981 
1759.110208  	93.550503 
1760.074632  	93.747808 
1761.039057  	93.167862 
1762.003481  	92.210096 
1762.967906  	93.159541 
1763.932330  	93.872215 
1764.896754  	94.019127 
1765.861179  	94.051783 
1766.825603  	93.827934 
1767.790028  	92.863499 
1768.754452  	92.614594 
1769.718877  	93.566012 
1770.683301  	93.266897 
1771.647726  	92.185449 
1772.612150  	91.728120 
1773.576575  	92.817900 
1774.540999  	93.394946 
1775.505423  	92.983074 
1776.469848  	93.256598 
1777.434272  	93.875870 
1778.398697  	93.692834 
1779.363121  	93.397569 
1780.327546  	92.935598 
1781.291970  	92.835809 
1782.256395  	93.501051 
1783.220819  	93.799642 
1784.185244  	93.440270 
1785.149668  	92.909273 
1786.114093  	93.480602 
1787.078517  	93.847195 
1788.042941  	93.790816 
1789.007366  	93.720931 
1789.971790  	93.403237 
1790.936215  	92.473270 
1791.900639  	91.988234 
1792.865064  	91.858140 
1793.829488  	92.807335 
1794.793913  	93.222578 
1795.758337  	92.631141 
1796.722762  	92.696220 
1797.687186  	93.425240 
1798.651610  	93.392562 
1799.616035  	92.782363 
1800.580459  	92.767228 
1801.544884  	92.541770 
1802.509308  	92.351069 
1803.473733  	93.119373 
1804.438157  	93.550676 
1805.402582  	93.522838 
1806.367006  	93.476689 
1807.331431  	93.203607 
1808.295855  	93.127293 
1809.260279  	93.436583 
1810.224704  	92.972020 
1811.189128  	92.566087 
1812.153553  	92.852554 
1813.117977  	93.230070 
1814.082402  	93.586890 
1815.046826  	93.585546 
1816.011251  	93.587063 
1816.975675  	93.359135 
1817.940100  	93.216246 
1818.904524  	93.453369 
1819.868948  	93.546408 
1820.833373  	93.455818 
1821.797797  	93.338399 
1822.762222  	93.135629 
1823.726646  	93.175793 
1824.691071  	92.598932 
1825.655495  	91.955196 
1826.619920  	92.942171 
1827.584344  	93.335801 
1828.548769  	92.870816 
1829.513193  	91.762485 
1830.477617  	91.855103 
1831.442042  	93.000738 
1832.406466  	93.286769 
1833.370891  	93.168846 
1834.335315  	93.422079 
1835.299740  	93.611163 
1836.264164  	93.425485 
1837.228589  	92.959070 
1838.193013  	93.142222 
1839.157438  	93.486049 
1840.121862  	93.592486 
1841.086287  	93.577401 
1842.050711  	93.231621 
1843.015135  	92.814591 
1843.979560  	92.012350 
1844.943984  	91.945573 
1845.908409  	92.819356 
1846.872833  	93.045833 
1847.837258  	92.628762 
1848.801682  	92.955049 
1849.766107  	93.556211 
1850.730531  	93.750988 
1851.694956  	93.735332 
1852.659380  	93.665069 
1853.623804  	93.708211 
1854.588229  	93.698584 
1855.552653  	93.701981 
1856.517078  	93.668827 
1857.481502  	93.634956 
1858.445927  	93.518145 
1859.410351  	93.472575 
1860.374776  	93.486792 
1861.339200  	93.405345 
1862.303625  	93.478210 
1863.268049  	93.617119 
1864.232473  	93.612506 
1865.196898  	93.593597 
1866.161322  	93.268225 
1867.125747  	92.880503 
1868.090171  	92.342236 
1869.054596  	91.865921 
1870.019020  	92.319417 
1870.983445  	93.054705 
1871.947869  	93.491434 
1872.912294  	93.758288 
1873.876718  	93.793846 
1874.841142  	93.731495 
1875.805567  	93.658629 
1876.769991  	93.676923 
1877.734416  	93.727641 
1878.698840  	93.590848 
1879.663265  	93.473825 
1880.627689  	93.612450 
1881.592114  	93.642988 
1882.556538  	93.613728 
1883.520963  	93.610835 
1884.485387  	93.543100 
1885.449811  	93.473265 
1886.414236  	93.630698 
1887.378660  	93.664410 
1888.343085  	93.417026 
1889.307509  	92.660859 
1890.271934  	92.594782 
1891.236358  	93.274825 
1892.200783  	93.514029 
1893.165207  	93.530948 
1894.129632  	93.345787 
1895.094056  	92.838450 
1896.058480  	93.082597 
1897.022905  	93.555586 
1897.987329  	93.423355 
1898.951754  	93.327677 
1899.916178  	93.463823 
1900.880603  	93.512231 
1901.845027  	93.380300 
1902.809452  	93.458376 
1903.773876  	93.486332 
1904.738301  	93.430423 
1905.702725  	93.408394 
1906.667150  	93.409792 
1907.631574  	93.205394 
1908.595998  	93.095172 
1909.560423  	92.955450 
1910.524847  	92.917959 
1911.489272  	93.343018 
1912.453696  	93.457316 
1913.418121  	93.438393 
1914.382545  	93.455890 
1915.346970  	93.490057 
1916.311394  	93.370861 
1917.275819  	92.936181 
1918.240243  	92.294468 
1919.204667  	92.972988 
1920.169092  	93.359859 
1921.133516  	93.183127 
1922.097941  	92.602216 
1923.062365  	92.092973 
1924.026790  	92.920802 
1924.991214  	93.412246 
1925.955639  	93.308622 
1926.920063  	93.402081 
1927.884488  	93.422283 
1928.848912  	93.517334 
1929.813336  	93.587062 
1930.777761  	93.495453 
1931.742185  	93.414570 
1932.706610  	93.356698 
1933.671034  	93.370998 
1934.635459  	93.457593 
1935.599883  	93.425568 
1936.564308  	93.392757 
1937.528732  	93.214785 
1938.493157  	93.242706 
1939.457581  	93.485031 
1940.422005  	93.326375 
1941.386430  	92.750193 
1942.350854  	91.917902 
1943.315279  	92.280731 
1944.279703  	93.123065 
1945.244128  	93.121890 
1946.208552  	93.106219 
1947.172977  	93.018677 
1948.137401  	93.027428 
1949.101826  	93.114764 
1950.066250  	93.328490 
1951.030674  	93.278801 
1951.995099  	93.222301 
1952.959523  	93.271378 
1953.923948  	93.146015 
1954.888372  	93.002163 
1955.852797  	93.319472 
1956.817221  	93.701567 
1957.781646  	93.733543 
1958.746070  	93.537969 
1959.710495  	93.400316 
1960.674919  	93.265003 
1961.639344  	93.118902 
1962.603768  	92.758618 
1963.568192  	92.699164 
1964.532617  	93.155054 
1965.497041  	93.621457 
1966.461466  	93.201500 
1967.425890  	92.927888 
1968.390315  	93.372163 
1969.354739  	93.529473 
1970.319164  	93.480004 
1971.283588  	93.696815 
1972.248013  	93.700311 
1973.212437  	93.602409 
1974.176861  	93.561148 
1975.141286  	93.514431 
1976.105710  	93.505752 
1977.070135  	93.684894 
1978.034559  	93.561135 
1978.998984  	92.708168 
1979.963408  	92.361937 
1980.927833  	92.829708 
1981.892257  	93.131009 
1982.856682  	93.273047 
1983.821106  	93.245265 
1984.785530  	93.164625 
1985.749955  	93.231516 
1986.714379  	93.297879 
1987.678804  	92.976591 
1988.643228  	92.950840 
1989.607653  	93.441334 
1990.572077  	93.442790 
1991.536502  	92.922032 
1992.500926  	92.643549 
1993.465351  	92.923296 
1994.429775  	93.326904 
1995.394199  	93.469728 
1996.358624  	93.356394 
1997.323048  	93.367533 
1998.287473  	93.520519 
1999.251897  	93.536487 
2000.216322  	93.597340 
2001.180746  	93.690714 
2002.145171  	93.721323 
2003.109595  	94.121398 
2004.074020  	94.313256 
2005.038444  	94.283271 
2006.002868  	94.166027 
2006.967293  	93.928099 
2007.931717  	93.491869 
2008.896142  	93.460032 
2009.860566  	93.849837 
2010.824991  	94.045959 
2011.789415  	93.987827 
2012.753840  	93.951079 
2013.718264  	93.737791 
2014.682689  	93.376994 
2015.647113  	93.373603 
2016.611537  	93.021131 
2017.575962  	93.016350 
2018.540386  	93.434873 
2019.504811  	93.701729 
2020.469235  	93.897714 
2021.433660  	94.131392 
2022.398084  	94.094346 
2023.362509  	94.021858 
2024.326933  	93.778564 
2025.291358  	93.566891 
2026.255782  	93.594872 
2027.220207  	93.432557 
2028.184631  	93.469214 
2029.149055  	93.886436 
2030.113480  	93.807820 
2031.077904  	93.768717 
2032.042329  	93.844257 
2033.006753  	94.196426 
2033.971178  	94.332881 
2034.935602  	94.022257 
2035.900027  	93.795256 
2036.864451  	93.859539 
2037.828876  	93.793471 
2038.793300  	93.705000 
2039.757724  	93.391163 
2040.722149  	93.190798 
2041.686573  	93.096670 
2042.650998  	93.266328 
2043.615422  	93.126369 
2044.579847  	93.024363 
2045.544271  	93.382518 
2046.508696  	93.512313 
2047.473120  	93.367005 
2048.437545  	93.438965 
2049.401969  	93.498197 
2050.366393  	93.095531 
2051.330818  	92.955247 
2052.295242  	93.401093 
2053.259667  	93.557465 
2054.224091  	93.263403 
2055.188516  	93.046319 
2056.152940  	93.167277 
2057.117365  	93.166761 
2058.081789  	93.149859 
2059.046214  	93.255603 
2060.010638  	93.263468 
2060.975062  	93.134845 
2061.939487  	93.205499 
2062.903911  	93.241828 
2063.868336  	93.115488 
2064.832760  	92.813739 
2065.797185  	92.885343 
2066.761609  	93.072950 
2067.726034  	93.204098 
2068.690458  	93.271079 
2069.654883  	93.313058 
2070.619307  	93.221504 
2071.583731  	93.201317 
2072.548156  	93.186280 
2073.512580  	93.040904 
2074.477005  	92.992658 
2075.441429  	93.240093 
2076.405854  	93.135004 
2077.370278  	92.982443 
2078.334703  	93.057765 
2079.299127  	93.149437 
2080.263552  	93.177592 
2081.227976  	93.089912 
2082.192401  	92.917083 
2083.156825  	92.863890 
2084.121249  	93.049186 
2085.085674  	93.263936 
2086.050098  	93.178283 
2087.014523  	93.045622 
2087.978947  	93.086404 
2088.943372  	93.147559 
2089.907796  	92.997126 
2090.872221  	93.080622 
2091.836645  	93.426078 
2092.801070  	93.387214 
2093.765494  	93.209267 
2094.729918  	93.195034 
2095.694343  	93.190613 
2096.658767  	92.994216 
2097.623192  	93.001080 
2098.587616  	93.095106 
2099.552041  	93.001021 
2100.516465  	93.011750 
2101.480890  	93.146682 
2102.445314  	93.106440 
2103.409739  	93.009489 
2104.374163  	93.028377 
2105.338587  	93.104420 
2106.303012  	93.073374 
2107.267436  	93.037507 
2108.231861  	92.946154 
2109.196285  	92.898094 
2110.160710  	93.122264 
2111.125134  	93.252921 
2112.089559  	93.164606 
2113.053983  	93.029885 
2114.018408  	93.066253 
2114.982832  	93.038673 
2115.947256  	92.947209 
2116.911681  	93.041923 
2117.876105  	93.213224 
2118.840530  	93.215766 
2119.804954  	93.197220 
2120.769379  	93.237123 
2121.733803  	93.233468 
2122.698228  	93.272245 
2123.662652  	93.335963 
2124.627077  	93.398437 
2125.591501  	93.469504 
2126.555925  	93.549166 
2127.520350  	93.592105 
2128.484774  	93.601976 
2129.449199  	93.645031 
2130.413623  	93.621771 
2131.378048  	93.555262 
2132.342472  	93.698810 
2133.306897  	93.788067 
2134.271321  	93.644488 
2135.235746  	93.393884 
2136.200170  	93.247612 
2137.164594  	93.443847 
2138.129019  	93.746304 
2139.093443  	93.787405 
2140.057868  	93.727231 
2141.022292  	93.740045 
2141.986717  	93.631692 
2142.951141  	93.455526 
2143.915566  	93.694473 
2144.879990  	93.825692 
2145.844415  	93.726062 
2146.808839  	93.740259 
2147.773264  	94.011410 
2148.737688  	94.210728 
2149.702112  	94.186316 
2150.666537  	94.066443 
2151.630961  	93.965539 
2152.595386  	94.280612 
2153.559810  	94.179748 
2154.524235  	94.249237 
2155.488659  	94.827552 
2156.453084  	95.176393 
2157.417508  	94.933722 
2158.381933  	94.721665 
2159.346357  	94.069799 
2160.310781  	93.365934 
2161.275206  	93.112129 
2162.239630  	93.327460 
2163.204055  	93.663933 
2164.168479  	93.856280 
2165.132904  	93.386919 
2166.097328  	93.152797 
2167.061753  	93.347147 
2168.026177  	93.371992 
2168.990602  	93.317469 
2169.955026  	93.530909 
2170.919450  	93.971887 
2171.883875  	93.725990 
2172.848299  	93.548371 
2173.812724  	93.594358 
2174.777148  	93.731931 
2175.741573  	93.776022 
2176.705997  	93.639576 
2177.670422  	93.644689 
2178.634846  	93.634736 
2179.599271  	93.581966 
2180.563695  	93.583686 
2181.528119  	93.744104 
2182.492544  	93.725272 
2183.456968  	93.429732 
2184.421393  	93.315871 
2185.385817  	93.758891 
2186.350242  	93.857261 
2187.314666  	93.315955 
2188.279091  	93.123542 
2189.243515  	93.148037 
2190.207940  	93.307662 
2191.172364  	93.551996 
2192.136788  	93.564333 
2193.101213  	93.477615 
2194.065637  	93.484488 
2195.030062  	93.338811 
2195.994486  	93.027626 
2196.958911  	93.056423 
2197.923335  	93.344320 
2198.887760  	93.489765 
2199.852184  	93.648565 
2200.816609  	93.595056 
2201.781033  	93.447479 
2202.745458  	93.440311 
2203.709882  	93.502242 
2204.674306  	93.576825 
2205.638731  	93.554154 
2206.603155  	93.469903 
2207.567580  	93.369012 
2208.532004  	93.369138 
2209.496429  	93.377431 
2210.460853  	93.356947 
2211.425278  	93.453612 
2212.389702  	93.316220 
2213.354127  	93.106763 
2214.318551  	93.059639 
2215.282975  	93.035212 
2216.247400  	93.182964 
2217.211824  	93.438862 
2218.176249  	93.444930 
2219.140673  	93.404789 
2220.105098  	93.277597 
2221.069522  	93.241170 
2222.033947  	93.386410 
2222.998371  	93.377518 
2223.962796  	93.318471 
2224.927220  	93.278212 
2225.891644  	93.085062 
2226.856069  	93.130722 
2227.820493  	93.301535 
2228.784918  	93.378148 
2229.749342  	93.284899 
2230.713767  	93.255900 
2231.678191  	93.091056 
2232.642616  	92.992542 
2233.607040  	93.289368 
2234.571465  	93.361899 
2235.535889  	93.135492 
2236.500313  	93.068683 
2237.464738  	93.146450 
2238.429162  	93.204756 
2239.393587  	93.196858 
2240.358011  	93.197029 
2241.322436  	93.386036 
2242.286860  	93.364792 
2243.251285  	93.235492 
2244.215709  	93.128517 
2245.180134  	92.921838 
2246.144558  	92.884374 
2247.108982  	93.060190 
2248.073407  	93.122391 
2249.037831  	93.120816 
2250.002256  	93.054203 
2250.966680  	93.014092 
2251.931105  	93.156957 
2252.895529  	93.276874 
2253.859954  	93.189859 
2254.824378  	93.071736 
2255.788803  	92.990733 
2256.753227  	92.990997 
2257.717651  	93.090645 
2258.682076  	93.078005 
2259.646500  	92.981668 
2260.610925  	92.873717 
2261.575349  	92.941900 
2262.539774  	93.050920 
2263.504198  	93.126890 
2264.468623  	93.068077 
2265.433047  	92.988197 
2266.397472  	93.066088 
2267.361896  	93.034934 
2268.326321  	92.966656 
2269.290745  	92.947246 
2270.255169  	93.026066 
2271.219594  	93.048321 
2272.184018  	92.909761 
2273.148443  	92.765478 
2274.112867  	92.789427 
2275.077292  	92.794709 
2276.041716  	92.750143 
2277.006141  	92.856293 
2277.970565  	92.938341 
2278.934990  	92.940921 
2279.899414  	92.892032 
2280.863838  	92.889261 
2281.828263  	92.906539 
2282.792687  	92.793398 
2283.757112  	92.698800 
2284.721536  	92.696557 
2285.685961  	92.680471 
2286.650385  	92.715606 
2287.614810  	92.724259 
2288.579234  	92.620667 
2289.543659  	92.503361 
2290.508083  	92.629795 
2291.472507  	92.705329 
2292.436932  	92.685444 
2293.401356  	92.603035 
2294.365781  	92.521182 
2295.330205  	92.584524 
2296.294630  	92.619964 
2297.259054  	92.612185 
2298.223479  	92.513127 
2299.187903  	92.564608 
2300.152328  	92.585089 
2301.116752  	92.493969 
2302.081176  	92.546420 
2303.045601  	92.500487 
2304.010025  	92.546874 
2304.974450  	92.350152 
2305.938874  	92.381710 
2306.903299  	92.287478 
2307.867723  	92.378400 
2308.832148  	92.271516 
2309.796572  	92.324177 
2310.760997  	92.324528 
2311.725421  	92.280879 
2312.689845  	92.340620 
2313.654270  	92.324897 
2314.618694  	92.366413 
2315.583119  	92.392165 
2316.547543  	92.394682 
2317.511968  	92.379055 
2318.476392  	92.419861 
2319.440817  	92.369087 
2320.405241  	92.328353 
2321.369666  	92.366006 
2322.334090  	92.447994 
2323.298515  	92.423672 
2324.262939  	92.322673 
2325.227363  	92.596884 
2326.191788  	92.942517 
2327.156212  	93.116371 
2328.120637  	93.194757 
2329.085061  	93.239444 
2330.049486  	93.382119 
2331.013910  	93.407489 
2331.978335  	93.471388 
2332.942759  	93.626570 
2333.907184  	93.698924 
2334.871608  	93.669002 
2335.836032  	93.842963 
2336.800457  	93.995501 
2337.764881  	93.998778 
2338.729306  	93.932070 
2339.693730  	93.823919 
2340.658155  	93.874555 
2341.622579  	94.005476 
2342.587004  	93.937624 
2343.551428  	93.776018 
2344.515853  	93.560618 
2345.480277  	93.333370 
2346.444701  	93.153123 
2347.409126  	93.136435 
2348.373550  	92.915443 
2349.337975  	92.749866 
2350.302399  	92.869803 
2351.266824  	93.181735 
2352.231248  	93.517426 
2353.195673  	93.649735 
2354.160097  	93.645257 
2355.124522  	93.757361 
2356.088946  	93.896814 
2357.053370  	93.932989 
2358.017795  	93.983234 
2358.982219  	94.062472 
2359.946644  	94.294259 
2360.911068  	94.358838 
2361.875493  	94.193670 
2362.839917  	94.119251 
2363.804342  	94.113353 
2364.768766  	94.035204 
2365.733191  	94.041863 
2366.697615  	93.963526 
2367.662039  	93.780600 
2368.626464  	93.597769 
2369.590888  	93.334852 
2370.555313  	93.202496 
2371.519737  	93.182294 
2372.484162  	93.026913 
2373.448586  	92.869079 
2374.413011  	92.784494 
2375.377435  	92.677553 
2376.341860  	92.577623 
2377.306284  	92.483838 
2378.270708  	92.457554 
2379.235133  	92.422932 
2380.199557  	92.500738 
2381.163982  	92.583724 
2382.128406  	92.641944 
2383.092831  	92.715051 
2384.057255  	92.756163 
2385.021680  	92.857482 
2385.986104  	92.928026 
2386.950529  	92.977308 
2387.914953  	93.042309 
2388.879378  	93.061189 
2389.843802  	93.109524 
2390.808226  	93.126553 
2391.772651  	93.079550 
2392.737075  	93.089833 
2393.701500  	93.145878 
2394.665924  	93.160389 
2395.630349  	93.146978 
2396.594773  	93.115936 
2397.559198  	93.086128 
2398.523622  	93.152984 
2399.488047  	93.197545 
2400.452471  	93.172115 
2401.416895  	93.128056 
2402.381320  	93.122208 
2403.345744  	93.179457 
2404.310169  	93.211014 
2405.274593  	93.173011 
2406.239018  	93.138349 
2407.203442  	93.139139 
2408.167867  	93.180202 
2409.132291  	93.195939 
2410.096716  	93.116049 
2411.061140  	93.075923 
2412.025564  	93.110322 
2412.989989  	93.127677 
2413.954413  	93.101601 
2414.918838  	93.105981 
2415.883262  	93.134678 
2416.847687  	93.153868 
2417.812111  	93.179751 
2418.776536  	93.120372 
2419.740960  	93.104709 
2420.705385  	93.170275 
2421.669809  	93.101622 
2422.634233  	93.094892 
2423.598658  	93.105405 
2424.563082  	93.109198 
2425.527507  	93.162226 
2426.491931  	93.151424 
2427.456356  	93.133377 
2428.420780  	93.186715 
2429.385205  	93.203348 
2430.349629  	93.204758 
2431.314054  	93.155366 
2432.278478  	93.122157 
2433.242902  	93.110971 
2434.207327  	93.102289 
2435.171751  	93.127984 
2436.136176  	93.189636 
2437.100600  	93.225348 
2438.065025  	93.179643 
2439.029449  	93.198889 
2439.993874  	93.199255 
2440.958298  	93.155166 
2441.922723  	93.119383 
2442.887147  	93.142160 
2443.851572  	93.204990 
2444.815996  	93.176272 
2445.780420  	93.149392 
2446.744845  	93.098869 
2447.709269  	93.139303 
2448.673694  	93.191698 
2449.638118  	93.150845 
2450.602543  	93.088191 
2451.566967  	93.021412 
2452.531392  	93.045342 
2453.495816  	93.078088 
2454.460241  	93.065546 
2455.424665  	93.107454 
2456.389089  	93.119410 
2457.353514  	93.073146 
2458.317938  	93.089854 
2459.282363  	93.158721 
2460.246787  	93.209466 
2461.211212  	93.157731 
2462.175636  	93.097458 
2463.140061  	93.071963 
2464.104485  	93.090874 
2465.068910  	93.145551 
2466.033334  	93.120644 
2466.997758  	93.099280 
2467.962183  	93.175190 
2468.926607  	93.174710 
2469.891032  	93.162946 
2470.855456  	93.173348 
2471.819881  	93.179716 
2472.784305  	93.211097 
2473.748730  	93.225683 
2474.713154  	93.247177 
2475.677579  	93.187871 
2476.642003  	93.105011 
2477.606427  	93.083401 
2478.570852  	93.136682 
2479.535276  	93.167874 
2480.499701  	93.111818 
2481.464125  	93.108939 
2482.428550  	93.185401 
2483.392974  	93.184977 
2484.357399  	93.198126 
2485.321823  	93.185481 
2486.286248  	93.106029 
2487.250672  	93.054809 
2488.215096  	93.125290 
2489.179521  	93.112932 
2490.143945  	93.045651 
2491.108370  	93.044197 
2492.072794  	93.050779 
2493.037219  	93.068323 
2494.001643  	93.106357 
2494.966068  	93.118803 
2495.930492  	93.159304 
2496.894917  	93.154108 
2497.859341  	93.131094 
2498.823765  	93.108820 
2499.788190  	93.113072 
2500.752614  	93.144454 
2501.717039  	93.133397 
2502.681463  	93.105705 
2503.645888  	93.070141 
2504.610312  	93.049133 
2505.574737  	93.046129 
2506.539161  	93.063437 
2507.503586  	93.131053 
2508.468010  	93.130380 
2509.432435  	93.075154 
2510.396859  	93.029534 
2511.361283  	93.085822 
2512.325708  	93.057139 
2513.290132  	93.022835 
2514.254557  	93.081476 
2515.218981  	93.064165 
2516.183406  	92.997869 
2517.147830  	93.053534 
2518.112255  	93.085609 
2519.076679  	93.096797 
2520.041104  	93.111302 
2521.005528  	93.062075 
2521.969952  	93.017734 
2522.934377  	93.027759 
2523.898801  	93.074103 
2524.863226  	93.099284 
2525.827650  	93.085792 
2526.792075  	93.092192 
2527.756499  	93.072874 
2528.720924  	93.082474 
2529.685348  	93.042412 
2530.649773  	93.055597 
2531.614197  	93.075748 
2532.578621  	93.065002 
2533.543046  	93.098036 
2534.507470  	93.091580 
2535.471895  	93.039975 
2536.436319  	93.023047 
2537.400744  	93.031442 
2538.365168  	93.003783 
2539.329593  	93.035833 
2540.294017  	93.061930 
2541.258442  	93.031481 
2542.222866  	93.069380 
2543.187290  	93.105115 
2544.151715  	93.111993 
2545.116139  	93.105422 
2546.080564  	93.074259 
2547.044988  	92.964787 
2548.009413  	92.917316 
2548.973837  	93.017819 
2549.938262  	93.081853 
2550.902686  	93.105783 
2551.867111  	93.125511 
2552.831535  	93.035143 
2553.795959  	92.935488 
2554.760384  	92.979965 
2555.724808  	93.016237 
2556.689233  	92.982450 
2557.653657  	92.967223 
2558.618082  	92.967584 
2559.582506  	93.050313 
2560.546931  	93.055575 
2561.511355  	92.982104 
2562.475780  	92.969640 
2563.440204  	93.013725 
2564.404629  	93.051190 
2565.369053  	93.074711 
2566.333477  	93.075702 
2567.297902  	93.079746 
2568.262326  	93.047965 
2569.226751  	92.955672 
2570.191175  	92.959604 
2571.155600  	93.039068 
2572.120024  	93.040256 
2573.084449  	93.080025 
2574.048873  	93.029273 
2575.013298  	92.948665 
2575.977722  	92.933437 
2576.942146  	92.976155 
2577.906571  	93.004878 
2578.870995  	92.990245 
2579.835420  	92.998652 
2580.799844  	93.019998 
2581.764269  	92.993126 
2582.728693  	93.043414 
2583.693118  	93.056589 
2584.657542  	93.014373 
2585.621967  	93.014261 
2586.586391  	92.990059 
2587.550815  	93.022526 
2588.515240  	93.048489 
2589.479664  	92.996604 
2590.444089  	92.929648 
2591.408513  	92.946153 
2592.372938  	92.952998 
2593.337362  	92.936107 
2594.301787  	92.923342 
2595.266211  	92.927741 
2596.230636  	92.981229 
2597.195060  	93.033736 
2598.159484  	93.048315 
2599.123909  	93.076689 
2600.088333  	93.065432 
2601.052758  	92.977625 
2602.017182  	92.971812 
2602.981607  	92.975683 
2603.946031  	92.966802 
2604.910456  	92.989939 
2605.874880  	92.992816 
2606.839305  	92.974820 
2607.803729  	92.977422 
2608.768153  	93.001630 
2609.732578  	93.001250 
2610.697002  	92.983038 
2611.661427  	92.971300 
2612.625851  	92.972766 
2613.590276  	92.985155 
2614.554700  	92.967862 
2615.519125  	92.954234 
2616.483549  	92.965810 
2617.447974  	92.940945 
2618.412398  	92.974259 
2619.376822  	93.006386 
2620.341247  	92.989681 
2621.305671  	92.995973 
2622.270096  	92.959509 
2623.234520  	92.919682 
2624.198945  	92.923131 
2625.163369  	92.984959 
2626.127794  	92.982694 
2627.092218  	92.967793 
2628.056643  	92.967894 
2629.021067  	92.944951 
2629.985492  	92.967180 
2630.949916  	92.995850 
2631.914340  	92.928942 
2632.878765  	92.892969 
2633.843189  	92.925780 
2634.807614  	92.938253 
2635.772038  	92.955315 
2636.736463  	92.934834 
2637.700887  	92.931332 
2638.665312  	92.947481 
2639.629736  	92.965262 
2640.594161  	92.994304 
2641.558585  	93.000666 
2642.523009  	92.960818 
2643.487434  	92.968108 
2644.451858  	92.988340 
2645.416283  	92.958442 
2646.380707  	92.968836 
2647.345132  	92.987132 
2648.309556  	92.997997 
2649.273981  	92.983248 
2650.238405  	93.009465 
2651.202830  	93.024974 
2652.167254  	93.008319 
2653.131678  	93.009512 
2654.096103  	92.995574 
2655.060527  	92.982197 
2656.024952  	92.994348 
2656.989376  	92.982386 
2657.953801  	92.977792 
2658.918225  	93.012126 
2659.882650  	93.030137 
2660.847074  	93.028180 
2661.811499  	93.058885 
2662.775923  	93.084007 
2663.740347  	93.105769 
2664.704772  	93.105340 
2665.669196  	93.109039 
2666.633621  	93.117109 
2667.598045  	93.104999 
2668.562470  	93.103277 
2669.526894  	93.091279 
2670.491319  	93.063587 
2671.455743  	93.096087 
2672.420168  	93.111095 
2673.384592  	93.110475 
2674.349016  	93.113327 
2675.313441  	93.130452 
2676.277865  	93.125503 
2677.242290  	93.112894 
2678.206714  	93.133443 
2679.171139  	93.136748 
2680.135563  	93.117489 
2681.099988  	93.109207 
2682.064412  	93.132170 
2683.028837  	93.141913 
2683.993261  	93.125114 
2684.957686  	93.130516 
2685.922110  	93.120866 
2686.886534  	93.102140 
2687.850959  	93.097769 
2688.815383  	93.123970 
2689.779808  	93.139946 
2690.744232  	93.123751 
2691.708657  	93.116427 
2692.673081  	93.113468 
2693.637506  	93.097150 
2694.601930  	93.127690 
2695.566355  	93.146435 
2696.530779  	93.137779 
2697.495203  	93.127289 
2698.459628  	93.155171 
2699.424052  	93.153051 
2700.388477  	93.111052 
2701.352901  	93.090767 
2702.317326  	93.105463 
2703.281750  	93.120554 
2704.246175  	93.128084 
2705.210599  	93.127323 
2706.175024  	93.111679 
2707.139448  	93.092350 
2708.103872  	93.092923 
2709.068297  	93.119162 
2710.032721  	93.108474 
2710.997146  	93.094446 
2711.961570  	93.092130 
2712.925995  	93.112804 
2713.890419  	93.111898 
2714.854844  	93.085354 
2715.819268  	93.090513 
2716.783693  	93.117876 
2717.748117  	93.127053 
2718.712541  	93.124438 
2719.676966  	93.131308 
2720.641390  	93.143091 
2721.605815  	93.161859 
2722.570239  	93.150018 
2723.534664  	93.138149 
2724.499088  	93.128570 
2725.463513  	93.107985 
2726.427937  	93.104212 
2727.392362  	93.107325 
2728.356786  	93.115188 
2729.321210  	93.088067 
2730.285635  	93.058550 
2731.250059  	93.058192 
2732.214484  	93.099809 
2733.178908  	93.122032 
2734.143333  	93.110335 
2735.107757  	93.094757 
2736.072182  	93.088128 
2737.036606  	93.097444 
2738.001031  	93.073466 
2738.965455  	93.060993 
2739.929879  	93.097682 
2740.894304  	93.107804 
2741.858728  	93.070390 
2742.823153  	93.031989 
2743.787577  	93.039876 
2744.752002  	93.079325 
2745.716426  	93.084597 
2746.680851  	93.079218 
2747.645275  	93.066771 
2748.609700  	93.061162 
2749.574124  	93.068478 
2750.538549  	93.061914 
2751.502973  	93.021506 
2752.467397  	93.033079 
2753.431822  	93.063676 
2754.396246  	93.061530 
2755.360671  	93.058591 
2756.325095  	93.078521 
2757.289520  	93.051845 
2758.253944  	93.066958 
2759.218369  	93.088240 
2760.182793  	93.074019 
2761.147218  	93.039907 
2762.111642  	93.026018 
2763.076066  	93.053390 
2764.040491  	93.081669 
2765.004915  	93.060608 
2765.969340  	93.042931 
2766.933764  	93.063098 
2767.898189  	93.058822 
2768.862613  	93.055311 
2769.827038  	93.051564 
2770.791462  	93.031663 
2771.755887  	93.017423 
2772.720311  	93.042884 
2773.684735  	93.052250 
2774.649160  	93.044135 
2775.613584  	93.038122 
2776.578009  	93.033777 
2777.542433  	93.036603 
2778.506858  	93.026906 
2779.471282  	93.019996 
2780.435707  	93.006728 
2781.400131  	92.971951 
2782.364556  	92.969383 
2783.328980  	93.000314 
2784.293404  	93.025251 
2785.257829  	93.042286 
2786.222253  	93.038051 
2787.186678  	93.048501 
2788.151102  	93.044282 
2789.115527  	93.062915 
2790.079951  	93.051721 
2791.044376  	93.023818 
2792.008800  	93.004642 
2792.973225  	92.985299 
2793.937649  	92.995932 
2794.902073  	92.970583 
2795.866498  	92.950354 
2796.830922  	93.002406 
2797.795347  	93.024761 
2798.759771  	93.004078 
2799.724196  	92.958326 
2800.688620  	92.921140 
2801.653045  	92.918470 
2802.617469  	92.941514 
2803.581894  	92.963582 
2804.546318  	92.988662 
2805.510743  	92.974056 
2806.475167  	92.915306 
2807.439591  	92.888596 
2808.404016  	92.890672 
2809.368440  	92.931344 
2810.332865  	92.971519 
2811.297289  	92.937605 
2812.261714  	92.915462 
2813.226138  	92.937259 
2814.190563  	92.938415 
2815.154987  	92.956253 
2816.119412  	92.948747 
2817.083836  	92.931773 
2818.048260  	92.949521 
2819.012685  	92.950265 
2819.977109  	92.977470 
2820.941534  	92.956691 
2821.905958  	92.943484 
2822.870383  	92.923646 
2823.834807  	92.933352 
2824.799232  	92.937796 
2825.763656  	92.941254 
2826.728081  	92.931833 
2827.692505  	92.945133 
2828.656929  	92.959754 
2829.621354  	92.952510 
2830.585778  	92.933333 
2831.550203  	92.908762 
2832.514627  	92.895402 
2833.479052  	92.893379 
2834.443476  	92.893176 
2835.407901  	92.900912 
2836.372325  	92.907949 
2837.336750  	92.890070 
2838.301174  	92.832075 
2839.265598  	92.802180 
2840.230023  	92.823244 
2841.194447  	92.851930 
2842.158872  	92.803460 
2843.123296  	92.754718 
2844.087721  	92.742017 
2845.052145  	92.723983 
2846.016570  	92.697408 
2846.980994  	92.714192 
2847.945419  	92.701225 
2848.909843  	92.653698 
2849.874267  	92.636941 
2850.838692  	92.610780 
2851.803116  	92.567163 
2852.767541  	92.555499 
2853.731965  	92.556396 
2854.696390  	92.563078 
2855.660814  	92.596164 
2856.625239  	92.629239 
2857.589663  	92.629085 
2858.554088  	92.610904 
2859.518512  	92.628386 
2860.482936  	92.640233 
2861.447361  	92.626485 
2862.411785  	92.629951 
2863.376210  	92.647235 
2864.340634  	92.626595 
2865.305059  	92.598711 
2866.269483  	92.605216 
2867.233908  	92.620954 
2868.198332  	92.600189 
2869.162757  	92.596526 
2870.127181  	92.632866 
2871.091606  	92.621770 
2872.056030  	92.604376 
2873.020454  	92.601854 
2873.984879  	92.606057 
2874.949303  	92.578269 
2875.913728  	92.585238 
2876.878152  	92.607547 
2877.842577  	92.574366 
2878.807001  	92.585475 
2879.771426  	92.605028 
2880.735850  	92.543921 
2881.700275  	92.509944 
2882.664699  	92.519217 
2883.629123  	92.502188 
2884.593548  	92.526412 
2885.557972  	92.532714 
2886.522397  	92.458882 
2887.486821  	92.434906 
2888.451246  	92.453340 
2889.415670  	92.437295 
2890.380095  	92.406919 
2891.344519  	92.424425 
2892.308944  	92.470705 
2893.273368  	92.447075 
2894.237792  	92.420943 
2895.202217  	92.368403 
2896.166641  	92.364501 
2897.131066  	92.355110 
2898.095490  	92.332361 
2899.059915  	92.331352 
2900.024339  	92.253544 
2900.988764  	92.203031 
2901.953188  	92.189799 
2902.917613  	92.169205 
2903.882037  	92.163480 
2904.846461  	92.143721 
2905.810886  	92.070985 
2906.775310  	92.042262 
2907.739735  	92.038920 
2908.704159  	92.033071 
2909.668584  	92.059906 
2910.633008  	92.067773 
2911.597433  	92.079781 
2912.561857  	92.127827 
2913.526282  	92.152991 
2914.490706  	92.152628 
2915.455130  	92.163676 
2916.419555  	92.199913 
2917.383979  	92.251230 
2918.348404  	92.269918 
2919.312828  	92.297276 
2920.277253  	92.298409 
2921.241677  	92.271885 
2922.206102  	92.259891 
2923.170526  	92.263201 
2924.134951  	92.276918 
2925.099375  	92.285854 
2926.063800  	92.279467 
2927.028224  	92.306871 
2927.992648  	92.329015 
2928.957073  	92.359149 
2929.921497  	92.344992 
2930.885922  	92.332449 
2931.850346  	92.380932 
2932.814771  	92.412734 
2933.779195  	92.439452 
2934.743620  	92.442861 
2935.708044  	92.405237 
2936.672469  	92.405437 
2937.636893  	92.426463 
2938.601317  	92.430999 
2939.565742  	92.433637 
2940.530166  	92.389714 
2941.494591  	92.330408 
2942.459015  	92.305877 
2943.423440  	92.280228 
2944.387864  	92.238526 
2945.352289  	92.212852 
2946.316713  	92.198319 
2947.281138  	92.189529 
2948.245562  	92.163754 
2949.209986  	92.092672 
2950.174411  	92.006048 
2951.138835  	91.975406 
2952.103260  	91.923126 
2953.067684  	91.856304 
2954.032109  	91.810842 
2954.996533  	91.812831 
2955.960958  	91.795850 
2956.925382  	91.766075 
2957.889807  	91.763395 
2958.854231  	91.713677 
2959.818655  	91.661028 
2960.783080  	91.653566 
2961.747504  	91.631491 
2962.711929  	91.642308 
2963.676353  	91.619432 
2964.640778  	91.555847 
2965.605202  	91.492725 
2966.569627  	91.441516 
2967.534051  	91.487407 
2968.498476  	91.564564 
2969.462900  	91.570973 
2970.427324  	91.549746 
2971.391749  	91.556454 
2972.356173  	91.649456 
2973.320598  	91.739142 
2974.285022  	91.777882 
2975.249447  	91.788096 
2976.213871  	91.832717 
2977.178296  	91.884344 
2978.142720  	91.923933 
2979.107145  	92.000818 
2980.071569  	92.104030 
2981.035993  	92.144422 
2982.000418  	92.203369 
2982.964842  	92.273901 
2983.929267  	92.304055 
2984.893691  	92.326295 
2985.858116  	92.353987 
2986.822540  	92.393706 
2987.786965  	92.404324 
2988.751389  	92.402267 
2989.715814  	92.417034 
2990.680238  	92.454298 
2991.644663  	92.466070 
2992.609087  	92.488757 
2993.573511  	92.530622 
2994.537936  	92.530551 
2995.502360  	92.561804 
2996.466785  	92.581107 
2997.431209  	92.590380 
2998.395634  	92.604222 
2999.360058  	92.630528 
3000.324483  	92.652821 
3001.288907  	92.629802 
3002.253332  	92.605736 
3003.217756  	92.607807 
3004.182180  	92.566369 
3005.146605  	92.570851 
3006.111029  	92.651948 
3007.075454  	92.716212 
3008.039878  	92.735705 
3009.004303  	92.743230 
3009.968727  	92.747939 
3010.933152  	92.749159 
3011.897576  	92.717920 
3012.862001  	92.661452 
3013.826425  	92.735400 
3014.790849  	92.780449 
3015.755274  	92.761644 
3016.719698  	92.843126 
3017.684123  	92.947072 
3018.648547  	92.972808 
3019.612972  	92.929504 
3020.577396  	92.949533 
3021.541821  	92.992024 
3022.506245  	92.988914 
3023.470670  	92.993207 
3024.435094  	93.029110 
3025.399518  	93.014294 
3026.363943  	93.008484 
3027.328367  	93.083800 
3028.292792  	93.118919 
3029.257216  	93.110597 
3030.221641  	93.051182 
3031.186065  	92.947210 
3032.150490  	92.888876 
3033.114914  	92.988283 
3034.079339  	93.023480 
3035.043763  	93.005568 
3036.008187  	93.008061 
3036.972612  	93.042833 
3037.937036  	93.046031 
3038.901461  	93.042088 
3039.865885  	93.072216 
3040.830310  	93.107998 
3041.794734  	93.085627 
3042.759159  	93.015478 
3043.723583  	93.044067 
3044.688008  	93.074094 
3045.652432  	93.091359 
3046.616857  	93.075527 
3047.581281  	92.986386 
3048.545705  	92.860682 
3049.510130  	92.830955 
3050.474554  	92.859404 
3051.438979  	92.885519 
3052.403403  	92.879984 
3053.367828  	92.838198 
3054.332252  	92.836263 
3055.296677  	92.869084 
3056.261101  	92.760484 
3057.225526  	92.764048 
3058.189950  	92.915902 
3059.154374  	92.968246 
3060.118799  	92.966153 
3061.083223  	92.969700 
3062.047648  	92.971782 
3063.012072  	92.919917 
3063.976497  	92.824606 
3064.940921  	92.774040 
3065.905346  	92.857208 
3066.869770  	92.851135 
3067.834195  	92.799301 
3068.798619  	92.840785 
3069.763043  	92.919473 
3070.727468  	92.962131 
3071.691892  	92.975235 
3072.656317  	92.947921 
3073.620741  	92.908031 
3074.585166  	92.930830 
3075.549590  	92.954628 
3076.514015  	92.956371 
3077.478439  	92.932612 
3078.442864  	92.896916 
3079.407288  	92.876088 
3080.371712  	92.937954 
3081.336137  	92.979721 
3082.300561  	92.906068 
3083.264986  	92.925759 
3084.229410  	93.028699 
3085.193835  	93.037462 
3086.158259  	93.015910 
3087.122684  	92.960914 
3088.087108  	92.932499 
3089.051533  	92.984912 
3090.015957  	93.004493 
3090.980381  	93.031424 
3091.944806  	93.056000 
3092.909230  	93.074168 
3093.873655  	93.073361 
3094.838079  	93.035651 
3095.802504  	92.989706 
3096.766928  	92.997182 
3097.731353  	92.996673 
3098.695777  	93.038020 
3099.660202  	93.050064 
3100.624626  	92.983549 
3101.589050  	92.922417 
3102.553475  	92.934060 
3103.517899  	92.923353 
3104.482324  	92.982089 
3105.446748  	93.006278 
3106.411173  	92.976949 
3107.375597  	92.984509 
3108.340022  	93.040507 
3109.304446  	93.067678 
3110.268871  	93.051407 
3111.233295  	93.046469 
3112.197720  	93.058990 
3113.162144  	93.077970 
3114.126568  	93.072204 
3115.090993  	93.049544 
3116.055417  	93.053997 
3117.019842  	93.083965 
3117.984266  	93.058785 
3118.948691  	93.005715 
3119.913115  	93.093145 
3120.877540  	93.172398 
3121.841964  	93.105843 
3122.806389  	93.005212 
3123.770813  	93.042408 
3124.735237  	93.100985 
3125.699662  	93.068897 
3126.664086  	92.987596 
3127.628511  	93.037619 
3128.592935  	93.147357 
3129.557360  	93.110340 
3130.521784  	93.096908 
3131.486209  	93.147522 
3132.450633  	93.091420 
3133.415058  	92.987976 
3134.379482  	93.114513 
3135.343906  	93.186995 
3136.308331  	93.133943 
3137.272755  	93.073197 
3138.237180  	93.119789 
3139.201604  	93.186023 
3140.166029  	93.193925 
3141.130453  	93.221068 
3142.094878  	93.195266 
3143.059302  	93.173701 
3144.023727  	93.205337 
3144.988151  	93.234680 
3145.952575  	93.171664 
3146.917000  	93.123440 
3147.881424  	93.156322 
3148.845849  	93.249461 
3149.810273  	93.271317 
3150.774698  	93.264999 
3151.739122  	93.237960 
3152.703547  	93.216999 
3153.667971  	93.217621 
3154.632396  	93.226839 
3155.596820  	93.184543 
3156.561244  	93.144272 
3157.525669  	93.184642 
3158.490093  	93.183190 
3159.454518  	93.205752 
3160.418942  	93.249311 
3161.383367  	93.225291 
3162.347791  	93.186671 
3163.312216  	93.206409 
3164.276640  	93.252915 
3165.241065  	93.265267 
3166.205489  	93.216981 
3167.169914  	93.211164 
3168.134338  	93.169887 
3169.098762  	93.168222 
3170.063187  	93.184877 
3171.027611  	93.174536 
3171.992036  	93.206136 
3172.956460  	93.199728 
3173.920885  	93.174704 
3174.885309  	93.183362 
3175.849734  	93.151022 
3176.814158  	93.146245 
3177.778583  	93.169726 
3178.743007  	93.151986 
3179.707431  	93.141094 
3180.671856  	93.179968 
3181.636280  	93.243699 
3182.600705  	93.263897 
3183.565129  	93.248859 
3184.529554  	93.177445 
3185.493978  	93.117981 
3186.458403  	93.114089 
3187.422827  	93.146359 
3188.387252  	93.161046 
3189.351676  	93.200958 
3190.316100  	93.219512 
3191.280525  	93.198232 
3192.244949  	93.214036 
3193.209374  	93.272407 
3194.173798  	93.247678 
3195.138223  	93.219782 
3196.102647  	93.131614 
3197.067072  	93.050836 
3198.031496  	93.062924 
3198.995921  	93.192290 
3199.960345  	93.208248 
3200.924769  	93.186136 
3201.889194  	93.212305 
3202.853618  	93.209846 
3203.818043  	93.201532 
3204.782467  	93.166720 
3205.746892  	93.163830 
3206.711316  	93.141943 
3207.675741  	93.143504 
3208.640165  	93.167850 
3209.604590  	93.189458 
3210.569014  	93.207461 
3211.533438  	93.220444 
3212.497863  	93.195762 
3213.462287  	93.156903 
3214.426712  	93.089304 
3215.391136  	93.127851 
3216.355561  	93.178112 
3217.319985  	93.182967 
3218.284410  	93.187919 
3219.248834  	93.138518 
3220.213259  	93.157085 
3221.177683  	93.212056 
3222.142107  	93.177598 
3223.106532  	93.173953 
3224.070956  	93.145350 
3225.035381  	93.093687 
3225.999805  	93.123167 
3226.964230  	93.106799 
3227.928654  	93.090082 
3228.893079  	93.178682 
3229.857503  	93.195079 
3230.821928  	93.124767 
3231.786352  	93.126776 
3232.750777  	93.176594 
3233.715201  	93.201481 
3234.679625  	93.173480 
3235.644050  	93.151657 
3236.608474  	93.152100 
3237.572899  	93.180520 
3238.537323  	93.199586 
3239.501748  	93.149515 
3240.466172  	93.133003 
3241.430597  	93.195021 
3242.395021  	93.237312 
3243.359446  	93.200390 
3244.323870  	93.113380 
3245.288294  	93.025921 
3246.252719  	93.083978 
3247.217143  	93.155849 
3248.181568  	93.152277 
3249.145992  	93.149809 
3250.110417  	93.215753 
3251.074841  	93.231567 
3252.039266  	93.202548 
3253.003690  	93.176600 
3253.968115  	93.079282 
3254.932539  	93.072127 
3255.896963  	93.079480 
3256.861388  	93.030579 
3257.825812  	93.065902 
3258.790237  	93.079089 
3259.754661  	93.125302 
3260.719086  	93.177564 
3261.683510  	93.221673 
3262.647935  	93.251126 
3263.612359  	93.219214 
3264.576784  	93.172670 
3265.541208  	93.108542 
3266.505632  	93.102594 
3267.470057  	93.154472 
3268.434481  	93.183920 
3269.398906  	93.164432 
3270.363330  	93.146702 
3271.327755  	93.166068 
3272.292179  	93.187820 
3273.256604  	93.088183 
3274.221028  	93.022671 
3275.185453  	93.093935 
3276.149877  	93.058260 
3277.114301  	93.029521 
3278.078726  	93.052727 
3279.043150  	93.060564 
3280.007575  	93.127157 
3280.971999  	93.133578 
3281.936424  	93.110959 
3282.900848  	93.091882 
3283.865273  	93.092044 
3284.829697  	93.122647 
3285.794122  	93.094542 
3286.758546  	93.091089 
3287.722971  	93.090465 
3288.687395  	93.044728 
3289.651819  	93.109701 
3290.616244  	93.106401 
3291.580668  	93.006319 
3292.545093  	93.034476 
3293.509517  	93.109412 
3294.473942  	93.155441 
3295.438366  	93.131809 
3296.402791  	93.092175 
3297.367215  	93.102007 
3298.331640  	93.131041 
3299.296064  	93.154828 
3300.260488  	93.148740 
3301.224913  	93.150262 
3302.189337  	93.220800 
3303.153762  	93.176890 
3304.118186  	93.087986 
3305.082611  	93.110319 
3306.047035  	93.144179 
3307.011460  	93.217438 
3307.975884  	93.159611 
3308.940309  	93.071741 
3309.904733  	93.135653 
3310.869157  	93.126965 
3311.833582  	93.081616 
3312.798006  	93.108148 
3313.762431  	93.119265 
3314.726855  	93.163663 
3315.691280  	93.127611 
3316.655704  	93.081989 
3317.620129  	93.093890 
3318.584553  	93.131151 
3319.548978  	93.085271 
3320.513402  	93.112934 
3321.477826  	93.177621 
3322.442251  	93.178598 
3323.406675  	93.207394 
3324.371100  	93.214558 
3325.335524  	93.218501 
3326.299949  	93.225393 
3327.264373  	93.163456 
3328.228798  	93.097028 
3329.193222  	93.067716 
3330.157647  	93.042029 
3331.122071  	93.058752 
3332.086495  	93.140507 
3333.050920  	93.158064 
3334.015344  	93.116163 
3334.979769  	93.046969 
3335.944193  	93.049541 
3336.908618  	93.042639 
3337.873042  	93.079888 
3338.837467  	93.128146 
3339.801891  	93.102932 
3340.766316  	93.142183 
3341.730740  	93.131006 
3342.695164  	93.093345 
3343.659589  	93.129960 
3344.624013  	93.223067 
3345.588438  	93.270343 
3346.552862  	93.247905 
3347.517287  	93.178796 
3348.481711  	93.150888 
3349.446136  	93.189029 
3350.410560  	93.230918 
3351.374985  	93.263913 
3352.339409  	93.290254 
3353.303834  	93.275856 
3354.268258  	93.256329 
3355.232682  	93.170189 
3356.197107  	93.031795 
3357.161531  	93.059891 
3358.125956  	93.147539 
3359.090380  	93.161506 
3360.054805  	93.066368 
3361.019229  	93.027689 
3361.983654  	93.048036 
3362.948078  	93.137746 
3363.912503  	93.185515 
3364.876927  	93.099671 
3365.841351  	93.068914 
3366.805776  	93.112407 
3367.770200  	93.095217 
3368.734625  	93.079063 
3369.699049  	93.130582 
3370.663474  	93.219598 
3371.627898  	93.236473 
3372.592323  	93.191939 
3373.556747  	93.164873 
3374.521172  	93.228081 
3375.485596  	93.253909 
3376.450020  	93.174269 
3377.414445  	93.156005 
3378.378869  	93.215210 
3379.343294  	93.215541 
3380.307718  	93.192876 
3381.272143  	93.213374 
3382.236567  	93.201445 
3383.200992  	93.202493 
3384.165416  	93.125998 
3385.129841  	93.062072 
3386.094265  	93.106504 
3387.058689  	93.172750 
3388.023114  	93.184467 
3388.987538  	93.219717 
3389.951963  	93.204737 
3390.916387  	93.118030 
3391.880812  	93.059752 
3392.845236  	92.962354 
3393.809661  	93.015800 
3394.774085  	93.173107 
3395.738510  	93.191859 
3396.702934  	93.149140 
3397.667358  	92.995377 
3398.631783  	93.089419 
3399.596207  	93.235650 
3400.560632  	93.170993 
3401.525056  	93.091648 
3402.489481  	93.141792 
3403.453905  	93.119729 
3404.418330  	93.112959 
3405.382754  	93.173404 
3406.347179  	93.197783 
3407.311603  	93.138644 
3408.276028  	93.089221 
3409.240452  	93.009120 
3410.204876  	92.970464 
3411.169301  	93.024138 
3412.133725  	93.129717 
3413.098150  	93.174630 
3414.062574  	93.117274 
3415.026999  	93.060218 
3415.991423  	92.958939 
3416.955848  	92.945645 
3417.920272  	92.982175 
3418.884697  	92.971600 
3419.849121  	92.740957 
3420.813545  	92.427515 
3421.777970  	92.441824 
3422.742394  	92.556973 
3423.706819  	92.771303 
3424.671243  	92.904143 
3425.635668  	92.886256 
3426.600092  	92.855370 
3427.564517  	92.890021 
3428.528941  	92.929775 
3429.493366  	92.909627 
3430.457790  	92.803880 
3431.422214  	92.772106 
3432.386639  	92.808314 
3433.351063  	92.871861 
3434.315488  	92.931678 
3435.279912  	92.905640 
3436.244337  	92.869866 
3437.208761  	92.917560 
3438.173186  	92.994449 
3439.137610  	92.986350 
3440.102035  	93.010845 
3441.066459  	93.039752 
3442.030883  	92.879373 
3442.995308  	92.654809 
3443.959732  	92.862425 
3444.924157  	92.947095 
3445.888581  	92.892594 
3446.853006  	92.475250 
3447.817430  	92.224991 
3448.781855  	92.816352 
3449.746279  	93.120736 
3450.710704  	93.173590 
3451.675128  	93.142447 
3452.639552  	93.154433 
3453.603977  	93.149625 
3454.568401  	93.154539 
3455.532826  	93.157019 
3456.497250  	93.162135 
3457.461675  	93.103169 
3458.426099  	93.037356 
3459.390524  	93.069985 
3460.354948  	93.144130 
3461.319373  	92.988976 
3462.283797  	92.848472 
3463.248221  	92.845421 
3464.212646  	93.083408 
3465.177070  	93.169142 
3466.141495  	93.068531 
3467.105919  	92.873939 
3468.070344  	93.014559 
3469.034768  	93.216085 
3469.999193  	93.138540 
3470.963617  	93.036199 
3471.928042  	93.088335 
3472.892466  	93.208982 
3473.856891  	93.226764 
3474.821315  	93.054478 
3475.785739  	93.067113 
3476.750164  	93.193916 
3477.714588  	93.227473 
3478.679013  	93.228367 
3479.643437  	93.176380 
3480.607862  	92.866982 
3481.572286  	92.697331 
3482.536711  	92.624972 
3483.501135  	92.920055 
3484.465560  	93.132382 
3485.429984  	93.050009 
3486.394408  	93.025469 
3487.358833  	92.986389 
3488.323257  	92.756645 
3489.287682  	92.877527 
3490.252106  	93.105514 
3491.216531  	93.113970 
3492.180955  	93.189027 
3493.145380  	93.262788 
3494.109804  	93.331165 
3495.074229  	93.214032 
3496.038653  	92.990766 
3497.003077  	92.824612 
3497.967502  	92.952626 
3498.931926  	93.085145 
3499.896351  	92.966898 
3500.860775  	92.928758 
3501.825200  	92.687169 
3502.789624  	92.234669 
3503.754049  	92.136377 
3504.718473  	92.541292 
3505.682898  	92.874654 
3506.647322  	93.100896 
3507.611746  	93.164366 
3508.576171  	92.900968 
3509.540595  	92.305630 
3510.505020  	92.447331 
3511.469444  	92.862454 
3512.433869  	92.916526 
3513.398293  	92.965386 
3514.362718  	93.093568 
3515.327142  	93.227336 
3516.291567  	93.185799 
3517.255991  	93.031999 
3518.220415  	92.982926 
3519.184840  	92.959729 
3520.149264  	93.055039 
3521.113689  	93.180966 
3522.078113  	92.934925 
3523.042538  	92.244726 
3524.006962  	91.929419 
3524.971387  	92.232948 
3525.935811  	92.404127 
3526.900236  	92.288380 
3527.864660  	92.106896 
3528.829085  	92.161883 
3529.793509  	92.330931 
3530.757933  	92.627475 
3531.722358  	92.645854 
3532.686782  	92.917377 
3533.651207  	93.152172 
3534.615631  	93.194853 
3535.580056  	92.845592 
3536.544480  	92.249508 
3537.508905  	92.457090 
3538.473329  	92.973088 
3539.437754  	92.957873 
3540.402178  	93.010146 
3541.366602  	93.043833 
3542.331027  	93.037249 
3543.295451  	92.731276 
3544.259876  	92.315011 
3545.224300  	91.547001 
3546.188725  	91.320623 
3547.153149  	91.312715 
3548.117574  	91.736140 
3549.081998  	92.589734 
3550.046423  	92.929733 
3551.010847  	92.850633 
3551.975271  	92.272887 
3552.939696  	91.961503 
3553.904120  	92.334317 
3554.868545  	92.705316 
3555.832969  	93.007046 
3556.797394  	92.957296 
3557.761818  	92.922088 
3558.726243  	93.031341 
3559.690667  	92.684192 
3560.655092  	92.232343 
3561.619516  	92.575405 
3562.583940  	92.589302 
3563.548365  	92.476377 
3564.512789  	92.394457 
3565.477214  	91.649541 
3566.441638  	89.560127 
3567.406063  	89.389600 
3568.370487  	89.843186 
3569.334912  	91.270458 
3570.299336  	92.378282 
3571.263761  	92.568067 
3572.228185  	92.929541 
3573.192609  	93.014118 
3574.157034  	92.936824 
3575.121458  	92.837288 
3576.085883  	92.873726 
3577.050307  	92.774213 
3578.014732  	92.813943 
3578.979156  	92.900351 
3579.943581  	92.516019 
3580.908005  	92.475616 
3581.872430  	92.881215 
3582.836854  	92.921355 
3583.801278  	92.769754 
3584.765703  	92.788899 
3585.730127  	92.438982 
3586.694552  	90.896852 
3587.658976  	89.915562 
3588.623401  	90.167556 
3589.587825  	91.183671 
3590.552250  	92.523367 
3591.516674  	92.882428 
3592.481099  	92.768021 
3593.445523  	92.148432 
3594.409948  	92.167607 
3595.374372  	91.756358 
3596.338796  	91.632188 
3597.303221  	92.508256 
3598.267645  	92.541758 
3599.232070  	92.216924 
3600.196494  	92.271678 
3601.160919  	92.004202 
3602.125343  	92.312737 
3603.089768  	92.531528 
3604.054192  	92.858129 
3605.018617  	93.041217 
3605.983041  	92.836636 
3606.947465  	91.820112 
3607.911890  	91.308874 
3608.876314  	91.543550 
3609.840739  	91.239262 
3610.805163  	92.193376 
3611.769588  	92.287098 
3612.734012  	91.131316 
3613.698437  	91.123635 
3614.662861  	91.331973 
3615.627286  	91.422485 
3616.591710  	92.388448 
3617.556134  	91.950673 
3618.520559  	91.076014 
3619.484983  	90.921792 
3620.449408  	90.899856 
3621.413832  	91.625162 
3622.378257  	92.359402 
3623.342681  	92.769233 
3624.307106  	92.948602 
3625.271530  	92.932293 
3626.235955  	92.500077 
3627.200379  	92.288110 
3628.164803  	91.473756 
3629.129228  	88.935079 
3630.093652  	89.292542 
3631.058077  	91.406999 
3632.022501  	92.337082 
3632.986926  	92.433622 
3633.951350  	91.829138 
3634.915775  	92.217475 
3635.880199  	92.907160 
3636.844624  	93.028551 
3637.809048  	92.817282 
3638.773472  	92.681314 
3639.737897  	92.905321 
3640.702321  	92.934849 
3641.666746  	92.672434 
3642.631170  	92.313089 
3643.595595  	92.569038 
3644.560019  	92.901516 
3645.524444  	92.619105 
3646.488868  	91.620738 
3647.453293  	89.975845 
3648.417717  	90.070870 
3649.382142  	89.824149 
3650.346566  	89.020919 
3651.310990  	89.225257 
3652.275415  	91.196130 
3653.239839  	92.513026 
3654.204264  	92.912459 
3655.168688  	92.823613 
3656.133113  	91.910820 
3657.097537  	91.620854 
3658.061962  	92.679412 
3659.026386  	92.932485 
3659.990811  	92.834499 
3660.955235  	93.021676 
3661.919659  	93.285058 
3662.884084  	93.295187 
3663.848508  	93.270238 
3664.812933  	93.211452 
3665.777357  	93.244046 
3666.741782  	93.277331 
3667.706206  	93.193091 
3668.670631  	92.294406 
3669.635055  	91.152306 
3670.599480  	90.505291 
3671.563904  	91.019665 
3672.528328  	92.539731 
3673.492753  	92.832691 
3674.457177  	91.713987 
3675.421602  	88.957234 
3676.386026  	89.354507 
3677.350451  	91.212677 
3678.314875  	92.003978 
3679.279300  	92.046433 
3680.243724  	92.108790 
3681.208149  	92.858246 
3682.172573  	93.226778 
3683.136997  	93.255671 
3684.101422  	93.120747 
3685.065846  	92.973561 
3686.030271  	93.152546 
3686.994695  	93.070001 
3687.959120  	92.305083 
3688.923544  	91.283042 
3689.887969  	91.678536 
3690.852393  	91.086860 
3691.816818  	90.968491 
3692.781242  	92.536291 
3693.745666  	92.991097 
3694.710091  	93.080839 
3695.674515  	93.214379 
3696.638940  	93.089970 
3697.603364  	93.138238 
3698.567789  	93.344486 
3699.532213  	93.250834 
3700.496638  	93.205228 
3701.461062  	92.566873 
3702.425487  	91.984631 
3703.389911  	92.823066 
3704.354335  	93.234210 
3705.318760  	93.140909 
3706.283184  	93.133199 
3707.247609  	93.285853 
3708.212033  	93.262370 
3709.176458  	92.605626 
3710.140882  	91.989610 
3711.105307  	91.769555 
3712.069731  	90.738735 
3713.034156  	90.802938 
3713.998580  	92.216470 
3714.963005  	92.343930 
3715.927429  	92.597628 
3716.891853  	93.225824 
3717.856278  	93.321055 
3718.820702  	92.676446 
3719.785127  	92.413140 
3720.749551  	93.016498 
3721.713976  	92.607328 
3722.678400  	91.336080 
3723.642825  	91.908891 
3724.607249  	92.273107 
3725.571674  	91.593165 
3726.536098  	91.390004 
3727.500522  	91.661762 
3728.464947  	92.611513 
3729.429371  	93.175732 
3730.393796  	93.100003 
3731.358220  	92.730059 
3732.322645  	91.932955 
3733.287069  	91.962064 
3734.251494  	91.419994 
3735.215918  	88.473046 
3736.180343  	88.753877 
3737.144767  	90.374206 
3738.109191  	91.277214 
3739.073616  	91.676506 
3740.038040  	92.280764 
3741.002465  	91.964078 
3741.966889  	92.091875 
3742.931314  	92.633517 
3743.895738  	91.719067 
3744.860163  	88.503511 
3745.824587  	90.543140 
3746.789012  	91.677827 
3747.753436  	91.766985 
3748.717860  	91.667562 
3749.682285  	91.239283 
3750.646709  	91.087277 
3751.611134  	90.684683 
3752.575558  	89.468769 
3753.539983  	91.046568 
3754.504407  	92.155309 
3755.468832  	92.720134 
3756.433256  	92.486106 
3757.397681  	92.437983 
3758.362105  	92.618780 
3759.326529  	91.759743 
3760.290954  	91.343411 
3761.255378  	92.692600 
3762.219803  	93.048349 
3763.184227  	93.109420 
3764.148652  	93.147746 
3765.113076  	92.756288 
3766.077501  	91.970422 
3767.041925  	92.613147 
3768.006350  	93.166230 
3768.970774  	92.916563 
3769.935199  	91.962751 
3770.899623  	92.016291 
3771.864047  	92.791536 
3772.828472  	93.160074 
3773.792896  	93.277151 
3774.757321  	93.379575 
3775.721745  	93.511778 
3776.686170  	93.623463 
3777.650594  	93.510459 
3778.615019  	93.029758 
3779.579443  	92.159168 
3780.543868  	92.322218 
3781.508292  	93.151281 
3782.472716  	93.296875 
3783.437141  	93.339727 
3784.401565  	92.964524 
3785.365990  	92.490672 
3786.330414  	92.832059 
3787.294839  	93.221019 
3788.259263  	93.418056 
3789.223688  	93.427570 
3790.188112  	93.437019 
3791.152537  	93.535331 
3792.116961  	93.530732 
3793.081385  	93.545079 
3794.045810  	93.549694 
3795.010234  	93.387186 
3795.974659  	92.846390 
3796.939083  	92.053980 
3797.903508  	92.334964 
3798.867932  	92.888562 
3799.832357  	92.984229 
3800.796781  	92.060901 
3801.761206  	90.647562 
3802.725630  	91.098390 
3803.690054  	92.133709 
3804.654479  	93.028021 
3805.618903  	93.174144 
3806.583328  	92.500461 
3807.547752  	91.813644 
3808.512177  	92.736345 
3809.476601  	93.166511 
3810.441026  	93.250255 
3811.405450  	93.425505 
3812.369875  	93.498942 
3813.334299  	93.553213 
3814.298723  	93.472698 
3815.263148  	92.859352 
3816.227572  	91.423813 
3817.191997  	91.807654 
3818.156421  	92.692866 
3819.120846  	92.682830 
3820.085270  	92.095827 
3821.049695  	90.602607 
3822.014119  	90.395123 
3822.978544  	91.970376 
3823.942968  	92.573233 
3824.907392  	92.840313 
3825.871817  	92.828520 
3826.836241  	92.313640 
3827.800666  	92.373774 
3828.765090  	92.980276 
3829.729515  	93.305094 
3830.693939  	93.197004 
3831.658364  	92.474111 
3832.622788  	92.465268 
3833.587213  	93.033744 
3834.551637  	92.630398 
3835.516062  	92.058130 
3836.480486  	92.685477 
3837.444910  	92.287780 
3838.409335  	91.063689 
3839.373759  	91.512888 
3840.338184  	91.037353 
3841.302608  	91.113658 
3842.267033  	92.415782 
3843.231457  	92.474834 
3844.195882  	91.727694 
3845.160306  	92.571640 
3846.124731  	93.160266 
3847.089155  	93.309165 
3848.053579  	93.356903 
3849.018004  	93.178381 
3849.982428  	92.716486 
3850.946853  	92.664366 
3851.911277  	91.900625 
3852.875702  	90.319363 
3853.840126  	89.713273 
3854.804551  	89.970742 
3855.768975  	91.820142 
3856.733400  	92.026619 
3857.697824  	91.678368 
3858.662248  	92.684941 
3859.626673  	93.307473 
3860.591097  	93.283241 
3861.555522  	92.724568 
3862.519946  	92.181477 
3863.484371  	92.449868 
3864.448795  	91.732986 
3865.413220  	90.737884 
3866.377644  	92.078221 
3867.342069  	93.088137 
3868.306493  	93.018825 
3869.270917  	91.824240 
3870.235342  	89.924464 
3871.199766  	91.158744 
3872.164191  	92.351564 
3873.128615  	92.633429 
3874.093040  	91.441394 
3875.057464  	91.445345 
3876.021889  	92.969655 
3876.986313  	93.381368 
3877.950738  	93.510795 
3878.915162  	93.442085 
3879.879586  	92.464817 
3880.844011  	90.714638 
3881.808435  	91.789649 
3882.772860  	92.721625 
3883.737284  	92.529802 
3884.701709  	92.500613 
3885.666133  	91.719955 
3886.630558  	91.321929 
3887.594982  	92.748334 
3888.559407  	93.290376 
3889.523831  	93.353544 
3890.488256  	92.962694 
3891.452680  	91.851951 
3892.417104  	91.809623 
3893.381529  	92.604765 
3894.345953  	92.514148 
3895.310378  	92.838917 
3896.274802  	93.368772 
3897.239227  	93.446751 
3898.203651  	92.854235 
3899.168076  	91.822150 
3900.132500  	91.632782 
3901.096925  	92.303666 
3902.061349  	91.166526 
3903.025773  	91.149725 
3903.990198  	91.517677 
3904.954622  	91.058398 
3905.919047  	91.394637 
3906.883471  	92.184962 
3907.847896  	93.188777 
3908.812320  	93.518376 
3909.776745  	93.537706 
3910.741169  	93.530284 
3911.705594  	93.521763 
3912.670018  	93.490314 
3913.634442  	93.482143 
3914.598867  	93.526252 
3915.563291  	93.416205 
3916.527716  	92.542052 
3917.492140  	91.814369 
3918.456565  	92.661155 
3919.420989  	92.899057 
3920.385414  	92.258216 
3921.349838  	92.800598 
3922.314263  	93.460700 
3923.278687  	93.168551 
3924.243111  	92.392461 
3925.207536  	91.911012 
3926.171960  	92.552120 
3927.136385  	93.369726 
3928.100809  	93.463341 
3929.065234  	93.261153 
3930.029658  	92.954292 
3930.994083  	92.769672 
3931.958507  	92.368175 
3932.922932  	91.962200 
3933.887356  	92.676677 
3934.851780  	93.095203 
3935.816205  	93.412110 
3936.780629  	93.585235 
3937.745054  	93.500034 
3938.709478  	93.291943 
3939.673903  	93.437013 
3940.638327  	93.541454 
3941.602752  	93.401674 
3942.567176  	92.542623 
3943.531601  	92.095959 
3944.496025  	92.905925 
3945.460449  	93.327366 
3946.424874  	93.404501 
3947.389298  	92.836050 
3948.353723  	92.472427 
3949.318147  	92.753455 
3950.282572  	92.490451 
3951.246996  	92.822598 
3952.211421  	93.367384 
3953.175845  	93.324438 
3954.140270  	93.426672 
3955.104694  	93.523756 
3956.069119  	93.437804 
3957.033543  	93.280019 
3957.997967  	93.273810 
3958.962392  	93.359050 
3959.926816  	93.435526 
3960.891241  	93.403566 
3961.855665  	93.001945 
3962.820090  	92.947282 
3963.784514  	93.418129 
3964.748939  	93.477004 
3965.713363  	93.530953 
3966.677788  	93.611148 
3967.642212  	93.607849 
3968.606636  	93.457621 
3969.571061  	93.294776 
3970.535485  	93.413692 
3971.499910  	93.483572 
3972.464334  	93.282060 
3973.428759  	93.354420 
3974.393183  	93.472548 
3975.357608  	93.338616 
3976.322032  	93.178827 
3977.286457  	93.348356 
3978.250881  	93.593523 
3979.215305  	93.598661 
3980.179730  	93.540516 
3981.144154  	93.501397 
3982.108579  	93.455409 
3983.073003  	93.500092 
3984.037428  	93.632103 
3985.001852  	93.637282 
3985.966277  	93.598056 
3986.930701  	93.623222 
3987.895126  	93.624212 
3988.859550  	93.579490 
3989.823974  	93.462681 
3990.788399  	93.269021 
3991.752823  	93.367812 
3992.717248  	93.539487 
3993.681672  	93.562732 
3994.646097  	93.467039 
3995.610521  	93.359720 
3996.574946  	93.545540 
3997.539370  	93.623845 
3998.503795  	93.593114 
3999.468219  	93.578675 
4000.432643  	93.630181 
4001.397068  	93.646954 
4002.361492  	93.624910 
4003.325917  	93.635125 
4004.290341  	93.674594 
4005.254766  	93.659241 
4006.219190  	93.592442 
4007.183615  	93.563968 
4008.148039  	93.512342 
4009.112464  	93.399937 
4010.076888  	93.509420 
4011.041313  	93.625933 
4012.005737  	93.652899 
4012.970161  	93.593707 
4013.934586  	93.596181 
4014.899010  	93.607721 
4015.863435  	93.615998 
4016.827859  	93.626432 
4017.792284  	93.629147 
4018.756708  	93.633321 
4019.721133  	93.576837 
4020.685557  	93.559978 
4021.649982  	93.623859 
4022.614406  	93.639373 
4023.578830  	93.591043 
4024.543255  	93.545887 
4025.507679  	93.495703 
4026.472104  	93.549498 
4027.436528  	93.617285 
4028.400953  	93.581472 
4029.365377  	93.577589 
4030.329802  	93.593208 
4031.294226  	93.585974 
4032.258651  	93.574171 
4033.223075  	93.632357 
4034.187499  	93.689355 
4035.151924  	93.681580 
4036.116348  	93.664025 
4037.080773  	93.653349 
4038.045197  	93.659926 
4039.009622  	93.659966 
4039.974046  	93.623946 
4040.938471  	93.593932 
4041.902895  	93.620604 
4042.867320  	93.682534 
4043.831744  	93.592066 
4044.796168  	93.472583 
4045.760593  	93.457050 
4046.725017  	93.570778 
4047.689442  	93.640731 
4048.653866  	93.700306 
4049.618291  	93.721538 
4050.582715  	93.692470 
4051.547140  	93.650915 
4052.511564  	93.625574 
4053.475989  	93.630696 
4054.440413  	93.633147 
4055.404837  	93.581611 
4056.369262  	93.626252 
4057.333686  	93.663104 
4058.298111  	93.636497 
4059.262535  	93.602350 
4060.226960  	93.572622 
4061.191384  	93.572992 
4062.155809  	93.640108 
4063.120233  	93.685671 
4064.084658  	93.690285 
4065.049082  	93.674323 
4066.013506  	93.621354 
4066.977931  	93.581965 
4067.942355  	93.566616 
4068.906780  	93.593909 
4069.871204  	93.653776 
4070.835629  	93.689815 
4071.800053  	93.687372 
4072.764478  	93.609754 
4073.728902  	93.557848 
4074.693327  	93.612214 
4075.657751  	93.656014 
4076.622176  	93.613709 
4077.586600  	93.617650 
4078.551024  	93.611264 
4079.515449  	93.590040 
4080.479873  	93.615374 
4081.444298  	93.644622 
4082.408722  	93.608258 
4083.373147  	93.551605 
4084.337571  	93.560730 
4085.301996  	93.600674 
4086.266420  	93.591071 
4087.230845  	93.565925 
4088.195269  	93.531928 
4089.159693  	93.538578 
4090.124118  	93.556963 
4091.088542  	93.588548 
4092.052967  	93.666641 
4093.017391  	93.667987 
4093.981816  	93.638778 
4094.946240  	93.629844 
4095.910665  	93.665066 
4096.875089  	93.746976 
4097.839514  	93.710346 
4098.803938  	93.622459 
4099.768362  	93.635820 
4100.732787  	93.654913 
4101.697211  	93.631071 
4102.661636  	93.649217 
4103.626060  	93.671392 
4104.590485  	93.631884 
4105.554909  	93.548937 
4106.519334  	93.554874 
4107.483758  	93.588824 
4108.448183  	93.645962 
4109.412607  	93.659250 
4110.377031  	93.619521 
4111.341456  	93.618800 
4112.305880  	93.614396 
4113.270305  	93.622417 
4114.234729  	93.659953 
4115.199154  	93.714145 
4116.163578  	93.664193 
4117.128003  	93.620774 
4118.092427  	93.618064 
4119.056852  	93.584350 
4120.021276  	93.590875 
4120.985700  	93.650741 
4121.950125  	93.686619 
4122.914549  	93.647926 
4123.878974  	93.641272 
4124.843398  	93.660182 
4125.807823  	93.697369 
4126.772247  	93.670457 
4127.736672  	93.644214 
4128.701096  	93.650347 
4129.665521  	93.651158 
4130.629945  	93.615186 
4131.594370  	93.643062 
4132.558794  	93.701462 
4133.523218  	93.659939 
4134.487643  	93.624380 
4135.452067  	93.659727 
4136.416492  	93.675240 
4137.380916  	93.668516 
4138.345341  	93.655886 
4139.309765  	93.630653 
4140.274190  	93.698727 
4141.238614  	93.745468 
4142.203039  	93.725869 
4143.167463  	93.748181 
4144.131887  	93.720927 
4145.096312  	93.718613 
4146.060736  	93.712875 
4147.025161  	93.727710 
4147.989585  	93.718485 
4148.954010  	93.669320 
4149.918434  	93.646472 
4150.882859  	93.688027 
4151.847283  	93.680075 
4152.811708  	93.645273 
4153.776132  	93.681514 
4154.740556  	93.725984 
4155.704981  	93.715508 
4156.669405  	93.669193 
4157.633830  	93.657643 
4158.598254  	93.672133 
4159.562679  	93.642914 
4160.527103  	93.625520 
4161.491528  	93.665793 
4162.455952  	93.679540 
4163.420377  	93.696441 
4164.384801  	93.669295 
4165.349225  	93.660728 
4166.313650  	93.685594 
4167.278074  	93.650585 
4168.242499  	93.667553 
4169.206923  	93.699255 
4170.171348  	93.697304 
4171.135772  	93.681570 
4172.100197  	93.678740 
4173.064621  	93.679781 
4174.029046  	93.704492 
4174.993470  	93.681049 
4175.957894  	93.708655 
4176.922319  	93.785064 
4177.886743  	93.758265 
4178.851168  	93.697542 
4179.815592  	93.647060 
4180.780017  	93.640890 
4181.744441  	93.675368 
4182.708866  	93.703214 
4183.673290  	93.704794 
4184.637715  	93.683217 
4185.602139  	93.691288 
4186.566563  	93.659250 
4187.530988  	93.687344 
4188.495412  	93.703822 
4189.459837  	93.727546 
4190.424261  	93.679035 
4191.388686  	93.698344 
4192.353110  	93.746116 
4193.317535  	93.738508 
4194.281959  	93.734123 
4195.246384  	93.741447 
4196.210808  	93.735300 
4197.175233  	93.700822 
4198.139657  	93.718481 
4199.104081  	93.791048 
4200.068506  	93.763088 
4201.032930  	93.691605 
4201.997355  	93.741831 
4202.961779  	93.815278 
4203.926204  	93.750026 
4204.890628  	93.674646 
4205.855053  	93.704585 
4206.819477  	93.726764 
4207.783902  	93.710030 
4208.748326  	93.687808 
4209.712750  	93.730559 
4210.677175  	93.742992 
4211.641599  	93.710600 
4212.606024  	93.730866 
4213.570448  	93.771042 
4214.534873  	93.767154 
4215.499297  	93.729322 
4216.463722  	93.698536 
4217.428146  	93.657186 
4218.392571  	93.704191 
4219.356995  	93.740550 
4220.321419  	93.729200 
4221.285844  	93.739918 
4222.250268  	93.771096 
4223.214693  	93.724353 
4224.179117  	93.685115 
4225.143542  	93.708629 
4226.107966  	93.700813 
4227.072391  	93.706269 
4228.036815  	93.651957 
4229.001240  	93.630662 
4229.965664  	93.639585 
4230.930088  	93.663076 
4231.894513  	93.736438 
4232.858937  	93.740722 
4233.823362  	93.731463 
4234.787786  	93.765298 
4235.752211  	93.745813 
4236.716635  	93.711908 
4237.681060  	93.715047 
4238.645484  	93.684187 
4239.609909  	93.658106 
4240.574333  	93.684627 
4241.538757  	93.771094 
4242.503182  	93.823115 
4243.467606  	93.798712 
4244.432031  	93.690401 
4245.396455  	93.679363 
4246.360880  	93.758276 
4247.325304  	93.799031 
4248.289729  	93.808781 
4249.254153  	93.808349 
4250.218578  	93.780456 
4251.183002  	93.746605 
4252.147427  	93.748865 
4253.111851  	93.738444 
4254.076275  	93.662832 
4255.040700  	93.674788 
4256.005124  	93.747610 
4256.969549  	93.812779 
4257.933973  	93.797395 
4258.898398  	93.727094 
4259.862822  	93.688535 
4260.827247  	93.719732 
4261.791671  	93.750004 
4262.756096  	93.784904 
4263.720520  	93.775820 
4264.684944  	93.720359 
4265.649369  	93.706296 
4266.613793  	93.732639 
4267.578218  	93.691734 
4268.542642  	93.722713 
4269.507067  	93.739608 
4270.471491  	93.651722 
4271.435916  	93.645580 
4272.400340  	93.654267 
4273.364765  	93.665493 
4274.329189  	93.731589 
4275.293613  	93.728994 
4276.258038  	93.687322 
4277.222462  	93.673731 
4278.186887  	93.655383 
4279.151311  	93.623569 
4280.115736  	93.633523 
4281.080160  	93.669325 
4282.044585  	93.689116 
4283.009009  	93.670039 
4283.973434  	93.707961 
4284.937858  	93.707878 
4285.902282  	93.650369 
4286.866707  	93.645483 
4287.831131  	93.679702 
4288.795556  	93.726875 
4289.759980  	93.728819 
4290.724405  	93.698142 
4291.688829  	93.721796 
4292.653254  	93.702321 
4293.617678  	93.701982 
4294.582103  	93.715825 
4295.546527  	93.736884 
4296.510951  	93.726189 
4297.475376  	93.718641 
4298.439800  	93.747095 
4299.404225  	93.728316 
4300.368649  	93.695452 
4301.333074  	93.666024 
4302.297498  	93.644435 
4303.261923  	93.653866 
4304.226347  	93.708659 
4305.190772  	93.855658 
4306.155196  	93.786540 
4307.119620  	93.738200 
4308.084045  	93.724640 
4309.048469  	93.725502 
4310.012894  	93.726969 
4310.977318  	93.741557 
4311.941743  	93.727408 
4312.906167  	93.721551 
4313.870592  	93.725003 
4314.835016  	93.755928 
4315.799441  	93.757717 
4316.763865  	93.783069 
4317.728290  	93.817810 
4318.692714  	93.844748 
4319.657138  	93.784965 
4320.621563  	93.761140 
4321.585987  	93.767083 
4322.550412  	93.762363 
4323.514836  	93.821280 
4324.479261  	93.857478 
4325.443685  	93.765345 
4326.408110  	93.782830 
4327.372534  	93.818724 
4328.336959  	93.774471 
4329.301383  	93.744328 
4330.265807  	93.734502 
4331.230232  	93.757975 
4332.194656  	93.797490 
4333.159081  	93.786351 
4334.123505  	93.773453 
4335.087930  	93.827466 
4336.052354  	93.881913 
4337.016779  	93.802295 
4337.981203  	93.773352 
4338.945628  	93.772902 
4339.910052  	93.772378 
4340.874476  	93.768397 
4341.838901  	93.781433 
4342.803325  	93.750326 
4343.767750  	93.750560 
4344.732174  	93.768883 
4345.696599  	93.745607 
4346.661023  	93.744046 
4347.625448  	93.761547 
4348.589872  	93.704506 
4349.554297  	93.658051 
4350.518721  	93.730082 
4351.483145  	93.826322 
4352.447570  	93.787869 
4353.411994  	93.726019 
4354.376419  	93.704437 
4355.340843  	93.720726 
4356.305268  	93.769320 
4357.269692  	93.810490 
4358.234117  	93.840672 
4359.198541  	93.803982 
4360.162966  	93.806746 
4361.127390  	93.825526 
4362.091814  	93.763881 
4363.056239  	93.718050 
4364.020663  	93.779672 
4364.985088  	93.796773 
4365.949512  	93.783423 
4366.913937  	93.759285 
4367.878361  	93.657293 
4368.842786  	93.646692 
4369.807210  	93.749186 
4370.771635  	93.776252 
4371.736059  	93.739083 
4372.700484  	93.782544 
4373.664908  	93.833177 
4374.629332  	93.793001 
4375.593757  	93.775718 
4376.558181  	93.812942 
4377.522606  	93.830485 
4378.487030  	93.781208 
4379.451455  	93.733368 
4380.415879  	93.740581 
4381.380304  	93.721956 
4382.344728  	93.695626 
4383.309153  	93.710252 
4384.273577  	93.749920 
4385.238001  	93.747941 
4386.202426  	93.698519 
4387.166850  	93.761194 
4388.131275  	93.785957 
4389.095699  	93.704617 
4390.060124  	93.652864 
4391.024548  	93.679588 
4391.988973  	93.754797 
4392.953397  	93.775197 
4393.917822  	93.748845 
4394.882246  	93.756835 
4395.846670  	93.776127 
4396.811095  	93.719265 
4397.775519  	93.813795 
4398.739944  	93.912709 
4399.704368  	93.896802 
4400.668793  	93.880388 
4401.633217  	93.772934 
4402.597642  	93.661283 
4403.562066  	93.793304 
4404.526491  	93.851576 
4405.490915  	93.814574 
4406.455339  	93.741840 
4407.419764  	93.719952 
4408.384188  	93.766027 
4409.348613  	93.821755 
4410.313037  	93.785602 
4411.277462  	93.725868 
4412.241886  	93.750407 
4413.206311  	93.783556 
4414.170735  	93.785975 
4415.135160  	93.762944 
4416.099584  	93.734172 
4417.064008  	93.718387 
4418.028433  	93.711693 
4418.992857  	93.728358 
4419.957282  	93.713660 
4420.921706  	93.725673 
4421.886131  	93.812291 
4422.850555  	93.830057 
4423.814980  	93.734176 
4424.779404  	93.664167 
4425.743829  	93.657722 
4426.708253  	93.681384 
4427.672677  	93.702289 
4428.637102  	93.686896 
4429.601526  	93.706616 
4430.565951  	93.754734 
4431.530375  	93.744796 
4432.494800  	93.737818 
4433.459224  	93.692482 
4434.423649  	93.681594 
4435.388073  	93.721065 
4436.352498  	93.826492 
4437.316922  	93.880000 
4438.281347  	93.826930 
4439.245771  	93.748076 
4440.210195  	93.747715 
4441.174620  	93.767030 
4442.139044  	93.741461 
4443.103469  	93.765724 
4444.067893  	93.783145 
4445.032318  	93.802958 
4445.996742  	93.796806 
4446.961167  	93.727785 
4447.925591  	93.713363 
4448.890016  	93.680449 
4449.854440  	93.640406 
4450.818864  	93.701507 
4451.783289  	93.753887 
4452.747713  	93.710601 
4453.712138  	93.743341 
4454.676562  	93.782719 
4455.640987  	93.770735 
4456.605411  	93.755527 
4457.569836  	93.753165 
4458.534260  	93.693847 
4459.498685  	93.678437 
4460.463109  	93.693385 
4461.427533  	93.698754 
4462.391958  	93.684669 
4463.356382  	93.683618 
4464.320807  	93.744196 
4465.285231  	93.762422 
4466.249656  	93.746439 
4467.214080  	93.753362 
4468.178505  	93.750995 
4469.142929  	93.759424 
4470.107354  	93.782099 
4471.071778  	93.770723 
4472.036202  	93.815102 
4473.000627  	93.879129 
4473.965051  	93.816886 
4474.929476  	93.710279 
4475.893900  	93.723294 
4476.858325  	93.768943 
4477.822749  	93.840385 
4478.787174  	93.851531 
4479.751598  	93.839363 
4480.716023  	93.797477 
4481.680447  	93.752520 
4482.644871  	93.774137 
4483.609296  	93.773971 
4484.573720  	93.792370 
4485.538145  	93.768377 
4486.502569  	93.776781 
4487.466994  	93.786870 
4488.431418  	93.839438 
4489.395843  	93.830396 
4490.360267  	93.783922 
4491.324692  	93.730369 
4492.289116  	93.720441 
4493.253541  	93.773385 
4494.217965  	93.844868 
4495.182389  	93.822169 
4496.146814  	93.775027 
4497.111238  	93.802546 
4498.075663  	93.805492 
4499.040087  	93.837650 
4500.004512  	93.847770 
4500.968936  	93.843245 
4501.933361  	93.835555 
4502.897785  	93.818237 
4503.862210  	93.822519 
4504.826634  	93.811104 
4505.791058  	93.852674 
4506.755483  	93.825764 
4507.719907  	93.794055 
4508.684332  	93.838960 
4509.648756  	93.807335 
4510.613181  	93.753349 
4511.577605  	93.779784 
4512.542030  	93.821867 
4513.506454  	93.828725 
4514.470879  	93.786556 
4515.435303  	93.734727 
4516.399727  	93.781280 
4517.364152  	93.811475 
4518.328576  	93.827260 
4519.293001  	93.835486 
4520.257425  	93.804293 
4521.221850  	93.771346 
4522.186274  	93.845869 
4523.150699  	93.881097 
4524.115123  	93.829890 
4525.079548  	93.818654 
4526.043972  	93.822378 
4527.008396  	93.776817 
4527.972821  	93.711782 
4528.937245  	93.786388 
4529.901670  	93.807989 
4530.866094  	93.757578 
4531.830519  	93.756837 
4532.794943  	93.760505 
4533.759368  	93.799409 
4534.723792  	93.834602 
4535.688217  	93.777457 
4536.652641  	93.785939 
4537.617065  	93.800928 
4538.581490  	93.869682 
4539.545914  	93.878840 
4540.510339  	93.893401 
4541.474763  	93.845711 
4542.439188  	93.781649 
4543.403612  	93.779209 
4544.368037  	93.774090 
4545.332461  	93.742006 
4546.296886  	93.781889 
4547.261310  	93.766040 
4548.225734  	93.853902 
4549.190159  	93.917914 
4550.154583  	93.866282 
4551.119008  	93.795079 
4552.083432  	93.783482 
4553.047857  	93.758473 
4554.012281  	93.809402 
4554.976706  	93.885723 
4555.941130  	93.938672 
4556.905555  	93.889589 
4557.869979  	93.867267 
4558.834404  	93.907148 
4559.798828  	93.853396 
4560.763252  	93.762553 
4561.727677  	93.704114 
4562.692101  	93.742336 
4563.656526  	93.770463 
4564.620950  	93.783707 
4565.585375  	93.781329 
4566.549799  	93.774754 
4567.514224  	93.793701 
4568.478648  	93.796356 
4569.443073  	93.740938 
4570.407497  	93.735531 
4571.371921  	93.787636 
4572.336346  	93.785760 
4573.300770  	93.804641 
4574.265195  	93.775263 
4575.229619  	93.791574 
4576.194044  	93.789675 
4577.158468  	93.781069 
4578.122893  	93.888339 
4579.087317  	93.893334 
4580.051742  	93.794419 
4581.016166  	93.814792 
4581.980590  	93.855447 
4582.945015  	93.863587 
4583.909439  	93.839498 
4584.873864  	93.853792 
4585.838288  	93.838782 
4586.802713  	93.874675 
4587.767137  	93.868264 
4588.731562  	93.831476 
4589.695986  	93.857818 
4590.660411  	93.864451 
4591.624835  	93.836386 
4592.589259  	93.810575 
4593.553684  	93.849842 
4594.518108  	93.841940 
4595.482533  	93.852157 
4596.446957  	93.841229 
4597.411382  	93.725065 
4598.375806  	93.731972 
4599.340231  	93.809937 
4600.304655  	93.853415 
4601.269080  	93.808947 
4602.233504  	93.762741 
4603.197928  	93.833835 
4604.162353  	93.861515 
4605.126777  	93.807812 
4606.091202  	93.810466 
4607.055626  	93.811733 
4608.020051  	93.804144 
4608.984475  	93.782311 
4609.948900  	93.808907 
4610.913324  	93.803190 
4611.877749  	93.795064 
4612.842173  	93.846789 
4613.806598  	93.858724 
4614.771022  	93.854784 
4615.735446  	93.861406 
4616.699871  	93.822832 
4617.664295  	93.865324 
4618.628720  	93.845566 
4619.593144  	93.835906 
4620.557569  	93.848513 
4621.521993  	93.756454 
4622.486418  	93.707857 
4623.450842  	93.774357 
4624.415267  	93.831384 
4625.379691  	93.877146 
4626.344115  	93.844910 
4627.308540  	93.840130 
4628.272964  	93.841983 
4629.237389  	93.834355 
4630.201813  	93.758229 
4631.166238  	93.710084 
4632.130662  	93.803396 
4633.095087  	93.861175 
4634.059511  	93.831929 
4635.023936  	93.898268 
4635.988360  	93.931012 
4636.952784  	93.842790 
4637.917209  	93.830187 
4638.881633  	93.812662 
4639.846058  	93.705252 
4640.810482  	93.723486 
4641.774907  	93.763443 
4642.739331  	93.700348 
4643.703756  	93.701203 
4644.668180  	93.798121 
4645.632605  	93.759634 
4646.597029  	93.767798 
4647.561453  	93.736193 
4648.525878  	93.745584 
4649.490302  	93.806861 
4650.454727  	93.848026 
4651.419151  	93.915255 
4652.383576  	93.873589 
4653.348000  	93.825293 
4654.312425  	93.827280 
4655.276849  	93.880357 
4656.241274  	93.891792 
4657.205698  	93.881899 
4658.170122  	93.860017 
4659.134547  	93.829830 
4660.098971  	93.786918 
4661.063396  	93.825134 
4662.027820  	93.869195 
4662.992245  	93.811271 
4663.956669  	93.809741 
4664.921094  	93.898352 
4665.885518  	93.937627 
4666.849943  	93.902989 
4667.814367  	93.769545 
4668.778791  	93.721333 
4669.743216  	93.753994 
4670.707640  	93.764841 
4671.672065  	93.769049 
4672.636489  	93.800153 
4673.600914  	93.792609 
4674.565338  	93.776711 
4675.529763  	93.783408 
4676.494187  	93.824877 
4677.458612  	93.858356 
4678.423036  	93.854090 
4679.387461  	93.917603 
4680.351885  	93.866527 
4681.316309  	93.727664 
4682.280734  	93.705872 
4683.245158  	93.696392 
4684.209583  	93.671046 
4685.174007  	93.788659 
4686.138432  	93.812205 
4687.102856  	93.795147 
4688.067281  	93.811561 
4689.031705  	93.747603 
4689.996130  	93.807475 
4690.960554  	93.811733 
4691.924978  	93.748814 
4692.889403  	93.754718 
4693.853827  	93.732977 
4694.818252  	93.742011 
4695.782676  	93.736943 
4696.747101  	93.716408 
4697.711525  	93.818129 
4698.675950  	93.842154 
4699.640374  	93.736607 