##TITLE=No Description
##DATA TYPE=INFRARED SPECTRUM
##XUNITS=1/CM
##YUNITS=%T
400.236149  	101.306287 
401.200574  	97.155322 
402.164998  	91.377758 
403.129423  	83.990165 
404.093847  	79.885881 
405.058272  	78.673945 
406.022696  	86.169028 
406.987120  	78.158058 
407.951545  	83.721525 
408.915969  	81.486417 
409.880394  	85.755109 
410.844818  	91.122457 
411.809243  	91.479549 
412.773667  	94.224333 
413.738092  	86.188967 
414.702516  	80.819038 
415.666941  	82.191768 
416.631365  	85.871103 
417.595789  	89.545264 
418.560214  	98.126052 
419.524638  	92.626967 
420.489063  	82.711364 
421.453487  	80.923845 
422.417912  	83.126027 
423.382336  	83.710129 
424.346761  	80.255128 
425.311185  	76.722732 
426.275610  	79.137987 
427.240034  	81.467847 
428.204458  	82.823722 
429.168883  	83.294441 
430.133307  	81.435160 
431.097732  	79.143491 
432.062156  	77.500530 
433.026581  	75.849487 
433.991005  	76.299046 
434.955430  	78.248060 
435.919854  	79.621995 
436.884279  	79.301281 
437.848703  	78.611178 
438.813127  	79.428996 
439.777552  	81.069564 
440.741976  	80.802859 
441.706401  	81.651300 
442.670825  	83.780742 
443.635250  	83.501296 
444.599674  	82.729099 
445.564099  	82.695443 
446.528523  	82.112258 
447.492948  	83.312858 
448.457372  	85.387779 
449.421796  	83.971270 
450.386221  	82.081398 
451.350645  	83.247361 
452.315070  	83.668165 
453.279494  	82.664100 
454.243919  	82.841003 
455.208343  	83.196552 
456.172768  	82.496687 
457.137192  	81.825783 
458.101617  	82.390836 
459.066041  	83.319413 
460.030466  	83.039259 
460.994890  	82.503787 
461.959314  	82.492035 
462.923739  	83.363042 
463.888163  	83.012993 
464.852588  	82.398819 
465.817012  	83.111993 
466.781437  	83.412586 
467.745861  	82.843439 
468.710286  	82.078112 
469.674710  	81.451280 
470.639135  	81.522546 
471.603559  	81.463503 
472.567983  	81.407359 
473.532408  	82.226145 
474.496832  	82.110245 
475.461257  	81.774383 
476.425681  	81.106730 
477.390106  	80.858597 
478.354530  	81.706286 
479.318955  	81.693783 
480.283379  	81.513957 
481.247804  	82.030791 
482.212228  	81.665625 
483.176652  	81.797953 
484.141077  	82.101988 
485.105501  	81.387843 
486.069926  	80.864129 
487.034350  	80.963013 
487.998775  	80.602551 
488.963199  	80.641062 
489.927624  	81.083640 
490.892048  	80.235042 
491.856473  	79.544032 
492.820897  	79.952139 
493.785321  	80.297835 
494.749746  	79.633463 
495.714170  	79.144772 
496.678595  	78.967057 
497.643019  	78.725857 
498.607444  	78.956949 
499.571868  	78.726259 
500.536293  	78.118908 
501.500717  	77.748782 
502.465142  	77.743435 
503.429566  	78.151524 
504.393990  	77.703639 
505.358415  	76.973211 
506.322839  	76.554094 
507.287264  	77.402790 
508.251688  	79.013769 
509.216113  	80.289215 
510.180537  	80.451090 
511.144962  	80.822335 
512.109386  	81.274729 
513.073811  	81.482116 
514.038235  	81.745328 
515.002660  	81.314367 
515.967084  	80.724247 
516.931508  	80.700480 
517.895933  	81.152162 
518.860357  	81.425771 
519.824782  	80.869697 
520.789206  	80.842709 
521.753631  	81.495838 
522.718055  	81.620852 
523.682480  	81.382075 
524.646904  	81.229770 
525.611329  	81.003254 
526.575753  	81.112664 
527.540177  	81.596294 
528.504602  	81.909721 
529.469026  	82.134545 
530.433451  	82.301896 
531.397875  	82.491711 
532.362300  	82.357850 
533.326724  	82.494760 
534.291149  	82.497714 
535.255573  	82.512178 
536.219998  	82.440587 
537.184422  	82.887122 
538.148846  	82.982715 
539.113271  	82.799063 
540.077695  	82.959778 
541.042120  	83.198258 
542.006544  	83.207042 
542.970969  	83.174154 
543.935393  	83.324576 
544.899818  	83.210185 
545.864242  	83.083387 
546.828667  	82.661195 
547.793091  	82.460826 
548.757515  	82.424301 
549.721940  	82.752981 
550.686364  	83.047232 
551.650789  	83.304305 
552.615213  	83.055342 
553.579638  	83.091962 
554.544062  	82.995945 
555.508487  	82.844594 
556.472911  	82.665557 
557.437336  	82.490048 
558.401760  	82.536232 
559.366184  	82.843817 
560.330609  	82.931820 
561.295033  	82.967304 
562.259458  	83.102642 
563.223882  	82.885773 
564.188307  	82.679930 
565.152731  	82.889829 
566.117156  	82.979775 
567.081580  	82.827391 
568.046005  	82.605783 
569.010429  	82.605023 
569.974853  	82.868513 
570.939278  	82.862449 
571.903702  	82.667283 
572.868127  	82.675635 
573.832551  	82.646788 
574.796976  	82.711662 
575.761400  	82.290796 
576.725825  	82.361756 
577.690249  	82.584889 
578.654674  	82.699110 
579.619098  	82.771380 
580.583523  	82.644945 
581.547947  	82.694991 
582.512371  	82.875054 
583.476796  	82.735006 
584.441220  	82.571746 
585.405645  	82.708097 
586.370069  	83.054980 
587.334494  	82.965114 
588.298918  	82.917414 
589.263343  	82.688951 
590.227767  	82.574906 
591.192192  	82.416425 
592.156616  	82.429859 
593.121040  	82.582339 
594.085465  	82.623941 
595.049889  	82.512382 
596.014314  	82.539973 
596.978738  	82.568321 
597.943163  	82.631745 
598.907587  	82.583637 
599.872012  	82.310766 
600.836436  	82.355000 
601.800861  	82.477819 
602.765285  	82.365330 
603.729709  	82.298207 
604.694134  	82.375034 
605.658558  	82.380904 
606.622983  	82.363375 
607.587407  	82.150159 
608.551832  	81.998677 
609.516256  	82.193324 
610.480681  	82.036164 
611.445105  	81.845290 
612.409530  	81.906471 
613.373954  	82.144444 
614.338378  	81.930885 
615.302803  	81.574959 
616.267227  	81.552987 
617.231652  	81.944818 
618.196076  	81.912216 
619.160501  	81.645617 
620.124925  	81.487531 
621.089350  	81.505231 
622.053774  	81.528915 
623.018199  	81.775094 
623.982623  	81.742864 
624.947047  	81.513031 
625.911472  	81.392180 
626.875896  	81.446202 
627.840321  	81.364839 
628.804745  	81.208115 
629.769170  	80.746016 
630.733594  	80.184162 
631.698019  	80.073000 
632.662443  	80.269159 
633.626868  	80.619564 
634.591292  	81.155052 
635.555717  	81.321078 
636.520141  	81.281075 
637.484565  	81.247426 
638.448990  	81.339950 
639.413414  	81.330658 
640.377839  	81.271551 
641.342263  	81.175193 
642.306688  	80.956060 
643.271112  	80.988651 
644.235537  	81.046754 
645.199961  	81.056041 
646.164386  	81.112037 
647.128810  	81.168347 
648.093234  	80.986044 
649.057659  	80.826235 
650.022083  	80.880187 
650.986508  	80.819604 
651.950932  	80.642864 
652.915357  	80.493356 
653.879781  	80.470509 
654.844206  	80.472982 
655.808630  	80.296168 
656.773055  	80.112328 
657.737479  	80.111554 
658.701903  	79.996736 
659.666328  	79.713691 
660.630752  	79.616489 
661.595177  	79.576355 
662.559601  	79.429568 
663.524026  	79.349700 
664.488450  	79.299242 
665.452875  	79.116429 
666.417299  	79.112328 
667.381724  	79.346535 
668.346148  	79.277516 
669.310572  	78.859229 
670.274997  	78.661601 
671.239421  	78.565768 
672.203846  	78.452197 
673.168270  	78.205219 
674.132695  	77.873816 
675.097119  	77.768019 
676.061544  	77.613478 
677.025968  	77.367614 
677.990393  	77.103097 
678.954817  	76.995255 
679.919241  	76.929208 
680.883666  	76.861126 
681.848090  	76.809779 
682.812515  	76.843021 
683.776939  	76.753534 
684.741364  	76.570946 
685.705788  	76.335377 
686.670213  	76.320525 
687.634637  	76.094340 
688.599062  	75.702516 
689.563486  	75.418665 
690.527910  	75.223213 
691.492335  	74.836403 
692.456759  	74.322513 
693.421184  	73.832775 
694.385608  	73.415780 
695.350033  	72.824579 
696.314457  	72.244718 
697.278882  	71.527851 
698.243306  	70.738688 
699.207731  	69.945598 
700.172155  	69.215651 
701.136580  	68.398355 
702.101004  	67.679504 
703.065428  	67.082658 
704.029853  	66.442287 
704.994277  	65.745666 
705.958702  	65.081732 
706.923126  	64.256098 
707.887551  	63.434396 
708.851975  	62.545613 
709.816400  	61.482603 
710.780824  	60.462706 
711.745249  	59.340563 
712.709673  	58.078628 
713.674097  	56.693795 
714.638522  	55.280391 
715.602946  	53.726369 
716.567371  	52.014220 
717.531795  	50.360225 
718.496220  	48.700272 
719.460644  	47.304370 
720.425069  	46.157184 
721.389493  	45.210720 
722.353918  	44.612165 
723.318342  	44.600908 
724.282766  	45.445854 
725.247191  	47.148279 
726.211615  	49.485226 
727.176040  	52.262007 
728.140464  	55.023407 
729.104889  	57.718084 
730.069313  	60.375745 
731.033738  	63.114282 
731.998162  	65.778696 
732.962587  	68.524503 
733.927011  	71.312027 
734.891435  	74.081316 
735.855860  	76.811512 
736.820284  	79.344362 
737.784709  	81.578413 
738.749133  	83.605153 
739.713558  	85.275462 
740.677982  	86.578393 
741.642407  	87.481419 
742.606831  	88.185983 
743.571256  	88.651101 
744.535680  	88.833550 
745.500104  	88.960539 
746.464529  	89.071260 
747.428953  	89.082726 
748.393378  	89.024537 
749.357802  	88.884891 
750.322227  	88.808989 
751.286651  	88.799109 
752.251076  	88.767764 
753.215500  	88.638348 
754.179925  	88.445624 
755.144349  	88.350490 
756.108774  	88.330351 
757.073198  	88.151240 
758.037622  	87.917281 
759.002047  	87.704545 
759.966471  	87.595756 
760.930896  	87.501629 
761.895320  	87.398203 
762.859745  	87.356696 
763.824169  	87.327708 
764.788594  	87.181150 
765.753018  	86.987360 
766.717443  	86.809808 
767.681867  	86.584715 
768.646291  	86.347851 
769.610716  	86.286662 
770.575140  	86.171777 
771.539565  	85.998801 
772.503989  	85.817981 
773.468414  	85.665442 
774.432838  	85.640240 
775.397263  	85.594734 
776.361687  	85.364027 
777.326112  	85.120360 
778.290536  	85.014151 
779.254960  	84.897029 
780.219385  	84.675418 
781.183809  	84.602002 
782.148234  	84.253995 
783.112658  	84.041215 
784.077083  	83.884215 
785.041507  	83.598810 
786.005932  	83.376227 
786.970356  	83.042263 
787.934781  	82.638328 
788.899205  	82.319974 
789.863629  	82.147716 
790.828054  	81.875211 
791.792478  	81.519985 
792.756903  	81.402713 
793.721327  	81.610938 
794.685752  	82.023832 
795.650176  	82.604083 
796.614601  	83.186113 
797.579025  	83.667897 
798.543450  	83.807178 
799.507874  	83.803094 
800.472298  	83.844938 
801.436723  	83.795073 
802.401147  	83.645174 
803.365572  	83.551824 
804.329996  	83.629559 
805.294421  	83.642025 
806.258845  	83.590139 
807.223270  	83.575130 
808.187694  	83.501073 
809.152119  	83.449879 
810.116543  	83.365929 
811.080967  	83.358600 
812.045392  	83.305650 
813.009816  	83.240767 
813.974241  	83.277650 
814.938665  	83.298083 
815.903090  	83.269122 
816.867514  	83.169667 
817.831939  	83.097009 
818.796363  	83.074416 
819.760788  	83.072798 
820.725212  	83.054174 
821.689637  	82.904487 
822.654061  	82.807802 
823.618485  	82.728414 
824.582910  	82.512587 
825.547334  	82.238459 
826.511759  	82.052129 
827.476183  	81.961254 
828.440608  	81.852048 
829.405032  	81.603334 
830.369457  	81.375243 
831.333881  	81.277464 
832.298306  	81.125888 
833.262730  	80.878392 
834.227154  	80.626405 
835.191579  	80.312527 
836.156003  	79.954722 
837.120428  	79.597106 
838.084852  	79.225132 
839.049277  	78.965098 
840.013701  	78.721342 
840.978126  	78.350433 
841.942550  	78.029598 
842.906975  	77.711741 
843.871399  	77.325542 
844.835823  	77.017694 
845.800248  	76.845984 
846.764672  	76.826968 
847.729097  	76.934868 
848.693521  	77.138183 
849.657946  	77.510524 
850.622370  	77.948040 
851.586795  	78.322850 
852.551219  	78.494843 
853.515644  	78.679549 
854.480068  	78.896176 
855.444492  	78.994301 
856.408917  	79.067601 
857.373341  	79.161118 
858.337766  	79.299291 
859.302190  	79.389184 
860.266615  	79.426097 
861.231039  	79.426712 
862.195464  	79.288246 
863.159888  	79.027368 
864.124313  	78.703936 
865.088737  	78.186461 
866.053161  	77.525487 
867.017586  	76.648565 
867.982010  	75.503783 
868.946435  	74.051028 
869.910859  	72.227932 
870.875284  	70.360412 
871.839708  	69.370030 
872.804133  	70.069389 
873.768557  	72.042836 
874.732982  	74.123527 
875.697406  	75.792219 
876.661831  	77.053232 
877.626255  	78.048791 
878.590679  	78.945444 
879.555104  	79.721318 
880.519528  	80.350025 
881.483953  	80.923032 
882.448377  	81.427293 
883.412802  	81.881616 
884.377226  	82.264685 
885.341651  	82.530944 
886.306075  	82.656651 
887.270500  	82.797926 
888.234924  	82.941996 
889.199348  	82.857737 
890.163773  	82.707094 
891.128197  	82.683546 
892.092622  	82.668372 
893.057046  	82.592039 
894.021471  	82.482560 
894.985895  	82.415165 
895.950320  	82.328508 
896.914744  	82.239094 
897.879169  	82.193714 
898.843593  	82.221181 
899.808017  	82.306376 
900.772442  	82.341259 
901.736866  	82.399472 
902.701291  	82.522824 
903.665715  	82.675096 
904.630140  	82.765683 
905.594564  	82.770937 
906.558989  	82.926606 
907.523413  	83.122084 
908.487838  	83.163875 
909.452262  	83.218152 
910.416686  	83.353813 
911.381111  	83.458464 
912.345535  	83.440794 
913.309960  	83.409124 
914.274384  	83.382732 
915.238809  	83.332386 
916.203233  	83.267064 
917.167658  	83.255848 
918.132082  	83.235150 
919.096507  	83.215976 
920.060931  	83.199909 
921.025355  	83.144109 
921.989780  	83.051520 
922.954204  	82.964704 
923.918629  	82.864876 
924.883053  	82.781672 
925.847478  	82.717454 
926.811902  	82.630665 
927.776327  	82.552187 
928.740751  	82.440973 
929.705176  	82.334306 
930.669600  	82.244733 
931.634024  	82.144079 
932.598449  	82.070211 
933.562873  	81.989527 
934.527298  	81.890095 
935.491722  	81.722640 
936.456147  	81.654062 
937.420571  	81.595513 
938.384996  	81.429044 
939.349420  	81.291664 
940.313845  	81.199002 
941.278269  	81.099061 
942.242694  	80.966618 
943.207118  	80.819340 
944.171542  	80.710370 
945.135967  	80.601273 
946.100391  	80.414671 
947.064816  	80.206112 
948.029240  	80.064396 
948.993665  	79.931479 
949.958089  	79.746729 
950.922514  	79.585245 
951.886938  	79.436895 
952.851363  	79.231457 
953.815787  	78.958193 
954.780211  	78.767806 
955.744636  	78.634086 
956.709060  	78.405802 
957.673485  	78.118339 
958.637909  	77.844477 
959.602334  	77.553201 
960.566758  	77.251193 
961.531183  	76.933516 
962.495607  	76.629120 
963.460032  	76.353239 
964.424456  	76.068652 
965.388880  	75.760614 
966.353305  	75.511870 
967.317729  	75.340200 
968.282154  	75.141749 
969.246578  	74.999178 
970.211003  	74.965747 
971.175427  	75.030969 
972.139852  	75.150078 
973.104276  	75.349478 
974.068701  	75.645471 
975.033125  	75.987279 
975.997549  	76.290313 
976.961974  	76.559963 
977.926398  	76.804098 
978.890823  	77.026734 
979.855247  	77.210451 
980.819672  	77.326017 
981.784096  	77.399647 
982.748521  	77.449096 
983.712945  	77.419131 
984.677370  	77.340632 
985.641794  	77.306966 
986.606218  	77.279038 
987.570643  	77.238924 
988.535067  	77.167181 
989.499492  	77.093238 
990.463916  	77.035476 
991.428341  	76.982954 
992.392765  	76.847566 
993.357190  	76.656179 
994.321614  	76.484970 
995.286039  	76.300709 
996.250463  	76.086403 
997.214888  	75.834297 
998.179312  	75.601838 
999.143736  	75.357532 
1000.108161  	75.057601 
1001.072585  	74.768156 
1002.037010  	74.513679 
1003.001434  	74.200694 
1003.965859  	73.795351 
1004.930283  	73.349116 
1005.894708  	72.862741 
1006.859132  	72.286886 
1007.823557  	71.599489 
1008.787981  	70.851781 
1009.752405  	70.026563 
1010.716830  	69.024228 
1011.681254  	67.815393 
1012.645679  	66.438713 
1013.610103  	64.979717 
1014.574528  	63.518617 
1015.538952  	62.334815 
1016.503377  	61.816519 
1017.467801  	62.016006 
1018.432226  	62.847172 
1019.396650  	64.133492 
1020.361074  	65.675631 
1021.325499  	67.233589 
1022.289923  	68.670267 
1023.254348  	70.143246 
1024.218772  	71.782696 
1025.183197  	73.562356 
1026.147621  	75.194078 
1027.112046  	76.332338 
1028.076470  	76.882720 
1029.040895  	77.007059 
1030.005319  	76.900214 
1030.969743  	76.648867 
1031.934168  	76.362893 
1032.898592  	76.062662 
1033.863017  	75.750701 
1034.827441  	75.408442 
1035.791866  	75.102807 
1036.756290  	74.821066 
1037.720715  	74.566478 
1038.685139  	74.329190 
1039.649564  	74.148788 
1040.613988  	73.969800 
1041.578412  	73.753128 
1042.542837  	73.591761 
1043.507261  	73.503899 
1044.471686  	73.359514 
1045.436110  	73.223123 
1046.400535  	73.193965 
1047.364959  	73.139891 
1048.329384  	73.029534 
1049.293808  	72.963411 
1050.258233  	72.954604 
1051.222657  	72.952063 
1052.187081  	72.854279 
1053.151506  	72.681753 
1054.115930  	72.591493 
1055.080355  	72.505430 
1056.044779  	72.297359 
1057.009204  	72.032103 
1057.973628  	71.814969 
1058.938053  	71.566991 
1059.902477  	71.230688 
1060.866902  	70.884421 
1061.831326  	70.624832 
1062.795751  	70.332958 
1063.760175  	69.947737 
1064.724599  	69.553278 
1065.689024  	69.173175 
1066.653448  	68.722655 
1067.617873  	68.217972 
1068.582297  	67.685977 
1069.546722  	67.131321 
1070.511146  	66.559616 
1071.475571  	65.947492 
1072.439995  	65.311699 
1073.404420  	64.638671 
1074.368844  	63.883849 
1075.333268  	63.074758 
1076.297693  	62.281766 
1077.262117  	61.497781 
1078.226542  	60.698361 
1079.190966  	59.923359 
1080.155391  	59.188770 
1081.119815  	58.543847 
1082.084240  	57.925676 
1083.048664  	57.428433 
1084.013089  	57.059626 
1084.977513  	56.685954 
1085.941937  	56.263479 
1086.906362  	55.925765 
1087.870786  	55.678386 
1088.835211  	55.427734 
1089.799635  	55.145061 
1090.764060  	54.917052 
1091.728484  	54.749313 
1092.692909  	54.559988 
1093.657333  	54.382686 
1094.621758  	54.308322 
1095.586182  	54.390331 
1096.550606  	54.491671 
1097.515031  	54.639050 
1098.479455  	54.935853 
1099.443880  	55.303092 
1100.408304  	55.738239 
1101.372729  	56.287425 
1102.337153  	56.912938 
1103.301578  	57.556878 
1104.266002  	58.255633 
1105.230427  	58.993877 
1106.194851  	59.748901 
1107.159275  	60.493625 
1108.123700  	61.153043 
1109.088124  	61.765356 
1110.052549  	62.295544 
1111.016973  	62.727551 
1111.981398  	63.002427 
1112.945822  	63.151548 
1113.910247  	63.254673 
1114.874671  	63.223093 
1115.839096  	63.136302 
1116.803520  	63.088368 
1117.767945  	63.083259 
1118.732369  	63.168182 
1119.696793  	63.422668 
1120.661218  	63.775929 
1121.625642  	64.177076 
1122.590067  	64.664494 
1123.554491  	65.240985 
1124.518916  	65.879702 
1125.483340  	66.594347 
1126.447765  	67.413261 
1127.412189  	68.313313 
1128.376614  	69.228543 
1129.341038  	70.203157 
1130.305462  	71.236089 
1131.269887  	72.292686 
1132.234311  	73.356862 
1133.198736  	74.430202 
1134.163160  	75.502909 
1135.127585  	76.548171 
1136.092009  	77.526512 
1137.056434  	78.484193 
1138.020858  	79.426159 
1138.985283  	80.235233 
1139.949707  	80.967106 
1140.914131  	81.668097 
1141.878556  	82.261208 
1142.842980  	82.781387 
1143.807405  	83.304374 
1144.771829  	83.808033 
1145.736254  	84.229798 
1146.700678  	84.594200 
1147.665103  	84.897136 
1148.629527  	85.192289 
1149.593952  	85.470863 
1150.558376  	85.702039 
1151.522800  	85.901289 
1152.487225  	86.072598 
1153.451649  	86.210130 
1154.416074  	86.294757 
1155.380498  	86.348300 
1156.344923  	86.415446 
1157.309347  	86.483250 
1158.273772  	86.503331 
1159.238196  	86.458589 
1160.202621  	86.434234 
1161.167045  	86.421093 
1162.131469  	86.373592 
1163.095894  	86.288559 
1164.060318  	86.225688 
1165.024743  	86.139544 
1165.989167  	85.975930 
1166.953592  	85.771552 
1167.918016  	85.568641 
1168.882441  	85.312064 
1169.846865  	84.975759 
1170.811290  	84.648052 
1171.775714  	84.369634 
1172.740138  	84.164869 
1173.704563  	83.993904 
1174.668987  	83.829276 
1175.633412  	83.807375 
1176.597836  	83.868048 
1177.562261  	83.891886 
1178.526685  	83.919277 
1179.491110  	83.972229 
1180.455534  	84.013274 
1181.419959  	84.045274 
1182.384383  	84.033033 
1183.348808  	83.998318 
1184.313232  	83.944809 
1185.277656  	83.801659 
1186.242081  	83.597269 
1187.206505  	83.393177 
1188.170930  	83.173498 
1189.135354  	82.902296 
1190.099779  	82.598767 
1191.064203  	82.293250 
1192.028628  	81.944285 
1192.993052  	81.539049 
1193.957477  	81.145973 
1194.921901  	80.745232 
1195.886325  	80.300763 
1196.850750  	79.825270 
1197.815174  	79.376073 
1198.779599  	78.964884 
1199.744023  	78.548002 
1200.708448  	78.062500 
1201.672872  	77.572060 
1202.637297  	77.145208 
1203.601721  	76.694227 
1204.566146  	76.240611 
1205.530570  	75.809803 
1206.494994  	75.356655 
1207.459419  	74.868749 
1208.423843  	74.416091 
1209.388268  	73.982900 
1210.352692  	73.515402 
1211.317117  	72.990628 
1212.281541  	72.441527 
1213.245966  	71.919015 
1214.210390  	71.367390 
1215.174815  	70.750960 
1216.139239  	70.112626 
1217.103663  	69.469407 
1218.068088  	68.809974 
1219.032512  	68.115084 
1219.996937  	67.452534 
1220.961361  	66.805283 
1221.925786  	66.175880 
1222.890210  	65.590241 
1223.854635  	65.032351 
1224.819059  	64.445017 
1225.783484  	63.839232 
1226.747908  	63.214369 
1227.712332  	62.534600 
1228.676757  	61.779327 
1229.641181  	60.952654 
1230.605606  	60.084026 
1231.570030  	59.204155 
1232.534455  	58.303819 
1233.498879  	57.422170 
1234.463304  	56.605826 
1235.427728  	55.844334 
1236.392153  	55.135210 
1237.356577  	54.537150 
1238.321002  	54.086118 
1239.285426  	53.748411 
1240.249850  	53.521842 
1241.214275  	53.434536 
1242.178699  	53.460329 
1243.143124  	53.581545 
1244.107548  	53.805669 
1245.071973  	54.166962 
1246.036397  	54.562872 
1247.000822  	54.969678 
1247.965246  	55.432727 
1248.929671  	55.929212 
1249.894095  	56.431301 
1250.858519  	56.937295 
1251.822944  	57.418744 
1252.787368  	57.897884 
1253.751793  	58.329258 
1254.716217  	58.648976 
1255.680642  	58.957015 
1256.645066  	59.285905 
1257.609491  	59.549314 
1258.573915  	59.763335 
1259.538340  	60.015637 
1260.502764  	60.328559 
1261.467188  	60.775030 
1262.431613  	61.261213 
1263.396037  	61.812035 
1264.360462  	62.458860 
1265.324886  	63.119561 
1266.289311  	63.818874 
1267.253735  	64.619385 
1268.218160  	65.442431 
1269.182584  	66.233379 
1270.147009  	67.018727 
1271.111433  	67.838840 
1272.075857  	68.598698 
1273.040282  	69.351606 
1274.004706  	70.043012 
1274.969131  	70.704720 
1275.933555  	71.325018 
1276.897980  	71.908339 
1277.862404  	72.476449 
1278.826829  	73.022681 
1279.791253  	73.521450 
1280.755678  	74.017446 
1281.720102  	74.551372 
1282.684526  	75.086334 
1283.648951  	75.575534 
1284.613375  	76.045195 
1285.577800  	76.567827 
1286.542224  	77.071973 
1287.506649  	77.477540 
1288.471073  	77.954210 
1289.435498  	78.568866 
1290.399922  	79.138074 
1291.364347  	79.685494 
1292.328771  	80.300149 
1293.293195  	80.896536 
1294.257620  	81.493419 
1295.222044  	82.065480 
1296.186469  	82.588796 
1297.150893  	83.192363 
1298.115318  	83.877689 
1299.079742  	84.418966 
1300.044167  	84.937020 
1301.008591  	85.445657 
1301.973016  	85.878636 
1302.937440  	86.226419 
1303.901865  	86.543896 
1304.866289  	86.851456 
1305.830713  	87.094341 
1306.795138  	87.289342 
1307.759562  	87.485144 
1308.723987  	87.732367 
1309.688411  	88.021411 
1310.652836  	88.224287 
1311.617260  	88.355425 
1312.581685  	88.297051 
1313.546109  	88.477811 
1314.510534  	88.724775 
1315.474958  	88.968154 
1316.439382  	89.056568 
1317.403807  	89.087012 
1318.368231  	89.167772 
1319.332656  	89.200138 
1320.297080  	89.482731 
1321.261505  	89.717167 
1322.225929  	89.876001 
1323.190354  	89.901544 
1324.154778  	89.912625 
1325.119203  	89.896572 
1326.083627  	89.786062 
1327.048051  	89.584389 
1328.012476  	89.294892 
1328.976900  	88.843821 
1329.941325  	88.184896 
1330.905749  	87.421152 
1331.870174  	86.476442 
1332.834598  	85.269978 
1333.799023  	83.936255 
1334.763447  	82.561411 
1335.727872  	81.123804 
1336.692296  	79.670907 
1337.656720  	78.701744 
1338.621145  	77.887922 
1339.585569  	77.394748 
1340.549994  	77.901515 
1341.514418  	79.337000 
1342.478843  	80.704350 
1343.443267  	81.995772 
1344.407692  	83.419194 
1345.372116  	84.832547 
1346.336541  	86.102539 
1347.300965  	87.170712 
1348.265389  	88.011833 
1349.229814  	88.609151 
1350.194238  	89.180442 
1351.158663  	89.659546 
1352.123087  	89.961140 
1353.087512  	90.238018 
1354.051936  	90.325685 
1355.016361  	90.247975 
1355.980785  	90.429517 
1356.945210  	90.527066 
1357.909634  	90.453549 
1358.874059  	90.446835 
1359.838483  	90.371710 
1360.802907  	89.879385 
1361.767332  	89.459070 
1362.731756  	88.854193 
1363.696181  	88.708516 
1364.660605  	89.333700 
1365.625030  	89.322318 
1366.589454  	89.130834 
1367.553879  	88.788047 
1368.518303  	88.312655 
1369.482728  	88.245576 
1370.447152  	88.495548 
1371.411576  	88.477560 
1372.376001  	88.363071 
1373.340425  	87.953748 
1374.304850  	87.664282 
1375.269274  	88.008659 
1376.233699  	88.591325 
1377.198123  	88.724340 
1378.162548  	88.596016 
1379.126972  	88.666838 
1380.091397  	88.763197 
1381.055821  	88.885256 
1382.020245  	88.927646 
1382.984670  	88.906058 
1383.949094  	88.886895 
1384.913519  	88.871022 
1385.877943  	88.627404 
1386.842368  	87.987234 
1387.806792  	87.854680 
1388.771217  	88.553495 
1389.735641  	88.839535 
1390.700066  	88.761778 
1391.664490  	88.725074 
1392.628914  	88.652214 
1393.593339  	88.205825 
1394.557763  	87.257029 
1395.522188  	86.936547 
1396.486612  	87.178586 
1397.451037  	86.948526 
1398.415461  	86.200358 
1399.379886  	85.622700 
1400.344310  	85.680545 
1401.308735  	85.486002 
1402.273159  	84.747888 
1403.237583  	83.849149 
1404.202008  	82.618694 
1405.166432  	81.124622 
1406.130857  	80.433276 
1407.095281  	80.030111 
1408.059706  	79.565750 
1409.024130  	79.513895 
1409.988555  	79.837208 
1410.952979  	80.710671 
1411.917404  	81.954075 
1412.881828  	83.690270 
1413.846252  	85.331022 
1414.810677  	86.725957 
1415.775101  	87.639298 
1416.739526  	88.192236 
1417.703950  	88.548027 
1418.668375  	88.634734 
1419.632799  	88.774787 
1420.597224  	90.310032 
1421.561648  	90.921074 
1422.526073  	91.056406 
1423.490497  	90.506216 
1424.454922  	90.312092 
1425.419346  	91.067755 
1426.383770  	91.326489 
1427.348195  	91.241539 
1428.312619  	90.978593 
1429.277044  	90.587703 
1430.241468  	90.257333 
1431.205893  	90.495910 
1432.170317  	90.425577 
1433.134742  	90.151177 
1434.099166  	90.127449 
1435.063591  	89.898270 
1436.028015  	88.971183 
1436.992439  	88.234218 
1437.956864  	89.206246 
1438.921288  	89.655169 
1439.885713  	89.673046 
1440.850137  	89.613194 
1441.814562  	89.578308 
1442.778986  	89.580550 
1443.743411  	89.507586 
1444.707835  	89.422375 
1445.672260  	89.289120 
1446.636684  	89.079552 
1447.601108  	88.509397 
1448.565533  	88.387957 
1449.529957  	88.911179 
1450.494382  	89.002122 
1451.458806  	88.672277 
1452.423231  	88.386117 
1453.387655  	88.595716 
1454.352080  	88.318733 
1455.316504  	87.556764 
1456.280929  	86.945753 
1457.245353  	86.461733 
1458.209777  	86.656835 
1459.174202  	87.403339 
1460.138626  	88.499091 
1461.103051  	89.136682 
1462.067475  	89.289952 
1463.031900  	89.310672 
1463.996324  	89.018251 
1464.960749  	88.409075 
1465.925173  	88.820460 
1466.889598  	89.219238 
1467.854022  	89.163214 
1468.818446  	89.019677 
1469.782871  	88.690630 
1470.747295  	88.101500 
1471.711720  	86.927006 
1472.676144  	86.263018 
1473.640569  	86.934471 
1474.604993  	88.185782 
1475.569418  	88.395770 
1476.533842  	88.244684 
1477.498267  	89.257211 
1478.462691  	89.872375 
1479.427116  	90.090037 
1480.391540  	90.072486 
1481.355964  	89.863944 
1482.320389  	90.326397 
1483.284813  	90.764796 
1484.249238  	90.970614 
1485.213662  	90.984146 
1486.178087  	90.709468 
1487.142511  	90.321302 
1488.106936  	90.465331 
1489.071360  	90.007659 
1490.035785  	89.135071 
1491.000209  	89.953081 
1491.964633  	91.103291 
1492.929058  	91.539169 
1493.893482  	91.517753 
1494.857907  	91.217963 
1495.822331  	90.439499 
1496.786756  	89.935213 
1497.751180  	90.237398 
1498.715605  	89.707100 
1499.680029  	89.521512 
1500.644454  	89.505895 
1501.608878  	88.791153 
1502.573302  	88.117439 
1503.537727  	87.577778 
1504.502151  	86.761832 
1505.466576  	85.485051 
1506.431000  	83.601855 
1507.395425  	84.278558 
1508.359849  	86.351251 
1509.324274  	87.844372 
1510.288698  	89.058928 
1511.253123  	90.058701 
1512.217547  	90.146675 
1513.181971  	90.690022 
1514.146396  	90.973826 
1515.110820  	90.392437 
1516.075245  	89.658763 
1517.039669  	88.695861 
1518.004094  	89.809671 
1518.968518  	90.675526 
1519.932943  	90.019801 
1520.897367  	88.371221 
1521.861792  	88.489564 
1522.826216  	89.382631 
1523.790640  	90.119920 
1524.755065  	89.885451 
1525.719489  	89.547336 
1526.683914  	89.943950 
1527.648338  	89.773632 
1528.612763  	90.048234 
1529.577187  	90.762813 
1530.541612  	90.985357 
1531.506036  	90.475046 
1532.470461  	90.063325 
1533.434885  	89.384821 
1534.399309  	89.720939 
1535.363734  	90.408037 
1536.328158  	90.681009 
1537.292583  	90.730567 
1538.257007  	89.992673 
1539.221432  	88.093762 
1540.185856  	87.886198 
1541.150281  	88.926604 
1542.114705  	88.995686 
1543.079130  	89.063624 
1544.043554  	89.200630 
1545.007979  	89.010124 
1545.972403  	89.762311 
1546.936827  	90.711350 
1547.901252  	90.895367 
1548.865676  	90.537106 
1549.830101  	89.376753 
1550.794525  	89.689111 
1551.758950  	90.634810 
1552.723374  	90.657828 
1553.687799  	90.055550 
1554.652223  	89.332225 
1555.616648  	89.974189 
1556.581072  	90.051327 
1557.545496  	89.087024 
1558.509921  	86.290003 
1559.474345  	86.054412 
1560.438770  	88.147673 
1561.403194  	89.822120 
1562.367619  	90.398018 
1563.332043  	90.524476 
1564.296468  	90.209008 
1565.260892  	89.956408 
1566.225317  	90.337820 
1567.189741  	90.438878 
1568.154165  	90.107679 
1569.118590  	89.084164 
1570.083014  	88.759362 
1571.047439  	89.687907 
1572.011863  	89.903481 
1572.976288  	89.746910 
1573.940712  	89.536458 
1574.905137  	89.128713 
1575.869561  	88.224924 
1576.833986  	87.736671 
1577.798410  	88.441224 
1578.762834  	88.944022 
1579.727259  	89.183796 
1580.691683  	89.417528 
1581.656108  	89.635987 
1582.620532  	89.858860 
1583.584957  	90.066315 
1584.549381  	90.240079 
1585.513806  	90.358061 
1586.478230  	90.448106 
1587.442655  	90.483125 
1588.407079  	90.494904 
1589.371503  	90.408215 
1590.335928  	90.367518 
1591.300352  	90.422832 
1592.264777  	90.444254 
1593.229201  	90.381905 
1594.193626  	90.178689 
1595.158050  	90.113610 
1596.122475  	90.169611 
1597.086899  	90.204578 
1598.051324  	90.256303 
1599.015748  	90.209897 
1599.980173  	90.157410 
1600.944597  	89.970286 
1601.909021  	89.867176 
1602.873446  	89.683822 
1603.837870  	89.627611 
1604.802295  	89.722520 
1605.766719  	89.663188 
1606.731144  	89.403696 
1607.695568  	89.242172 
1608.659993  	89.155432 
1609.624417  	88.883948 
1610.588842  	89.028200 
1611.553266  	89.088405 
1612.517690  	88.978175 
1613.482115  	88.898775 
1614.446539  	88.791940 
1615.410964  	88.486299 
1616.375388  	87.746847 
1617.339813  	87.734956 
1618.304237  	88.507376 
1619.268662  	88.800903 
1620.233086  	88.801797 
1621.197511  	88.758382 
1622.161935  	88.489240 
1623.126359  	87.830857 
1624.090784  	87.900381 
1625.055208  	88.500956 
1626.019633  	88.614169 
1626.984057  	88.375436 
1627.948482  	87.915266 
1628.912906  	88.181929 
1629.877331  	88.434970 
1630.841755  	88.438815 
1631.806180  	88.358272 
1632.770604  	88.252716 
1633.735028  	87.976132 
1634.699453  	87.240844 
1635.663877  	85.990197 
1636.628302  	86.678864 
1637.592726  	86.866867 
1638.557151  	87.380188 
1639.521575  	87.655168 
1640.486000  	87.620217 
1641.450424  	87.625220 
1642.414849  	87.533020 
1643.379273  	87.445162 
1644.343697  	87.271514 
1645.308122  	86.639400 
1646.272546  	85.582698 
1647.236971  	85.231395 
1648.201395  	85.509447 
1649.165820  	86.387784 
1650.130244  	86.696504 
1651.094669  	86.392735 
1652.059093  	85.541011 
1653.023518  	83.199134 
1653.987942  	83.238946 
1654.952366  	84.863920 
1655.916791  	85.776729 
1656.881215  	85.920832 
1657.845640  	85.990992 
1658.810064  	85.990495 
1659.774489  	85.867749 
1660.738913  	85.509147 
1661.703338  	85.004446 
1662.667762  	84.377133 
1663.632187  	84.459722 
1664.596611  	84.677744 
1665.561036  	84.557567 
1666.525460  	84.321639 
1667.489884  	83.836536 
1668.454309  	82.806626 
1669.418733  	82.064270 
1670.383158  	82.447501 
1671.347582  	82.202593 
1672.312007  	82.194275 
1673.276431  	82.344406 
1674.240856  	81.913653 
1675.205280  	80.962071 
1676.169705  	80.928707 
1677.134129  	81.231951 
1678.098553  	81.021280 
1679.062978  	80.464751 
1680.027402  	79.380935 
1680.991827  	79.109195 
1681.956251  	79.178478 
1682.920676  	78.262052 
1683.885100  	75.838725 
1684.849525  	75.713595 
1685.813949  	77.629726 
1686.778374  	77.896610 
1687.742798  	77.347739 
1688.707222  	76.722153 
1689.671647  	76.427457 
1690.636071  	76.031738 
1691.600496  	75.767750 
1692.564920  	75.199076 
1693.529345  	74.334102 
1694.493769  	73.289355 
1695.458194  	71.747808 
1696.422618  	70.060710 
1697.387043  	69.685799 
1698.351467  	68.994242 
1699.315891  	67.770708 
1700.280316  	65.100306 
1701.244740  	64.197113 
1702.209165  	64.116349 
1703.173589  	63.175092 
1704.138014  	61.649228 
1705.102438  	60.081074 
1706.066863  	58.915952 
1707.031287  	57.603171 
1707.995712  	56.913164 
1708.960136  	56.200826 
1709.924560  	55.284091 
1710.888985  	54.675147 
1711.853409  	54.564633 
1712.817834  	54.438034 
1713.782258  	54.275564 
1714.746683  	54.230249 
1715.711107  	55.146428 
1716.675532  	55.902791 
1717.639956  	56.035244 
1718.604381  	57.529669 
1719.568805  	59.847617 
1720.533230  	61.340034 
1721.497654  	62.523676 
1722.462078  	63.587139 
1723.426503  	64.534354 
1724.390927  	65.866975 
1725.355352  	67.127526 
1726.319776  	68.253700 
1727.284201  	69.432513 
1728.248625  	70.607042 
1729.213050  	71.305384 
1730.177474  	71.991665 
1731.141899  	73.741771 
1732.106323  	74.837900 
1733.070747  	75.034671 
1734.035172  	74.985720 
1734.999596  	77.726302 
1735.964021  	79.914134 
1736.928445  	81.099849 
1737.892870  	82.217175 
1738.857294  	83.026309 
1739.821719  	83.761144 
1740.786143  	85.599488 
1741.750568  	86.886783 
1742.714992  	87.297056 
1743.679416  	87.718105 
1744.643841  	89.042494 
1745.608265  	90.066565 
1746.572690  	90.522158 
1747.537114  	90.748782 
1748.501539  	90.889330 
1749.465963  	91.416066 
1750.430388  	91.876345 
1751.394812  	91.604589 
1752.359237  	92.606168 
1753.323661  	93.490641 
1754.288085  	93.861131 
1755.252510  	93.940150 
1756.216934  	93.534138 
1757.181359  	93.190245 
1758.145783  	93.651713 
1759.110208  	93.986655 
1760.074632  	94.117239 
1761.039057  	93.702566 
1762.003481  	93.042575 
1762.967906  	93.754424 
1763.932330  	94.278011 
1764.896754  	94.400393 
1765.861179  	94.402657 
1766.825603  	94.296019 
1767.790028  	93.678556 
1768.754452  	93.441117 
1769.718877  	94.054009 
1770.683301  	93.872261 
1771.647726  	93.070675 
1772.612150  	92.683796 
1773.576575  	93.446376 
1774.540999  	93.987648 
1775.505423  	93.777944 
1776.469848  	93.932190 
1777.434272  	94.309377 
1778.398697  	94.167802 
1779.363121  	93.936193 
1780.327546  	93.657114 
1781.291970  	93.622786 
1782.256395  	94.080560 
1783.220819  	94.271514 
1784.185244  	94.036244 
1785.149668  	93.640435 
1786.114093  	93.968872 
1787.078517  	94.222180 
1788.042941  	94.215250 
1789.007366  	94.108052 
1789.971790  	93.867252 
1790.936215  	93.300461 
1791.900639  	93.011649 
1792.865064  	92.888975 
1793.829488  	93.466522 
1794.793913  	93.794464 
1795.758337  	93.429736 
1796.722762  	93.453999 
1797.687186  	93.900913 
1798.651610  	93.850315 
1799.616035  	93.416911 
1800.580459  	93.438952 
1801.544884  	93.385875 
1802.509308  	93.229776 
1803.473733  	93.687716 
1804.438157  	93.999745 
1805.402582  	93.969054 
1806.367006  	93.893660 
1807.331431  	93.716468 
1808.295855  	93.654371 
1809.260279  	93.831002 
1810.224704  	93.496857 
1811.189128  	93.216029 
1812.153553  	93.476097 
1813.117977  	93.761022 
1814.082402  	93.985004 
1815.046826  	94.003173 
1816.011251  	93.996916 
1816.975675  	93.817643 
1817.940100  	93.677793 
1818.904524  	93.868570 
1819.868948  	93.958161 
1820.833373  	93.906281 
1821.797797  	93.817575 
1822.762222  	93.634058 
1823.726646  	93.634959 
1824.691071  	93.315635 
1825.655495  	92.879828 
1826.619920  	93.468248 
1827.584344  	93.764584 
1828.548769  	93.472466 
1829.513193  	92.694802 
1830.477617  	92.781467 
1831.442042  	93.557669 
1832.406466  	93.785698 
1833.370891  	93.723236 
1834.335315  	93.900256 
1835.299740  	94.022604 
1836.264164  	93.871221 
1837.228589  	93.502638 
1838.193013  	93.662334 
1839.157438  	93.927798 
1840.121862  	93.950649 
1841.086287  	93.918750 
1842.050711  	93.741232 
1843.015135  	93.508579 
1843.979560  	93.026064 
1844.943984  	92.969665 
1845.908409  	93.568982 
1846.872833  	93.702162 
1847.837258  	93.369300 
1848.801682  	93.563927 
1849.766107  	93.991729 
1850.730531  	94.133224 
1851.694956  	94.134155 
1852.659380  	94.107965 
1853.623804  	94.153722 
1854.588229  	94.159969 
1855.552653  	94.149116 
1856.517078  	94.068812 
1857.481502  	94.087697 
1858.445927  	94.033507 
1859.410351  	93.944366 
1860.374776  	93.987654 
1861.339200  	93.974823 
1862.303625  	93.977329 
1863.268049  	94.070451 
1864.232473  	94.097258 
1865.196898  	94.086045 
1866.161322  	93.823679 
1867.125747  	93.533613 
1868.090171  	93.202035 
1869.054596  	92.976885 
1870.019020  	93.359820 
1870.983445  	93.827561 
1871.947869  	94.096179 
1872.912294  	94.233879 
1873.876718  	94.233586 
1874.841142  	94.143726 
1875.805567  	94.160158 
1876.769991  	94.213729 
1877.734416  	94.188382 
1878.698840  	94.109773 
1879.663265  	94.059957 
1880.627689  	94.134035 
1881.592114  	94.139084 
1882.556538  	94.088349 
1883.520963  	94.103104 
1884.485387  	94.100583 
1885.449811  	94.076776 
1886.414236  	94.174176 
1887.378660  	94.122576 
1888.343085  	93.918567 
1889.307509  	93.415488 
1890.271934  	93.349423 
1891.236358  	93.783482 
1892.200783  	93.924625 
1893.165207  	93.938761 
1894.129632  	93.887392 
1895.094056  	93.564512 
1896.058480  	93.647202 
1897.022905  	93.926751 
1897.987329  	93.953285 
1898.951754  	93.919068 
1899.916178  	93.968814 
1900.880603  	93.995631 
1901.845027  	93.908796 
1902.809452  	93.931079 
1903.773876  	93.958461 
1904.738301  	93.960555 
1905.702725  	93.979924 
1906.667150  	93.966275 
1907.631574  	93.802250 
1908.595998  	93.669242 
1909.560423  	93.510311 
1910.524847  	93.541785 
1911.489272  	93.869662 
1912.453696  	93.860669 
1913.418121  	93.845199 
1914.382545  	93.845652 
1915.346970  	93.943936 
1916.311394  	93.881962 
1917.275819  	93.467920 
1918.240243  	92.991315 
1919.204667  	93.464361 
1920.169092  	93.806932 
1921.133516  	93.812903 
1922.097941  	93.447870 
1923.062365  	93.187660 
1924.026790  	93.641249 
1924.991214  	93.985228 
1925.955639  	93.908034 
1926.920063  	93.900403 
1927.884488  	93.939220 
1928.848912  	93.950244 
1929.813336  	93.966637 
1930.777761  	94.032718 
1931.742185  	93.970611 
1932.706610  	93.893477 
1933.671034  	93.948688 
1934.635459  	93.956986 
1935.599883  	93.962802 
1936.564308  	93.968956 
1937.528732  	93.785490 
1938.493157  	93.833360 
1939.457581  	93.957185 
1940.422005  	93.858130 
1941.386430  	93.618492 
1942.350854  	93.026773 
1943.315279  	92.985265 
1944.279703  	93.463493 
1945.244128  	93.536520 
1946.208552  	93.629102 
1947.172977  	93.646603 
1948.137401  	93.618925 
1949.101826  	93.568039 
1950.066250  	93.705137 
1951.030674  	93.723036 
1951.995099  	93.630412 
1952.959523  	93.650007 
1953.923948  	93.621905 
1954.888372  	93.481538 
1955.852797  	93.523203 
1956.817221  	93.851023 
1957.781646  	94.128494 
1958.746070  	94.108976 
1959.710495  	93.959490 
1960.674919  	93.748956 
1961.639344  	93.797119 
1962.603768  	93.520620 
1963.568192  	93.546545 
1964.532617  	93.938947 
1965.497041  	94.015020 
1966.461466  	93.966560 
1967.425890  	94.035170 
1968.390315  	94.048696 
1969.354739  	93.903565 
1970.319164  	93.824879 
1971.283588  	94.019851 
1972.248013  	93.905256 
1973.212437  	93.942599 
1974.176861  	94.055907 
1975.141286  	94.003079 
1976.105710  	94.097145 
1977.070135  	94.413353 
1978.034559  	94.464089 
1978.998984  	93.863926 
1979.963408  	93.422868 
1980.927833  	93.287822 
1981.892257  	93.668987 
1982.856682  	93.853970 
1983.821106  	93.722166 
1984.785530  	93.884753 
1985.749955  	93.761055 
1986.714379  	93.824164 
1987.678804  	93.669294 
1988.643228  	93.550113 
1989.607653  	93.843125 
1990.572077  	93.882621 
1991.536502  	93.498705 
1992.500926  	93.529768 
1993.465351  	93.654604 
1994.429775  	93.816280 
1995.394199  	93.985059 
1996.358624  	93.915421 
1997.323048  	93.722544 
1998.287473  	94.012477 
1999.251897  	94.206960 
2000.216322  	94.161966 
2001.180746  	94.277674 
2002.145171  	94.684421 
2003.109595  	94.921122 
2004.074020  	94.809866 
2005.038444  	94.781178 
2006.002868  	94.554505 
2006.967293  	94.429497 
2007.931717  	94.238819 
2008.896142  	94.093384 
2009.860566  	94.391344 
2010.824991  	94.222467 
2011.789415  	93.976179 
2012.753840  	94.086824 
2013.718264  	93.993198 
2014.682689  	93.798814 
2015.647113  	94.127524 
2016.611537  	94.137151 
2017.575962  	93.996837 
2018.540386  	94.221700 
2019.504811  	94.452981 
2020.469235  	94.636826 
2021.433660  	94.831993 
2022.398084  	94.543027 
2023.362509  	94.483342 
2024.326933  	94.590424 
2025.291358  	94.177844 
2026.255782  	93.931159 
2027.220207  	94.087642 
2028.184631  	94.129415 
2029.149055  	94.553959 
2030.113480  	94.623723 
2031.077904  	94.744971 
2032.042329  	94.641995 
2033.006753  	94.651748 
2033.971178  	94.659230 
2034.935602  	94.511091 
2035.900027  	94.349347 
2036.864451  	94.197879 
2037.828876  	94.210332 
2038.793300  	94.223075 
2039.757724  	93.954859 
2040.722149  	93.791124 
2041.686573  	93.665001 
2042.650998  	93.687103 
2043.615422  	93.729228 
2044.579847  	93.879491 
2045.544271  	94.072264 
2046.508696  	94.321936 
2047.473120  	94.192314 
2048.437545  	94.137909 
2049.401969  	94.251403 
2050.366393  	93.724211 
2051.330818  	93.402235 
2052.295242  	93.881082 
2053.259667  	94.319134 
2054.224091  	94.040770 
2055.188516  	93.667200 
2056.152940  	93.656552 
2057.117365  	93.579249 
2058.081789  	93.635548 
2059.046214  	93.648396 
2060.010638  	93.555705 
2060.975062  	93.419197 
2061.939487  	93.549915 
2062.903911  	93.539742 
2063.868336  	93.462762 
2064.832760  	93.246005 
2065.797185  	93.325969 
2066.761609  	93.533776 
2067.726034  	93.634268 
2068.690458  	93.662090 
2069.654883  	93.666140 
2070.619307  	93.610879 
2071.583731  	93.513308 
2072.548156  	93.499774 
2073.512580  	93.429560 
2074.477005  	93.292659 
2075.441429  	93.444465 
2076.405854  	93.497491 
2077.370278  	93.379273 
2078.334703  	93.379018 
2079.299127  	93.385149 
2080.263552  	93.316608 
2081.227976  	93.304033 
2082.192401  	93.300768 
2083.156825  	93.287488 
2084.121249  	93.381691 
2085.085674  	93.563593 
2086.050098  	93.615236 
2087.014523  	93.491173 
2087.978947  	93.457573 
2088.943372  	93.602556 
2089.907796  	93.474353 
2090.872221  	93.436575 
2091.836645  	93.706344 
2092.801070  	93.795230 
2093.765494  	93.676468 
2094.729918  	93.583141 
2095.694343  	93.492831 
2096.658767  	93.367841 
2097.623192  	93.422706 
2098.587616  	93.529330 
2099.552041  	93.519908 
2100.516465  	93.442850 
2101.480890  	93.461128 
2102.445314  	93.418882 
2103.409739  	93.436051 
2104.374163  	93.469582 
2105.338587  	93.333104 
2106.303012  	93.333419 
2107.267436  	93.418777 
2108.231861  	93.479485 
2109.196285  	93.450703 
2110.160710  	93.471326 
2111.125134  	93.551139 
2112.089559  	93.492588 
2113.053983  	93.395532 
2114.018408  	93.417181 
2114.982832  	93.447352 
2115.947256  	93.427732 
2116.911681  	93.464791 
2117.876105  	93.587205 
2118.840530  	93.674206 
2119.804954  	93.708098 
2120.769379  	93.691694 
2121.733803  	93.713607 
2122.698228  	93.791149 
2123.662652  	93.802514 
2124.627077  	93.751921 
2125.591501  	93.761054 
2126.555925  	93.920644 
2127.520350  	94.037854 
2128.484774  	94.062288 
2129.449199  	94.146516 
2130.413623  	94.199791 
2131.378048  	94.189447 
2132.342472  	94.314429 
2133.306897  	94.366732 
2134.271321  	94.098088 
2135.235746  	93.768902 
2136.200170  	93.689512 
2137.164594  	93.926755 
2138.129019  	94.107816 
2139.093443  	94.270230 
2140.057868  	94.417717 
2141.022292  	94.388636 
2141.986717  	94.259687 
2142.951141  	94.161104 
2143.915566  	94.189481 
2144.879990  	94.083660 
2145.844415  	94.257987 
2146.808839  	94.381270 
2147.773264  	94.270189 
2148.737688  	94.329988 
2149.702112  	94.566884 
2150.666537  	94.785024 
2151.630961  	94.758107 
2152.595386  	94.886190 
2153.559810  	94.829381 
2154.524235  	94.846573 
2155.488659  	95.204138 
2156.453084  	95.579098 
2157.417508  	95.631786 
2158.381933  	95.517124 
2159.346357  	94.542189 
2160.310781  	93.633047 
2161.275206  	93.378658 
2162.239630  	93.683809 
2163.204055  	94.081369 
2164.168479  	94.284885 
2165.132904  	93.998848 
2166.097328  	93.927071 
2167.061753  	94.126974 
2168.026177  	94.141564 
2168.990602  	93.992389 
2169.955026  	93.998348 
2170.919450  	94.368960 
2171.883875  	94.225003 
2172.848299  	94.127761 
2173.812724  	94.217262 
2174.777148  	94.219809 
2175.741573  	94.159901 
2176.705997  	93.851315 
2177.670422  	93.953425 
2178.634846  	94.113142 
2179.599271  	93.914249 
2180.563695  	94.007911 
2181.528119  	94.343906 
2182.492544  	94.150549 
2183.456968  	93.763701 
2184.421393  	93.688721 
2185.385817  	94.187381 
2186.350242  	94.321209 
2187.314666  	94.103037 
2188.279091  	93.926118 
2189.243515  	93.800520 
2190.207940  	93.875163 
2191.172364  	93.966465 
2192.136788  	93.970355 
2193.101213  	94.037903 
2194.065637  	93.900223 
2195.030062  	93.659315 
2195.994486  	93.376327 
2196.958911  	93.517398 
2197.923335  	93.692698 
2198.887760  	93.702417 
2199.852184  	93.855320 
2200.816609  	93.949950 
2201.781033  	93.803120 
2202.745458  	93.848049 
2203.709882  	94.010564 
2204.674306  	94.050842 
2205.638731  	93.801342 
2206.603155  	93.763716 
2207.567580  	93.801971 
2208.532004  	93.641615 
2209.496429  	93.661928 
2210.460853  	93.816439 
2211.425278  	93.857617 
2212.389702  	93.711084 
2213.354127  	93.435654 
2214.318551  	93.308180 
2215.282975  	93.425110 
2216.247400  	93.629325 
2217.211824  	93.776557 
2218.176249  	93.792129 
2219.140673  	93.780537 
2220.105098  	93.615081 
2221.069522  	93.485703 
2222.033947  	93.606183 
2222.998371  	93.630576 
2223.962796  	93.578007 
2224.927220  	93.619886 
2225.891644  	93.654928 
2226.856069  	93.480899 
2227.820493  	93.483665 
2228.784918  	93.748938 
2229.749342  	93.801413 
2230.713767  	93.696708 
2231.678191  	93.514914 
2232.642616  	93.380871 
2233.607040  	93.670658 
2234.571465  	93.610437 
2235.535889  	93.402933 
2236.500313  	93.330389 
2237.464738  	93.448657 
2238.429162  	93.542227 
2239.393587  	93.473992 
2240.358011  	93.474950 
2241.322436  	93.680107 
2242.286860  	93.594984 
2243.251285  	93.523988 
2244.215709  	93.556212 
2245.180134  	93.489752 
2246.144558  	93.334389 
2247.108982  	93.326760 
2248.073407  	93.370110 
2249.037831  	93.365097 
2250.002256  	93.419077 
2250.966680  	93.440246 
2251.931105  	93.481138 
2252.895529  	93.470630 
2253.859954  	93.386511 
2254.824378  	93.356169 
2255.788803  	93.321448 
2256.753227  	93.267225 
2257.717651  	93.375503 
2258.682076  	93.300797 
2259.646500  	93.201236 
2260.610925  	93.170483 
2261.575349  	93.185620 
2262.539774  	93.284556 
2263.504198  	93.382857 
2264.468623  	93.333086 
2265.433047  	93.288474 
2266.397472  	93.295474 
2267.361896  	93.270644 
2268.326321  	93.295143 
2269.290745  	93.245484 
2270.255169  	93.195954 
2271.219594  	93.263822 
2272.184018  	93.221550 
2273.148443  	93.107864 
2274.112867  	93.169169 
2275.077292  	93.206439 
2276.041716  	93.162696 
2277.006141  	93.127410 
2277.970565  	93.171683 
2278.934990  	93.165942 
2279.899414  	93.071094 
2280.863838  	93.093049 
2281.828263  	93.136699 
2282.792687  	93.059506 
2283.757112  	93.015756 
2284.721536  	92.995120 
2285.685961  	92.998886 
2286.650385  	93.068531 
2287.614810  	93.046098 
2288.579234  	92.937134 
2289.543659  	92.935682 
2290.508083  	93.045917 
2291.472507  	93.088665 
2292.436932  	93.141885 
2293.401356  	93.135435 
2294.365781  	93.070741 
2295.330205  	93.070880 
2296.294630  	93.098829 
2297.259054  	93.063120 
2298.223479  	93.008617 
2299.187903  	93.015254 
2300.152328  	93.132029 
2301.116752  	93.207398 
2302.081176  	93.194181 
2303.045601  	93.153806 
2304.010025  	93.162307 
2304.974450  	93.103193 
2305.938874  	93.081866 
2306.903299  	93.088008 
2307.867723  	93.151560 
2308.832148  	93.098513 
2309.796572  	93.067047 
2310.760997  	93.081208 
2311.725421  	93.112482 
2312.689845  	93.215066 
2313.654270  	93.250756 
2314.618694  	93.250819 
2315.583119  	93.355921 
2316.547543  	93.369836 
2317.511968  	93.341493 
2318.476392  	93.313811 
2319.440817  	93.289366 
2320.405241  	93.284782 
2321.369666  	93.400760 
2322.334090  	93.436143 
2323.298515  	93.418636 
2324.262939  	93.339480 
2325.227363  	93.593988 
2326.191788  	93.897405 
2327.156212  	94.086470 
2328.120637  	94.152941 
2329.085061  	94.192393 
2330.049486  	94.246692 
2331.013910  	94.323891 
2331.978335  	94.389356 
2332.942759  	94.483251 
2333.907184  	94.489707 
2334.871608  	94.479080 
2335.836032  	94.596442 
2336.800457  	94.736377 
2337.764881  	94.690327 
2338.729306  	94.664456 
2339.693730  	94.641365 
2340.658155  	94.674438 
2341.622579  	94.747273 
2342.587004  	94.662544 
2343.551428  	94.517147 
2344.515853  	94.462281 
2345.480277  	94.451910 
2346.444701  	94.282739 
2347.409126  	94.035683 
2348.373550  	93.754933 
2349.337975  	93.677725 
2350.302399  	93.880651 
2351.266824  	94.201059 
2352.231248  	94.548322 
2353.195673  	94.618932 
2354.160097  	94.642205 
2355.124522  	94.820139 
2356.088946  	95.027371 
2357.053370  	95.032625 
2358.017795  	95.084421 
2358.982219  	95.264411 
2359.946644  	95.502154 
2360.911068  	95.411813 
2361.875493  	95.192542 
2362.839917  	95.122256 
2363.804342  	95.128031 
2364.768766  	95.049158 
2365.733191  	95.117213 
2366.697615  	95.087553 
2367.662039  	94.859922 
2368.626464  	94.566975 
2369.590888  	94.344805 
2370.555313  	94.258805 
2371.519737  	94.117420 
2372.484162  	93.988892 
2373.448586  	93.950463 
2374.413011  	93.725338 
2375.377435  	93.537505 
2376.341860  	93.476377 
2377.306284  	93.439954 
2378.270708  	93.356838 
2379.235133  	93.230250 
2380.199557  	93.239921 
2381.163982  	93.285785 
2382.128406  	93.287377 
2383.092831  	93.287565 
2384.057255  	93.262909 
2385.021680  	93.265350 
2385.986104  	93.298894 
2386.950529  	93.323339 
2387.914953  	93.296871 
2388.879378  	93.294072 
2389.843802  	93.397473 
2390.808226  	93.400664 
2391.772651  	93.351412 
2392.737075  	93.381075 
2393.701500  	93.417874 
2394.665924  	93.423613 
2395.630349  	93.391682 
2396.594773  	93.368732 
2397.559198  	93.373649 
2398.523622  	93.418775 
2399.488047  	93.466104 
2400.452471  	93.428331 
2401.416895  	93.356037 
2402.381320  	93.378878 
2403.345744  	93.434311 
2404.310169  	93.471787 
2405.274593  	93.434935 
2406.239018  	93.383709 
2407.203442  	93.406919 
2408.167867  	93.449455 
2409.132291  	93.449439 
2410.096716  	93.398984 
2411.061140  	93.336576 
2412.025564  	93.341680 
2412.989989  	93.351064 
2413.954413  	93.366643 
2414.918838  	93.429015 
2415.883262  	93.427654 
2416.847687  	93.400147 
2417.812111  	93.438038 
2418.776536  	93.432904 
2419.740960  	93.434365 
2420.705385  	93.469408 
2421.669809  	93.437282 
2422.634233  	93.430724 
2423.598658  	93.417603 
2424.563082  	93.425526 
2425.527507  	93.437542 
2426.491931  	93.421941 
2427.456356  	93.393339 
2428.420780  	93.456719 
2429.385205  	93.492142 
2430.349629  	93.466009 
2431.314054  	93.426935 
2432.278478  	93.412860 
2433.242902  	93.406378 
2434.207327  	93.419033 
2435.171751  	93.444416 
2436.136176  	93.462131 
2437.100600  	93.525642 
2438.065025  	93.514757 
2439.029449  	93.502648 
2439.993874  	93.475657 
2440.958298  	93.463432 
2441.922723  	93.430121 
2442.887147  	93.362283 
2443.851572  	93.406400 
2444.815996  	93.461616 
2445.780420  	93.440383 
2446.744845  	93.382980 
2447.709269  	93.385009 
2448.673694  	93.397078 
2449.638118  	93.368615 
2450.602543  	93.357429 
2451.566967  	93.355577 
2452.531392  	93.394355 
2453.495816  	93.393627 
2454.460241  	93.386225 
2455.424665  	93.391635 
2456.389089  	93.342120 
2457.353514  	93.280246 
2458.317938  	93.293788 
2459.282363  	93.322266 
2460.246787  	93.336114 
2461.211212  	93.337578 
2462.175636  	93.366541 
2463.140061  	93.408964 
2464.104485  	93.437472 
2465.068910  	93.447922 
2466.033334  	93.433181 
2466.997758  	93.447565 
2467.962183  	93.465361 
2468.926607  	93.424162 
2469.891032  	93.423674 
2470.855456  	93.442970 
2471.819881  	93.431569 
2472.784305  	93.442252 
2473.748730  	93.472662 
2474.713154  	93.490642 
2475.677579  	93.469876 
2476.642003  	93.401988 
2477.606427  	93.371149 
2478.570852  	93.417415 
2479.535276  	93.470320 
2480.499701  	93.409428 
2481.464125  	93.398878 
2482.428550  	93.457054 
2483.392974  	93.420782 
2484.357399  	93.405138 
2485.321823  	93.400333 
2486.286248  	93.337142 
2487.250672  	93.334943 
2488.215096  	93.358302 
2489.179521  	93.373250 
2490.143945  	93.354374 
2491.108370  	93.291060 
2492.072794  	93.298897 
2493.037219  	93.375436 
2494.001643  	93.470703 
2494.966068  	93.458787 
2495.930492  	93.482350 
2496.894917  	93.497626 
2497.859341  	93.408277 
2498.823765  	93.322651 
2499.788190  	93.322438 
2500.752614  	93.341290 
2501.717039  	93.357414 
2502.681463  	93.388671 
2503.645888  	93.391300 
2504.610312  	93.371110 
2505.574737  	93.321601 
2506.539161  	93.281165 
2507.503586  	93.371122 
2508.468010  	93.436187 
2509.432435  	93.405051 
2510.396859  	93.390602 
2511.361283  	93.390954 
2512.325708  	93.363460 
2513.290132  	93.334347 
2514.254557  	93.350044 
2515.218981  	93.366669 
2516.183406  	93.352385 
2517.147830  	93.363959 
2518.112255  	93.328309 
2519.076679  	93.301403 
2520.041104  	93.291322 
2521.005528  	93.322415 
2521.969952  	93.267934 
2522.934377  	93.197853 
2523.898801  	93.266724 
2524.863226  	93.375767 
2525.827650  	93.337600 
2526.792075  	93.261311 
2527.756499  	93.265849 
2528.720924  	93.271296 
2529.685348  	93.219863 
2530.649773  	93.245244 
2531.614197  	93.329420 
2532.578621  	93.368447 
2533.543046  	93.321646 
2534.507470  	93.285176 
2535.471895  	93.309814 
2536.436319  	93.324522 
2537.400744  	93.306160 
2538.365168  	93.281300 
2539.329593  	93.301579 
2540.294017  	93.322544 
2541.258442  	93.343853 
2542.222866  	93.310005 
2543.187290  	93.292057 
2544.151715  	93.307872 
2545.116139  	93.324960 
2546.080564  	93.362890 
2547.044988  	93.279481 
2548.009413  	93.178680 
2548.973837  	93.251100 
2549.938262  	93.304068 
2550.902686  	93.301160 
2551.867111  	93.319923 
2552.831535  	93.252109 
2553.795959  	93.215154 
2554.760384  	93.265373 
2555.724808  	93.248967 
2556.689233  	93.206118 
2557.653657  	93.248294 
2558.618082  	93.278798 
2559.582506  	93.324767 
2560.546931  	93.309649 
2561.511355  	93.226167 
2562.475780  	93.201135 
2563.440204  	93.234189 
2564.404629  	93.280529 
2565.369053  	93.292490 
2566.333477  	93.283807 
2567.297902  	93.277966 
2568.262326  	93.252049 
2569.226751  	93.184605 
2570.191175  	93.157784 
2571.155600  	93.260620 
2572.120024  	93.315056 
2573.084449  	93.313371 
2574.048873  	93.256201 
2575.013298  	93.172559 
2575.977722  	93.194616 
2576.942146  	93.258351 
2577.906571  	93.236883 
2578.870995  	93.242449 
2579.835420  	93.271114 
2580.799844  	93.275379 
2581.764269  	93.259290 
2582.728693  	93.309480 
2583.693118  	93.271035 
2584.657542  	93.219432 
2585.621967  	93.248442 
2586.586391  	93.247388 
2587.550815  	93.261774 
2588.515240  	93.253712 
2589.479664  	93.198333 
2590.444089  	93.146776 
2591.408513  	93.159953 
2592.372938  	93.198452 
2593.337362  	93.207009 
2594.301787  	93.182674 
2595.266211  	93.190998 
2596.230636  	93.243066 
2597.195060  	93.285757 
2598.159484  	93.319098 
2599.123909  	93.310568 
2600.088333  	93.242504 
2601.052758  	93.187876 
2602.017182  	93.216931 
2602.981607  	93.242904 
2603.946031  	93.268411 
2604.910456  	93.278233 
2605.874880  	93.248725 
2606.839305  	93.234332 
2607.803729  	93.244816 
2608.768153  	93.249912 
2609.732578  	93.206068 
2610.697002  	93.177364 
2611.661427  	93.202785 
2612.625851  	93.224236 
2613.590276  	93.234830 
2614.554700  	93.208573 
2615.519125  	93.175289 
2616.483549  	93.200069 
2617.447974  	93.186109 
2618.412398  	93.183975 
2619.376822  	93.205744 
2620.341247  	93.200116 
2621.305671  	93.166839 
2622.270096  	93.127275 
2623.234520  	93.154693 
2624.198945  	93.183294 
2625.163369  	93.189784 
2626.127794  	93.186813 
2627.092218  	93.174369 
2628.056643  	93.163688 
2629.021067  	93.148386 
2629.985492  	93.142786 
2630.949916  	93.187643 
2631.914340  	93.168685 
2632.878765  	93.144379 
2633.843189  	93.164790 
2634.807614  	93.164083 
2635.772038  	93.183944 
2636.736463  	93.169593 
2637.700887  	93.157687 
2638.665312  	93.163171 
2639.629736  	93.153791 
2640.594161  	93.166926 
2641.558585  	93.182046 
2642.523009  	93.173379 
2643.487434  	93.199756 
2644.451858  	93.240639 
2645.416283  	93.230224 
2646.380707  	93.214689 
2647.345132  	93.200376 
2648.309556  	93.203337 
2649.273981  	93.206665 
2650.238405  	93.216338 
2651.202830  	93.241540 
2652.167254  	93.221794 
2653.131678  	93.206439 
2654.096103  	93.221458 
2655.060527  	93.229252 
2656.024952  	93.241613 
2656.989376  	93.225547 
2657.953801  	93.220153 
2658.918225  	93.235405 
2659.882650  	93.250525 
2660.847074  	93.245403 
2661.811499  	93.261864 
2662.775923  	93.283222 
2663.740347  	93.296713 
2664.704772  	93.298836 
2665.669196  	93.337644 
2666.633621  	93.359402 
2667.598045  	93.358824 
2668.562470  	93.343062 
2669.526894  	93.302427 
2670.491319  	93.283424 
2671.455743  	93.342162 
2672.420168  	93.391470 
2673.384592  	93.368485 
2674.349016  	93.331330 
2675.313441  	93.323464 
2676.277865  	93.339070 
2677.242290  	93.370531 
2678.206714  	93.370913 
2679.171139  	93.363210 
2680.135563  	93.355753 
2681.099988  	93.356596 
2682.064412  	93.362362 
2683.028837  	93.347849 
2683.993261  	93.327884 
2684.957686  	93.354769 
2685.922110  	93.370770 
2686.886534  	93.351511 
2687.850959  	93.342830 
2688.815383  	93.350384 
2689.779808  	93.318977 
2690.744232  	93.309525 
2691.708657  	93.324877 
2692.673081  	93.332891 
2693.637506  	93.357319 
2694.601930  	93.371356 
2695.566355  	93.361358 
2696.530779  	93.347192 
2697.495203  	93.365516 
2698.459628  	93.371066 
2699.424052  	93.348960 
2700.388477  	93.334494 
2701.352901  	93.304949 
2702.317326  	93.320122 
2703.281750  	93.349977 
2704.246175  	93.362254 
2705.210599  	93.352042 
2706.175024  	93.316202 
2707.139448  	93.281137 
2708.103872  	93.277744 
2709.068297  	93.297344 
2710.032721  	93.311956 
2710.997146  	93.297351 
2711.961570  	93.316281 
2712.925995  	93.357748 
2713.890419  	93.349533 
2714.854844  	93.335452 
2715.819268  	93.344081 
2716.783693  	93.332158 
2717.748117  	93.315262 
2718.712541  	93.308240 
2719.676966  	93.323246 
2720.641390  	93.312845 
2721.605815  	93.313435 
2722.570239  	93.319288 
2723.534664  	93.325434 
2724.499088  	93.317032 
2725.463513  	93.307462 
2726.427937  	93.312094 
2727.392362  	93.315296 
2728.356786  	93.293060 
2729.321210  	93.257493 
2730.285635  	93.263142 
2731.250059  	93.255437 
2732.214484  	93.261188 
2733.178908  	93.279856 
2734.143333  	93.286282 
2735.107757  	93.276309 
2736.072182  	93.281927 
2737.036606  	93.291296 
2738.001031  	93.258447 
2738.965455  	93.259918 
2739.929879  	93.273469 
2740.894304  	93.255343 
2741.858728  	93.236142 
2742.823153  	93.226516 
2743.787577  	93.242929 
2744.752002  	93.269697 
2745.716426  	93.238535 
2746.680851  	93.215965 
2747.645275  	93.220703 
2748.609700  	93.234791 
2749.574124  	93.247236 
2750.538549  	93.266411 
2751.502973  	93.262442 
2752.467397  	93.251113 
2753.431822  	93.249690 
2754.396246  	93.264032 
2755.360671  	93.267808 
2756.325095  	93.270842 
2757.289520  	93.254082 
2758.253944  	93.237523 
2759.218369  	93.251394 
2760.182793  	93.269764 
2761.147218  	93.236576 
2762.111642  	93.205625 
2763.076066  	93.210870 
2764.040491  	93.247031 
2765.004915  	93.263010 
2765.969340  	93.254946 
2766.933764  	93.256239 
2767.898189  	93.239321 
2768.862613  	93.233878 
2769.827038  	93.218038 
2770.791462  	93.200563 
2771.755887  	93.187172 
2772.720311  	93.198883 
2773.684735  	93.216938 
2774.649160  	93.207149 
2775.613584  	93.210157 
2776.578009  	93.227449 
2777.542433  	93.219127 
2778.506858  	93.210093 
2779.471282  	93.208713 
2780.435707  	93.189772 
2781.400131  	93.179756 
2782.364556  	93.184063 
2783.328980  	93.199683 
2784.293404  	93.204084 
2785.257829  	93.206803 
2786.222253  	93.213745 
2787.186678  	93.213225 
2788.151102  	93.189992 
2789.115527  	93.218480 
2790.079951  	93.218123 
2791.044376  	93.187528 
2792.008800  	93.186578 
2792.973225  	93.176157 
2793.937649  	93.167613 
2794.902073  	93.146231 
2795.866498  	93.140305 
2796.830922  	93.143376 
2797.795347  	93.148024 
2798.759771  	93.156270 
2799.724196  	93.118101 
2800.688620  	93.073398 
2801.653045  	93.059117 
2802.617469  	93.081363 
2803.581894  	93.135085 
2804.546318  	93.154478 
2805.510743  	93.132194 
2806.475167  	93.082752 
2807.439591  	93.072885 
2808.404016  	93.088919 
2809.368440  	93.105375 
2810.332865  	93.109611 
2811.297289  	93.070108 
2812.261714  	93.077217 
2813.226138  	93.095623 
2814.190563  	93.074049 
2815.154987  	93.092154 
2816.119412  	93.104575 
2817.083836  	93.094010 
2818.048260  	93.083937 
2819.012685  	93.098891 
2819.977109  	93.118655 
2820.941534  	93.092137 
2821.905958  	93.063049 
2822.870383  	93.049946 
2823.834807  	93.067001 
2824.799232  	93.059748 
2825.763656  	93.048237 
2826.728081  	93.050337 
2827.692505  	93.055541 
2828.656929  	93.075681 
2829.621354  	93.077444 
2830.585778  	93.052418 
2831.550203  	93.019881 
2832.514627  	92.980683 
2833.479052  	92.959684 
2834.443476  	92.974816 
2835.407901  	93.019048 
2836.372325  	93.013143 
2837.336750  	92.986939 
2838.301174  	92.917443 
2839.265598  	92.892785 
2840.230023  	92.905815 
2841.194447  	92.905334 
2842.158872  	92.879017 
2843.123296  	92.850337 
2844.087721  	92.831570 
2845.052145  	92.811568 
2846.016570  	92.751047 
2846.980994  	92.690057 
2847.945419  	92.682579 
2848.909843  	92.662832 
2849.874267  	92.606682 
2850.838692  	92.594948 
2851.803116  	92.590456 
2852.767541  	92.560908 
2853.731965  	92.573234 
2854.696390  	92.607197 
2855.660814  	92.629062 
2856.625239  	92.630018 
2857.589663  	92.610687 
2858.554088  	92.603640 
2859.518512  	92.640775 
2860.482936  	92.658287 
2861.447361  	92.631606 
2862.411785  	92.643975 
2863.376210  	92.643446 
2864.340634  	92.615135 
2865.305059  	92.608516 
2866.269483  	92.623312 
2867.233908  	92.598545 
2868.198332  	92.577317 
2869.162757  	92.582707 
2870.127181  	92.606262 
2871.091606  	92.568211 
2872.056030  	92.535800 
2873.020454  	92.575011 
2873.984879  	92.580396 
2874.949303  	92.504827 
2875.913728  	92.484500 
2876.878152  	92.521952 
2877.842577  	92.516031 
2878.807001  	92.497109 
2879.771426  	92.504915 
2880.735850  	92.468161 
2881.700275  	92.461900 
2882.664699  	92.434091 
2883.629123  	92.395237 
2884.593548  	92.385889 
2885.557972  	92.411479 
2886.522397  	92.387902 
2887.486821  	92.361680 
2888.451246  	92.367757 
2889.415670  	92.358976 
2890.380095  	92.329604 
2891.344519  	92.314411 
2892.308944  	92.343148 
2893.273368  	92.336472 
2894.237792  	92.316354 
2895.202217  	92.259670 
2896.166641  	92.232587 
2897.131066  	92.231288 
2898.095490  	92.220924 
2899.059915  	92.217232 
2900.024339  	92.157977 
2900.988764  	92.113461 
2901.953188  	92.130120 
2902.917613  	92.111646 
2903.882037  	92.064490 
2904.846461  	92.022713 
2905.810886  	91.985927 
2906.775310  	91.961941 
2907.739735  	91.904807 
2908.704159  	91.868959 
2909.668584  	91.907336 
2910.633008  	91.919711 
2911.597433  	91.949765 
2912.561857  	92.045342 
2913.526282  	92.090591 
2914.490706  	92.081889 
2915.455130  	92.094803 
2916.419555  	92.152443 
2917.383979  	92.217554 
2918.348404  	92.248266 
2919.312828  	92.288670 
2920.277253  	92.304756 
2921.241677  	92.292524 
2922.206102  	92.327649 
2923.170526  	92.360030 
2924.134951  	92.384482 
2925.099375  	92.400675 
2926.063800  	92.435046 
2927.028224  	92.464166 
2927.992648  	92.489880 
2928.957073  	92.533518 
2929.921497  	92.506654 
2930.885922  	92.449396 
2931.850346  	92.467929 
2932.814771  	92.477812 
2933.779195  	92.478719 
2934.743620  	92.497228 
2935.708044  	92.488738 
2936.672469  	92.470106 
2937.636893  	92.467737 
2938.601317  	92.461794 
2939.565742  	92.471121 
2940.530166  	92.480555 
2941.494591  	92.434389 
2942.459015  	92.352205 
2943.423440  	92.306356 
2944.387864  	92.253300 
2945.352289  	92.196590 
2946.316713  	92.224087 
2947.281138  	92.231372 
2948.245562  	92.183776 
2949.209986  	92.087533 
2950.174411  	92.006403 
2951.138835  	92.036625 
2952.103260  	92.004126 
2953.067684  	91.914607 
2954.032109  	91.870638 
2954.996533  	91.863534 
2955.960958  	91.821054 
2956.925382  	91.768325 
2957.889807  	91.741802 
2958.854231  	91.701714 
2959.818655  	91.668524 
2960.783080  	91.661482 
2961.747504  	91.627694 
2962.711929  	91.613795 
2963.676353  	91.586540 
2964.640778  	91.513754 
2965.605202  	91.463244 
2966.569627  	91.410408 
2967.534051  	91.456110 
2968.498476  	91.557549 
2969.462900  	91.533842 
2970.427324  	91.472221 
2971.391749  	91.498974 
2972.356173  	91.570936 
2973.320598  	91.651659 
2974.285022  	91.731269 
2975.249447  	91.785274 
2976.213871  	91.853280 
2977.178296  	91.929707 
2978.142720  	91.962858 
2979.107145  	92.022541 
2980.071569  	92.133078 
2981.035993  	92.195129 
2982.000418  	92.246271 
2982.964842  	92.322538 
2983.929267  	92.360443 
2984.893691  	92.394087 
2985.858116  	92.399299 
2986.822540  	92.448507 
2987.786965  	92.519751 
2988.751389  	92.544170 
2989.715814  	92.569526 
2990.680238  	92.610122 
2991.644663  	92.614096 
2992.609087  	92.597383 
2993.573511  	92.622477 
2994.537936  	92.648577 
2995.502360  	92.677031 
2996.466785  	92.685614 
2997.431209  	92.685713 
2998.395634  	92.700679 
2999.360058  	92.680554 
3000.324483  	92.696951 
3001.288907  	92.704327 
3002.253332  	92.715858 
3003.217756  	92.746442 
3004.182180  	92.717209 
3005.146605  	92.723245 
3006.111029  	92.774741 
3007.075454  	92.806451 
3008.039878  	92.802679 
3009.004303  	92.841304 
3009.968727  	92.858893 
3010.933152  	92.848488 
3011.897576  	92.806132 
3012.862001  	92.753967 
3013.826425  	92.830586 
3014.790849  	92.945331 
3015.755274  	92.951195 
3016.719698  	92.963602 
3017.684123  	93.025279 
3018.648547  	93.052178 
3019.612972  	93.041325 
3020.577396  	93.092314 
3021.541821  	93.138636 
3022.506245  	93.130367 
3023.470670  	93.140218 
3024.435094  	93.158717 
3025.399518  	93.133358 
3026.363943  	93.172015 
3027.328367  	93.252073 
3028.292792  	93.258850 
3029.257216  	93.239857 
3030.221641  	93.208846 
3031.186065  	93.145071 
3032.150490  	93.104958 
3033.114914  	93.161096 
3034.079339  	93.161621 
3035.043763  	93.167570 
3036.008187  	93.211007 
3036.972612  	93.198728 
3037.937036  	93.148557 
3038.901461  	93.139900 
3039.865885  	93.159708 
3040.830310  	93.193357 
3041.794734  	93.209627 
3042.759159  	93.205725 
3043.723583  	93.213445 
3044.688008  	93.199441 
3045.652432  	93.177129 
3046.616857  	93.160548 
3047.581281  	93.129120 
3048.545705  	93.044177 
3049.510130  	92.992748 
3050.474554  	92.989652 
3051.438979  	92.965804 
3052.403403  	92.940240 
3053.367828  	92.947721 
3054.332252  	92.899661 
3055.296677  	92.904148 
3056.261101  	92.838653 
3057.225526  	92.793566 
3058.189950  	92.909412 
3059.154374  	92.976391 
3060.118799  	92.988478 
3061.083223  	93.027181 
3062.047648  	93.047054 
3063.012072  	93.004225 
3063.976497  	92.909401 
3064.940921  	92.855067 
3065.905346  	92.900671 
3066.869770  	92.921817 
3067.834195  	92.899531 
3068.798619  	92.906821 
3069.763043  	92.907126 
3070.727468  	92.911664 
3071.691892  	92.965916 
3072.656317  	92.985087 
3073.620741  	92.998650 
3074.585166  	93.008833 
3075.549590  	92.995463 
3076.514015  	92.964231 
3077.478439  	92.923808 
3078.442864  	92.943744 
3079.407288  	92.933842 
3080.371712  	92.905358 
3081.336137  	92.936513 
3082.300561  	92.942268 
3083.264986  	92.976554 
3084.229410  	93.026207 
3085.193835  	93.004490 
3086.158259  	93.008502 
3087.122684  	93.024832 
3088.087108  	93.040689 
3089.051533  	93.056399 
3090.015957  	93.056822 
3090.980381  	93.042394 
3091.944806  	93.057628 
3092.909230  	93.116089 
3093.873655  	93.108234 
3094.838079  	93.040926 
3095.802504  	93.064428 
3096.766928  	93.079834 
3097.731353  	93.027510 
3098.695777  	93.009239 
3099.660202  	92.987307 
3100.624626  	92.992615 
3101.589050  	92.963708 
3102.553475  	92.921342 
3103.517899  	92.920043 
3104.482324  	92.994874 
3105.446748  	93.029335 
3106.411173  	93.014237 
3107.375597  	93.003184 
3108.340022  	93.063305 
3109.304446  	93.108813 
3110.268871  	93.062880 
3111.233295  	93.047644 
3112.197720  	93.045454 
3113.162144  	93.058666 
3114.126568  	93.065123 
3115.090993  	93.033625 
3116.055417  	93.028856 
3117.019842  	93.063518 
3117.984266  	93.021365 
3118.948691  	92.961325 
3119.913115  	93.050537 
3120.877540  	93.093865 
3121.841964  	93.011283 
3122.806389  	93.006968 
3123.770813  	93.066838 
3124.735237  	93.072735 
3125.699662  	93.036926 
3126.664086  	93.011593 
3127.628511  	93.070927 
3128.592935  	93.073736 
3129.557360  	93.006506 
3130.521784  	93.031671 
3131.486209  	93.058228 
3132.450633  	93.016112 
3133.415058  	92.989558 
3134.379482  	93.077931 
3135.343906  	93.109926 
3136.308331  	93.106987 
3137.272755  	93.091752 
3138.237180  	93.104894 
3139.201604  	93.094686 
3140.166029  	93.068376 
3141.130453  	93.099319 
3142.094878  	93.048878 
3143.059302  	92.974540 
3144.023727  	93.085431 
3144.988151  	93.172168 
3145.952575  	93.097758 
3146.917000  	93.088518 
3147.881424  	93.157676 
3148.845849  	93.189066 
3149.810273  	93.111314 
3150.774698  	93.065028 
3151.739122  	93.080543 
3152.703547  	93.063268 
3153.667971  	93.080949 
3154.632396  	93.126037 
3155.596820  	93.094614 
3156.561244  	93.029940 
3157.525669  	93.052005 
3158.490093  	93.048084 
3159.454518  	93.027224 
3160.418942  	93.026730 
3161.383367  	93.054434 
3162.347791  	93.031523 
3163.312216  	93.018746 
3164.276640  	93.053591 
3165.241065  	93.063146 
3166.205489  	93.061231 
3167.169914  	93.060102 
3168.134338  	93.030276 
3169.098762  	93.018408 
3170.063187  	92.975241 
3171.027611  	92.947048 
3171.992036  	92.999964 
3172.956460  	92.989738 
3173.920885  	92.957893 
3174.885309  	93.008621 
3175.849734  	93.027311 
3176.814158  	92.973306 
3177.778583  	92.918972 
3178.743007  	92.902054 
3179.707431  	92.909334 
3180.671856  	92.917522 
3181.636280  	92.960777 
3182.600705  	92.983732 
3183.565129  	92.937857 
3184.529554  	92.906156 
3185.493978  	92.950640 
3186.458403  	92.983722 
3187.422827  	92.936935 
3188.387252  	92.888394 
3189.351676  	92.887286 
3190.316100  	92.896893 
3191.280525  	92.925166 
3192.244949  	92.963686 
3193.209374  	93.013202 
3194.173798  	93.007312 
3195.138223  	92.984611 
3196.102647  	92.913322 
3197.067072  	92.821981 
3198.031496  	92.822469 
3198.995921  	92.932594 
3199.960345  	92.983519 
3200.924769  	92.978473 
3201.889194  	92.985937 
3202.853618  	92.951985 
3203.818043  	92.880677 
3204.782467  	92.796146 
3205.746892  	92.785263 
3206.711316  	92.753428 
3207.675741  	92.760962 
3208.640165  	92.815887 
3209.604590  	92.846054 
3210.569014  	92.853443 
3211.533438  	92.849225 
3212.497863  	92.789048 
3213.462287  	92.758520 
3214.426712  	92.758257 
3215.391136  	92.771390 
3216.355561  	92.785276 
3217.319985  	92.802299 
3218.284410  	92.810680 
3219.248834  	92.730424 
3220.213259  	92.691987 
3221.177683  	92.793070 
3222.142107  	92.837472 
3223.106532  	92.818784 
3224.070956  	92.806961 
3225.035381  	92.777550 
3225.999805  	92.762631 
3226.964230  	92.761896 
3227.928654  	92.681579 
3228.893079  	92.678643 
3229.857503  	92.747480 
3230.821928  	92.776361 
3231.786352  	92.770300 
3232.750777  	92.728806 
3233.715201  	92.677134 
3234.679625  	92.666183 
3235.644050  	92.691122 
3236.608474  	92.703191 
3237.572899  	92.706703 
3238.537323  	92.687269 
3239.501748  	92.699977 
3240.466172  	92.707853 
3241.430597  	92.715478 
3242.395021  	92.694722 
3243.359446  	92.677204 
3244.323870  	92.647928 
3245.288294  	92.557130 
3246.252719  	92.504928 
3247.217143  	92.553045 
3248.181568  	92.560984 
3249.145992  	92.550351 
3250.110417  	92.612273 
3251.074841  	92.651440 
3252.039266  	92.637169 
3253.003690  	92.618721 
3253.968115  	92.557423 
3254.932539  	92.511568 
3255.896963  	92.490028 
3256.861388  	92.459848 
3257.825812  	92.511195 
3258.790237  	92.462617 
3259.754661  	92.474665 
3260.719086  	92.495721 
3261.683510  	92.480816 
3262.647935  	92.476449 
3263.612359  	92.500007 
3264.576784  	92.504227 
3265.541208  	92.502973 
3266.505632  	92.496201 
3267.470057  	92.494581 
3268.434481  	92.457940 
3269.398906  	92.400353 
3270.363330  	92.421907 
3271.327755  	92.432165 
3272.292179  	92.424936 
3273.256604  	92.397203 
3274.221028  	92.412964 
3275.185453  	92.469166 
3276.149877  	92.418687 
3277.114301  	92.395536 
3278.078726  	92.392628 
3279.043150  	92.372432 
3280.007575  	92.372228 
3280.971999  	92.382984 
3281.936424  	92.426467 
3282.900848  	92.435691 
3283.865273  	92.395656 
3284.829697  	92.412495 
3285.794122  	92.444650 
3286.758546  	92.423629 
3287.722971  	92.410583 
3288.687395  	92.443421 
3289.651819  	92.468698 
3290.616244  	92.394475 
3291.580668  	92.327290 
3292.545093  	92.340291 
3293.509517  	92.363757 
3294.473942  	92.385524 
3295.438366  	92.378911 
3296.402791  	92.375999 
3297.367215  	92.393282 
3298.331640  	92.370880 
3299.296064  	92.391478 
3300.260488  	92.444270 
3301.224913  	92.476126 
3302.189337  	92.477628 
3303.153762  	92.448794 
3304.118186  	92.455023 
3305.082611  	92.484970 
3306.047035  	92.535889 
3307.011460  	92.569688 
3307.975884  	92.508510 
3308.940309  	92.439943 
3309.904733  	92.496953 
3310.869157  	92.487016 
3311.833582  	92.447088 
3312.798006  	92.476079 
3313.762431  	92.473487 
3314.726855  	92.426994 
3315.691280  	92.395426 
3316.655704  	92.400569 
3317.620129  	92.415592 
3318.584553  	92.474058 
3319.548978  	92.476317 
3320.513402  	92.422587 
3321.477826  	92.424704 
3322.442251  	92.432135 
3323.406675  	92.471255 
3324.371100  	92.457149 
3325.335524  	92.437712 
3326.299949  	92.453799 
3327.264373  	92.460112 
3328.228798  	92.416245 
3329.193222  	92.325634 
3330.157647  	92.339860 
3331.122071  	92.379253 
3332.086495  	92.446953 
3333.050920  	92.421467 
3334.015344  	92.357712 
3334.979769  	92.373982 
3335.944193  	92.433641 
3336.908618  	92.356429 
3337.873042  	92.320686 
3338.837467  	92.381480 
3339.801891  	92.414291 
3340.766316  	92.433420 
3341.730740  	92.429428 
3342.695164  	92.427464 
3343.659589  	92.452497 
3344.624013  	92.541547 
3345.588438  	92.573573 
3346.552862  	92.510418 
3347.517287  	92.432913 
3348.481711  	92.410200 
3349.446136  	92.464429 
3350.410560  	92.519385 
3351.374985  	92.598760 
3352.339409  	92.639573 
3353.303834  	92.576885 
3354.268258  	92.596020 
3355.232682  	92.638083 
3356.197107  	92.556288 
3357.161531  	92.545507 
3358.125956  	92.591238 
3359.090380  	92.576937 
3360.054805  	92.514595 
3361.019229  	92.518526 
3361.983654  	92.526135 
3362.948078  	92.591619 
3363.912503  	92.640317 
3364.876927  	92.553617 
3365.841351  	92.536849 
3366.805776  	92.614600 
3367.770200  	92.601719 
3368.734625  	92.608730 
3369.699049  	92.697402 
3370.663474  	92.762068 
3371.627898  	92.724092 
3372.592323  	92.663055 
3373.556747  	92.631357 
3374.521172  	92.703037 
3375.485596  	92.758422 
3376.450020  	92.742541 
3377.414445  	92.731252 
3378.378869  	92.730248 
3379.343294  	92.771051 
3380.307718  	92.769050 
3381.272143  	92.813179 
3382.236567  	92.812595 
3383.200992  	92.780363 
3384.165416  	92.710147 
3385.129841  	92.680883 
3386.094265  	92.727961 
3387.058689  	92.774104 
3388.023114  	92.842279 
3388.987538  	92.899169 
3389.951963  	92.841043 
3390.916387  	92.765576 
3391.880812  	92.692753 
3392.845236  	92.580335 
3393.809661  	92.619246 
3394.774085  	92.759068 
3395.738510  	92.784790 
3396.702934  	92.777903 
3397.667358  	92.697464 
3398.631783  	92.753069 
3399.596207  	92.863640 
3400.560632  	92.822125 
3401.525056  	92.730779 
3402.489481  	92.763296 
3403.453905  	92.750902 
3404.418330  	92.715110 
3405.382754  	92.730670 
3406.347179  	92.791343 
3407.311603  	92.796292 
3408.276028  	92.773751 
3409.240452  	92.743104 
3410.204876  	92.696735 
3411.169301  	92.714361 
3412.133725  	92.793048 
3413.098150  	92.821654 
3414.062574  	92.755912 
3415.026999  	92.742682 
3415.991423  	92.695411 
3416.955848  	92.723315 
3417.920272  	92.738695 
3418.884697  	92.691104 
3419.849121  	92.528187 
3420.813545  	92.334292 
3421.777970  	92.368736 
3422.742394  	92.410580 
3423.706819  	92.554483 
3424.671243  	92.653656 
3425.635668  	92.687548 
3426.600092  	92.670743 
3427.564517  	92.599062 
3428.528941  	92.601034 
3429.493366  	92.610671 
3430.457790  	92.552021 
3431.422214  	92.552809 
3432.386639  	92.634606 
3433.351063  	92.721205 
3434.315488  	92.809209 
3435.279912  	92.773707 
3436.244337  	92.756941 
3437.208761  	92.778208 
3438.173186  	92.811523 
3439.137610  	92.832412 
3440.102035  	92.801265 
3441.066459  	92.790986 
3442.030883  	92.749283 
3442.995308  	92.671254 
3443.959732  	92.759694 
3444.924157  	92.797452 
3445.888581  	92.790958 
3446.853006  	92.563831 
3447.817430  	92.403326 
3448.781855  	92.795581 
3449.746279  	92.956548 
3450.710704  	92.967665 
3451.675128  	93.032361 
3452.639552  	93.088646 
3453.603977  	93.058106 
3454.568401  	93.018025 
3455.532826  	92.951133 
3456.497250  	93.003994 
3457.461675  	93.071056 
3458.426099  	93.062322 
3459.390524  	93.092717 
3460.354948  	93.163677 
3461.319373  	93.111144 
3462.283797  	93.021205 
3463.248221  	92.976533 
3464.212646  	93.092739 
3465.177070  	93.191821 
3466.141495  	93.172860 
3467.105919  	92.997802 
3468.070344  	93.067690 
3469.034768  	93.246427 
3469.999193  	93.238530 
3470.963617  	93.200482 
3471.928042  	93.212215 
3472.892466  	93.218642 
3473.856891  	93.222729 
3474.821315  	93.148973 
3475.785739  	93.155566 
3476.750164  	93.212056 
3477.714588  	93.233457 
3478.679013  	93.276537 
3479.643437  	93.265000 
3480.607862  	93.067935 
3481.572286  	92.954228 
3482.536711  	92.927727 
3483.501135  	93.122709 
3484.465560  	93.291661 
3485.429984  	93.271299 
3486.394408  	93.287185 
3487.358833  	93.231817 
3488.323257  	93.053110 
3489.287682  	93.066231 
3490.252106  	93.235863 
3491.216531  	93.240725 
3492.180955  	93.258178 
3493.145380  	93.387576 
3494.109804  	93.470521 
3495.074229  	93.334662 
3496.038653  	93.095883 
3497.003077  	93.060123 
3497.967502  	93.236895 
3498.931926  	93.281031 
3499.896351  	93.209331 
3500.860775  	93.150754 
3501.825200  	92.943904 
3502.789624  	92.647090 
3503.754049  	92.590086 
3504.718473  	92.880995 
3505.682898  	93.127287 
3506.647322  	93.273829 
3507.611746  	93.326549 
3508.576171  	93.154910 
3509.540595  	92.779705 
3510.505020  	92.906343 
3511.469444  	93.162657 
3512.433869  	93.181252 
3513.398293  	93.161798 
3514.362718  	93.292377 
3515.327142  	93.455310 
3516.291567  	93.445125 
3517.255991  	93.319997 
3518.220415  	93.300631 
3519.184840  	93.322364 
3520.149264  	93.285474 
3521.113689  	93.349160 
3522.078113  	93.257304 
3523.042538  	92.754171 
3524.006962  	92.482719 
3524.971387  	92.772808 
3525.935811  	92.936574 
3526.900236  	92.857332 
3527.864660  	92.747997 
3528.829085  	92.815147 
3529.793509  	92.949645 
3530.757933  	93.126734 
3531.722358  	93.152059 
3532.686782  	93.283749 
3533.651207  	93.385304 
3534.615631  	93.404880 
3535.580056  	93.228371 
3536.544480  	92.904436 
3537.508905  	93.059235 
3538.473329  	93.384746 
3539.437754  	93.376953 
3540.402178  	93.384991 
3541.366602  	93.401047 
3542.331027  	93.386959 
3543.295451  	93.214457 
3544.259876  	92.957884 
3545.224300  	92.474679 
3546.188725  	92.335005 
3547.153149  	92.404106 
3548.117574  	92.630777 
3549.081998  	93.087323 
3550.046423  	93.282167 
3551.010847  	93.273588 
3551.975271  	92.909719 
3552.939696  	92.691573 
3553.904120  	92.953812 
3554.868545  	93.315833 
3555.832969  	93.550290 
3556.797394  	93.449266 
3557.761818  	93.441138 
3558.726243  	93.462359 
3559.690667  	93.177185 
3560.655092  	92.931653 
3561.619516  	93.244401 
3562.583940  	93.248773 
3563.548365  	93.070917 
3564.512789  	93.007228 
3565.477214  	92.530189 
3566.441638  	91.168333 
3567.406063  	91.068510 
3568.370487  	91.404475 
3569.334912  	92.360686 
3570.299336  	93.110267 
3571.263761  	93.219751 
3572.228185  	93.457485 
3573.192609  	93.477022 
3574.157034  	93.356501 
3575.121458  	93.346174 
3576.085883  	93.464333 
3577.050307  	93.370996 
3578.014732  	93.332038 
3578.979156  	93.384091 
3579.943581  	93.158895 
3580.908005  	93.155354 
3581.872430  	93.467685 
3582.836854  	93.531598 
3583.801278  	93.382885 
3584.765703  	93.341263 
3585.730127  	93.129193 
3586.694552  	92.160073 
3587.658976  	91.561758 
3588.623401  	91.784381 
3589.587825  	92.438600 
3590.552250  	93.266331 
3591.516674  	93.504222 
3592.481099  	93.449321 
3593.445523  	92.987301 
3594.409948  	92.964676 
3595.374372  	92.685129 
3596.338796  	92.560355 
3597.303221  	93.163315 
3598.267645  	93.199057 
3599.232070  	92.941339 
3600.196494  	93.009590 
3601.160919  	92.900620 
3602.125343  	93.128555 
3603.089768  	93.334775 
3604.054192  	93.488998 
3605.018617  	93.595765 
3605.983041  	93.517880 
3606.947465  	92.811425 
3607.911890  	92.390084 
3608.876314  	92.583282 
3609.840739  	92.380171 
3610.805163  	92.985401 
3611.769588  	92.999949 
3612.734012  	92.206366 
3613.698437  	92.316826 
3614.662861  	92.485066 
3615.627286  	92.481246 
3616.591710  	93.128794 
3617.556134  	92.733813 
3618.520559  	92.112751 
3619.484983  	92.079379 
3620.449408  	92.092023 
3621.413832  	92.655726 
3622.378257  	93.158684 
3623.342681  	93.409953 
3624.307106  	93.552076 
3625.271530  	93.469423 
3626.235955  	93.105169 
3627.200379  	92.943301 
3628.164803  	92.393723 
3629.129228  	90.596635 
3630.093652  	90.981416 
3631.058077  	92.623250 
3632.022501  	93.285396 
3632.986926  	93.290288 
3633.951350  	92.796762 
3634.915775  	93.022463 
3635.880199  	93.528064 
3636.844624  	93.640252 
3637.809048  	93.506280 
3638.773472  	93.437690 
3639.737897  	93.616815 
3640.702321  	93.633490 
3641.666746  	93.446438 
3642.631170  	93.212760 
3643.595595  	93.335128 
3644.560019  	93.567870 
3645.524444  	93.447708 
3646.488868  	92.769625 
3647.453293  	91.432280 
3648.417717  	91.362132 
3649.382142  	91.315595 
3650.346566  	90.762151 
3651.310990  	91.002994 
3652.275415  	92.397636 
3653.239839  	93.356131 
3654.204264  	93.613288 
3655.168688  	93.490581 
3656.133113  	92.882424 
3657.097537  	92.747005 
3658.061962  	93.559637 
3659.026386  	93.780250 
3659.990811  	93.651874 
3660.955235  	93.711288 
3661.919659  	93.908218 
3662.884084  	93.946536 
3663.848508  	93.945730 
3664.812933  	93.919452 
3665.777357  	93.878450 
3666.741782  	93.870991 
3667.706206  	93.775486 
3668.670631  	93.108748 
3669.635055  	92.340949 
3670.599480  	92.065010 
3671.563904  	92.353551 
3672.528328  	93.321088 
3673.492753  	93.543174 
3674.457177  	92.768361 
3675.421602  	90.745634 
3676.386026  	90.963221 
3677.350451  	92.436564 
3678.314875  	93.061403 
3679.279300  	93.083059 
3680.243724  	93.014337 
3681.208149  	93.562633 
3682.172573  	93.901007 
3683.136997  	93.945063 
3684.101422  	93.875532 
3685.065846  	93.762345 
3686.030271  	93.800725 
3686.994695  	93.717197 
3687.959120  	93.199953 
3688.923544  	92.338669 
3689.887969  	92.675420 
3690.852393  	92.480719 
3691.816818  	92.378140 
3692.781242  	93.437433 
3693.745666  	93.812065 
3694.710091  	93.888776 
3695.674515  	93.962944 
3696.638940  	93.860778 
3697.603364  	93.944554 
3698.567789  	94.104253 
3699.532213  	94.030245 
3700.496638  	93.976517 
3701.461062  	93.476522 
3702.425487  	92.995952 
3703.389911  	93.682518 
3704.354335  	94.047904 
3705.318760  	93.978383 
3706.283184  	93.955254 
3707.247609  	94.035266 
3708.212033  	94.045700 
3709.176458  	93.534290 
3710.140882  	92.892421 
3711.105307  	92.823863 
3712.069731  	92.206970 
3713.034156  	92.178617 
3713.998580  	93.240802 
3714.963005  	93.446009 
3715.927429  	93.641491 
3716.891853  	93.999783 
3717.856278  	94.054575 
3718.820702  	93.614461 
3719.785127  	93.424764 
3720.749551  	93.858220 
3721.713976  	93.622267 
3722.678400  	92.746524 
3723.642825  	93.147792 
3724.607249  	93.472390 
3725.571674  	93.032859 
3726.536098  	92.802417 
3727.500522  	92.967228 
3728.464947  	93.669954 
3729.429371  	94.024979 
3730.393796  	93.943151 
3731.358220  	93.650839 
3732.322645  	92.928452 
3733.287069  	92.962400 
3734.251494  	92.769950 
3735.215918  	90.786965 
3736.180343  	90.908589 
3737.144767  	92.005136 
3738.109191  	92.650245 
3739.073616  	93.002110 
3740.038040  	93.428219 
3741.002465  	93.210719 
3741.966889  	93.180753 
3742.931314  	93.517903 
3743.895738  	92.905804 
3744.860163  	90.687638 
3745.824587  	91.989865 
3746.789012  	92.864662 
3747.753436  	92.977254 
3748.717860  	92.812092 
3749.682285  	92.169948 
3750.646709  	92.030783 
3751.611134  	92.031672 
3752.575558  	91.243892 
3753.539983  	92.366942 
3754.504407  	93.208780 
3755.468832  	93.591634 
3756.433256  	93.358999 
3757.397681  	93.270438 
3758.362105  	93.521342 
3759.326529  	92.960290 
3760.290954  	92.548584 
3761.255378  	93.483369 
3762.219803  	93.867562 
3763.184227  	93.936296 
3764.148652  	93.933243 
3765.113076  	93.662880 
3766.077501  	93.105065 
3767.041925  	93.511265 
3768.006350  	93.954017 
3768.970774  	93.755493 
3769.935199  	92.979869 
3770.899623  	93.006642 
3771.864047  	93.694013 
3772.828472  	93.982821 
3773.792896  	94.073394 
3774.757321  	94.147124 
3775.721745  	94.221427 
3776.686170  	94.241993 
3777.650594  	94.137040 
3778.615019  	93.802366 
3779.579443  	93.237018 
3780.543868  	93.352863 
3781.508292  	93.947622 
3782.472716  	94.053800 
3783.437141  	94.039356 
3784.401565  	93.777321 
3785.365990  	93.457063 
3786.330414  	93.689747 
3787.294839  	93.990775 
3788.259263  	94.167338 
3789.223688  	94.175829 
3790.188112  	94.134304 
3791.152537  	94.198592 
3792.116961  	94.229123 
3793.081385  	94.246635 
3794.045810  	94.207998 
3795.010234  	94.092203 
3795.974659  	93.742634 
3796.939083  	93.157896 
3797.903508  	93.296001 
3798.867932  	93.722407 
3799.832357  	93.820512 
3800.796781  	93.158068 
3801.761206  	92.035519 
3802.725630  	92.318116 
3803.690054  	93.096473 
3804.654479  	93.800452 
3805.618903  	93.909950 
3806.583328  	93.361947 
3807.547752  	92.757144 
3808.512177  	93.570326 
3809.476601  	94.037790 
3810.441026  	94.124844 
3811.405450  	94.177585 
3812.369875  	94.148779 
3813.334299  	94.101777 
3814.298723  	94.046594 
3815.263148  	93.689440 
3816.227572  	92.708023 
3817.191997  	92.893024 
3818.156421  	93.608537 
3819.120846  	93.619006 
3820.085270  	93.100429 
3821.049695  	91.905122 
3822.014119  	91.811787 
3822.978544  	93.110514 
3823.942968  	93.596181 
3824.907392  	93.769052 
3825.871817  	93.714854 
3826.836241  	93.318158 
3827.800666  	93.359368 
3828.765090  	93.824760 
3829.729515  	94.080266 
3830.693939  	94.029166 
3831.658364  	93.455193 
3832.622788  	93.344580 
3833.587213  	93.845346 
3834.551637  	93.608458 
3835.516062  	93.055275 
3836.480486  	93.432779 
3837.444910  	93.188735 
3838.409335  	92.241841 
3839.373759  	92.737296 
3840.338184  	92.585371 
3841.302608  	92.636409 
3842.267033  	93.465435 
3843.231457  	93.506835 
3844.195882  	92.958140 
3845.160306  	93.523162 
3846.124731  	93.985505 
3847.089155  	94.091410 
3848.053579  	94.109883 
3849.018004  	93.926147 
3849.982428  	93.545285 
3850.946853  	93.469459 
3851.911277  	92.937686 
3852.875702  	91.776143 
3853.840126  	91.409762 
3854.804551  	91.607027 
3855.768975  	92.993864 
3856.733400  	93.262350 
3857.697824  	93.106144 
3858.662248  	93.715782 
3859.626673  	94.094036 
3860.591097  	94.095214 
3861.555522  	93.700372 
3862.519946  	93.198569 
3863.484371  	93.411773 
3864.448795  	92.978519 
3865.413220  	92.238406 
3866.377644  	93.152595 
3867.342069  	93.889065 
3868.306493  	93.874849 
3869.270917  	93.049645 
3870.235342  	91.694563 
3871.199766  	92.479986 
3872.164191  	93.372239 
3873.128615  	93.665893 
3874.093040  	92.857263 
3875.057464  	92.753286 
3876.021889  	93.863631 
3876.986313  	94.162837 
3877.950738  	94.162784 
3878.915162  	94.105772 
3879.879586  	93.488377 
3880.844011  	92.293351 
3881.808435  	93.067443 
3882.772860  	93.765902 
3883.737284  	93.559784 
3884.701709  	93.484284 
3885.666133  	92.978915 
3886.630558  	92.709961 
3887.594982  	93.752769 
3888.559407  	94.123007 
3889.523831  	94.095181 
3890.488256  	93.749431 
3891.452680  	92.909936 
3892.417104  	92.897451 
3893.381529  	93.616414 
3894.345953  	93.660291 
3895.310378  	93.860535 
3896.274802  	94.136018 
3897.239227  	94.171077 
3898.203651  	93.784306 
3899.168076  	93.056975 
3900.132500  	92.894975 
3901.096925  	93.357916 
3902.061349  	92.587933 
3903.025773  	92.535741 
3903.990198  	92.867273 
3904.954622  	92.568299 
3905.919047  	92.827229 
3906.883471  	93.379511 
3907.847896  	94.036283 
3908.812320  	94.220634 
3909.776745  	94.221231 
3910.741169  	94.207120 
3911.705594  	94.212669 
3912.670018  	94.233061 
3913.634442  	94.266123 
3914.598867  	94.295893 
3915.563291  	94.194688 
3916.527716  	93.599027 
3917.492140  	93.085992 
3918.456565  	93.596184 
3919.420989  	93.808646 
3920.385414  	93.392384 
3921.349838  	93.682488 
3922.314263  	94.137494 
3923.278687  	93.957944 
3924.243111  	93.451851 
3925.207536  	93.175428 
3926.171960  	93.641099 
3927.136385  	94.202506 
3928.100809  	94.210845 
3929.065234  	94.020161 
3930.029658  	93.774876 
3930.994083  	93.652070 
3931.958507  	93.444041 
3932.922932  	93.230152 
3933.887356  	93.710229 
3934.851780  	93.976228 
3935.816205  	94.156307 
3936.780629  	94.295663 
3937.745054  	94.263962 
3938.709478  	94.133980 
3939.673903  	94.177978 
3940.638327  	94.205130 
3941.602752  	94.113741 
3942.567176  	93.626728 
3943.531601  	93.380832 
3944.496025  	93.869736 
3945.460449  	94.107260 
3946.424874  	94.184888 
3947.389298  	93.856248 
3948.353723  	93.602362 
3949.318147  	93.767131 
3950.282572  	93.601980 
3951.246996  	93.820608 
3952.211421  	94.225013 
3953.175845  	94.121976 
3954.140270  	94.088878 
3955.104694  	94.169308 
3956.069119  	94.155047 
3957.033543  	94.055354 
3957.997967  	94.074368 
3958.962392  	94.142659 
3959.926816  	94.169205 
3960.891241  	94.124446 
3961.855665  	93.889421 
3962.820090  	93.921104 
3963.784514  	94.246615 
3964.748939  	94.276394 
3965.713363  	94.270265 
3966.677788  	94.288499 
3967.642212  	94.271295 
3968.606636  	94.173544 
3969.571061  	94.080169 
3970.535485  	94.171116 
3971.499910  	94.211044 
3972.464334  	94.055599 
3973.428759  	94.124298 
3974.393183  	94.234523 
3975.357608  	94.120563 
3976.322032  	94.028861 
3977.286457  	94.176729 
3978.250881  	94.340477 
3979.215305  	94.358818 
3980.179730  	94.332751 
3981.144154  	94.268664 
3982.108579  	94.186999 
3983.073003  	94.199114 
3984.037428  	94.334686 
3985.001852  	94.353312 
3985.966277  	94.322629 
3986.930701  	94.335401 
3987.895126  	94.335219 
3988.859550  	94.328735 
3989.823974  	94.284249 
3990.788399  	94.138530 
3991.752823  	94.201523 
3992.717248  	94.312828 
3993.681672  	94.251705 
3994.646097  	94.185464 
3995.610521  	94.164321 
3996.574946  	94.267429 
3997.539370  	94.341244 
3998.503795  	94.368267 
3999.468219  	94.362725 
4000.432643  	94.364814 
4001.397068  	94.343655 
4002.361492  	94.326366 
4003.325917  	94.309319 
4004.290341  	94.328045 
4005.254766  	94.354096 
4006.219190  	94.357332 
4007.183615  	94.299208 
4008.148039  	94.205265 
4009.112464  	94.100457 
4010.076888  	94.211870 
4011.041313  	94.311169 
4012.005737  	94.349729 
4012.970161  	94.319396 
4013.934586  	94.311240 
4014.899010  	94.358165 
4015.863435  	94.327158 
4016.827859  	94.285451 
4017.792284  	94.333669 
4018.756708  	94.371650 
4019.721133  	94.320588 
4020.685557  	94.263461 
4021.649982  	94.309480 
4022.614406  	94.360141 
4023.578830  	94.342724 
4024.543255  	94.310339 
4025.507679  	94.267038 
4026.472104  	94.275702 
4027.436528  	94.338298 
4028.400953  	94.303297 
4029.365377  	94.284048 
4030.329802  	94.338023 
4031.294226  	94.376763 
4032.258651  	94.369856 
4033.223075  	94.405369 
4034.187499  	94.438975 
4035.151924  	94.386063 
4036.116348  	94.342514 
4037.080773  	94.369689 
4038.045197  	94.378307 
4039.009622  	94.387909 
4039.974046  	94.386566 
4040.938471  	94.387112 
4041.902895  	94.374258 
4042.867320  	94.376275 
4043.831744  	94.301662 
4044.796168  	94.261186 
4045.760593  	94.286809 
4046.725017  	94.325040 
4047.689442  	94.328922 
4048.653866  	94.326984 
4049.618291  	94.348515 
4050.582715  	94.368378 
4051.547140  	94.335874 
4052.511564  	94.333771 
4053.475989  	94.370081 
4054.440413  	94.383110 
4055.404837  	94.335412 
4056.369262  	94.343090 
4057.333686  	94.386580 
4058.298111  	94.360559 
4059.262535  	94.329451 
4060.226960  	94.315699 
4061.191384  	94.298442 
4062.155809  	94.355567 
4063.120233  	94.391669 
4064.084658  	94.369557 
4065.049082  	94.404373 
4066.013506  	94.390579 
4066.977931  	94.316404 
4067.942355  	94.273388 
4068.906780  	94.313787 
4069.871204  	94.342635 
4070.835629  	94.309482 
4071.800053  	94.305269 
4072.764478  	94.289603 
4073.728902  	94.308559 
4074.693327  	94.374976 
4075.657751  	94.404342 
4076.622176  	94.331401 
4077.586600  	94.325065 
4078.551024  	94.377951 
4079.515449  	94.355110 
4080.479873  	94.338501 
4081.444298  	94.346379 
4082.408722  	94.266810 
4083.373147  	94.230356 
4084.337571  	94.233622 
4085.301996  	94.262420 
4086.266420  	94.253897 
4087.230845  	94.247932 
4088.195269  	94.251744 
4089.159693  	94.277596 
4090.124118  	94.332850 
4091.088542  	94.328167 
4092.052967  	94.343758 
4093.017391  	94.355623 
4093.981816  	94.311973 
4094.946240  	94.282915 
4095.910665  	94.325317 
4096.875089  	94.415767 
4097.839514  	94.391104 
4098.803938  	94.333242 
4099.768362  	94.345893 
4100.732787  	94.372333 
4101.697211  	94.372844 
4102.661636  	94.370886 
4103.626060  	94.395377 
4104.590485  	94.413903 
4105.554909  	94.374357 
4106.519334  	94.349696 
4107.483758  	94.310880 
4108.448183  	94.336540 
4109.412607  	94.377235 
4110.377031  	94.361036 
4111.341456  	94.371457 
4112.305880  	94.364732 
4113.270305  	94.346524 
4114.234729  	94.352421 
4115.199154  	94.357504 
4116.163578  	94.377086 
4117.128003  	94.405219 
4118.092427  	94.405495 
4119.056852  	94.385831 
4120.021276  	94.375973 
4120.985700  	94.368475 
4121.950125  	94.372580 
4122.914549  	94.338869 
4123.878974  	94.337234 
4124.843398  	94.385044 
4125.807823  	94.452596 
4126.772247  	94.425342 
4127.736672  	94.354233 
4128.701096  	94.314411 
4129.665521  	94.330277 
4130.629945  	94.344079 
4131.594370  	94.393341 
4132.558794  	94.442104 
4133.523218  	94.438698 
4134.487643  	94.431000 
4135.452067  	94.441839 
4136.416492  	94.441916 
4137.380916  	94.414602 
4138.345341  	94.392412 
4139.309765  	94.353034 
4140.274190  	94.398497 
4141.238614  	94.454024 
4142.203039  	94.457343 
4143.167463  	94.470770 
4144.131887  	94.413358 
4145.096312  	94.416645 
4146.060736  	94.397784 
4147.025161  	94.411056 
4147.989585  	94.425306 
4148.954010  	94.360244 
4149.918434  	94.357329 
4150.882859  	94.402885 
4151.847283  	94.423822 
4152.811708  	94.406920 
4153.776132  	94.471984 
4154.740556  	94.502199 
4155.704981  	94.426498 
4156.669405  	94.348287 
4157.633830  	94.325556 
4158.598254  	94.370494 
4159.562679  	94.381564 
4160.527103  	94.359654 
4161.491528  	94.362245 
4162.455952  	94.383072 
4163.420377  	94.435123 
4164.384801  	94.473357 
4165.349225  	94.483558 
4166.313650  	94.482242 
4167.278074  	94.425084 
4168.242499  	94.428053 
4169.206923  	94.472153 
4170.171348  	94.492349 
4171.135772  	94.491792 
4172.100197  	94.453404 
4173.064621  	94.396217 
4174.029046  	94.408687 
4174.993470  	94.417402 
4175.957894  	94.440318 
4176.922319  	94.508404 
4177.886743  	94.555929 
4178.851168  	94.525514 
4179.815592  	94.458085 
4180.780017  	94.400451 
4181.744441  	94.443158 
4182.708866  	94.473910 
4183.673290  	94.461452 
4184.637715  	94.441960 
4185.602139  	94.442764 
4186.566563  	94.458559 
4187.530988  	94.462374 
4188.495412  	94.477234 
4189.459837  	94.503199 
4190.424261  	94.457128 
4191.388686  	94.406567 
4192.353110  	94.451617 
4193.317535  	94.488037 
4194.281959  	94.474988 
4195.246384  	94.494802 
4196.210808  	94.515320 
4197.175233  	94.465262 
4198.139657  	94.432621 
4199.104081  	94.468380 
4200.068506  	94.477432 
4201.032930  	94.451077 
4201.997355  	94.454714 
4202.961779  	94.557289 
4203.926204  	94.538783 
4204.890628  	94.440414 
4205.855053  	94.426856 
4206.819477  	94.429187 
4207.783902  	94.404695 
4208.748326  	94.419797 
4209.712750  	94.485782 
4210.677175  	94.496427 
4211.641599  	94.464383 
4212.606024  	94.482357 
4213.570448  	94.507859 
4214.534873  	94.513270 
4215.499297  	94.464514 
4216.463722  	94.462432 
4217.428146  	94.437671 
4218.392571  	94.423894 
4219.356995  	94.446329 
4220.321419  	94.470200 
4221.285844  	94.575951 
4222.250268  	94.599450 
4223.214693  	94.470978 
4224.179117  	94.443090 
4225.143542  	94.474965 
4226.107966  	94.476966 
4227.072391  	94.523798 
4228.036815  	94.491158 
4229.001240  	94.441770 
4229.965664  	94.413610 
4230.930088  	94.408655 
4231.894513  	94.491802 
4232.858937  	94.551301 
4233.823362  	94.514838 
4234.787786  	94.500441 
4235.752211  	94.475921 
4236.716635  	94.469501 
4237.681060  	94.528809 
4238.645484  	94.526988 
4239.609909  	94.505842 
4240.574333  	94.463597 
4241.538757  	94.477409 
4242.503182  	94.517601 
4243.467606  	94.526939 
4244.432031  	94.478196 
4245.396455  	94.455669 
4246.360880  	94.504222 
4247.325304  	94.545532 
4248.289729  	94.527637 
4249.254153  	94.537797 
4250.218578  	94.554195 
4251.183002  	94.524492 
4252.147427  	94.507729 
4253.111851  	94.509781 
4254.076275  	94.429413 
4255.040700  	94.411614 
4256.005124  	94.454764 
4256.969549  	94.540057 
4257.933973  	94.539592 
4258.898398  	94.460825 
4259.862822  	94.410958 
4260.827247  	94.390183 
4261.791671  	94.420954 
4262.756096  	94.512222 
4263.720520  	94.507661 
4264.684944  	94.490993 
4265.649369  	94.497281 
4266.613793  	94.526877 
4267.578218  	94.511635 
4268.542642  	94.507111 
4269.507067  	94.497581 
4270.471491  	94.457649 
4271.435916  	94.420175 
4272.400340  	94.399920 
4273.364765  	94.449015 
4274.329189  	94.501127 
4275.293613  	94.521862 
4276.258038  	94.531325 
4277.222462  	94.487068 
4278.186887  	94.418531 
4279.151311  	94.382024 
4280.115736  	94.377679 
4281.080160  	94.447113 
4282.044585  	94.481816 
4283.009009  	94.453201 
4283.973434  	94.421044 
4284.937858  	94.458378 
4285.902282  	94.462887 
4286.866707  	94.456731 
4287.831131  	94.468087 
4288.795556  	94.479980 
4289.759980  	94.511032 
4290.724405  	94.487554 
4291.688829  	94.503279 
4292.653254  	94.538695 
4293.617678  	94.590260 
4294.582103  	94.605296 
4295.546527  	94.559248 
4296.510951  	94.510329 
4297.475376  	94.483009 
4298.439800  	94.481363 
4299.404225  	94.545339 
4300.368649  	94.596863 
4301.333074  	94.526383 
4302.297498  	94.399359 
4303.261923  	94.402372 
4304.226347  	94.479492 
4305.190772  	94.598442 
4306.155196  	94.590142 
4307.119620  	94.546228 
4308.084045  	94.505443 
4309.048469  	94.504193 
4310.012894  	94.518049 
4310.977318  	94.545595 
4311.941743  	94.522430 
4312.906167  	94.479603 
4313.870592  	94.463834 
4314.835016  	94.493002 
4315.799441  	94.480674 
4316.763865  	94.486702 
4317.728290  	94.543011 
4318.692714  	94.552229 
4319.657138  	94.511069 
4320.621563  	94.525410 
4321.585987  	94.538723 
4322.550412  	94.569614 
4323.514836  	94.552491 
4324.479261  	94.509269 
4325.443685  	94.509703 
4326.408110  	94.541071 
4327.372534  	94.550194 
4328.336959  	94.552851 
4329.301383  	94.568990 
4330.265807  	94.547189 
4331.230232  	94.501772 
4332.194656  	94.494172 
4333.159081  	94.544700 
4334.123505  	94.565707 
4335.087930  	94.495364 
4336.052354  	94.495986 
4337.016779  	94.531288 
4337.981203  	94.543577 
4338.945628  	94.555038 
4339.910052  	94.525906 
4340.874476  	94.484189 
4341.838901  	94.547673 
4342.803325  	94.552132 
4343.767750  	94.506320 
4344.732174  	94.480224 
4345.696599  	94.497164 
4346.661023  	94.515955 
4347.625448  	94.524204 
4348.589872  	94.532246 
4349.554297  	94.541547 
4350.518721  	94.536954 
4351.483145  	94.516333 
4352.447570  	94.518655 
4353.411994  	94.533006 
4354.376419  	94.497213 
4355.340843  	94.507134 
4356.305268  	94.554137 
4357.269692  	94.574554 
4358.234117  	94.590744 
4359.198541  	94.608439 
4360.162966  	94.547694 
4361.127390  	94.501679 
4362.091814  	94.473322 
4363.056239  	94.503528 
4364.020663  	94.623122 
4364.985088  	94.569755 
4365.949512  	94.474404 
4366.913937  	94.533408 
4367.878361  	94.570661 
4368.842786  	94.563641 
4369.807210  	94.597126 
4370.771635  	94.605451 
4371.736059  	94.541151 
4372.700484  	94.513258 
4373.664908  	94.558448 
4374.629332  	94.548180 
4375.593757  	94.535400 
4376.558181  	94.555826 
4377.522606  	94.556720 
4378.487030  	94.529761 
4379.451455  	94.515688 
4380.415879  	94.508220 
4381.380304  	94.514201 
4382.344728  	94.575586 
4383.309153  	94.608968 
4384.273577  	94.605518 
4385.238001  	94.603355 
4386.202426  	94.604664 
4387.166850  	94.575815 
4388.131275  	94.549996 
4389.095699  	94.520199 
4390.060124  	94.514223 
4391.024548  	94.507490 
4391.988973  	94.542601 
4392.953397  	94.583984 
4393.917822  	94.538740 
4394.882246  	94.490162 
4395.846670  	94.482465 
4396.811095  	94.449183 
4397.775519  	94.480682 
4398.739944  	94.560063 
4399.704368  	94.639992 
4400.668793  	94.651226 
4401.633217  	94.531074 
4402.597642  	94.489214 
4403.562066  	94.582484 
4404.526491  	94.560302 
4405.490915  	94.556539 
4406.455339  	94.551740 
4407.419764  	94.501170 
4408.384188  	94.566216 
4409.348613  	94.642340 
4410.313037  	94.623439 
4411.277462  	94.577415 
4412.241886  	94.581646 
4413.206311  	94.594911 
4414.170735  	94.657688 
4415.135160  	94.670818 
4416.099584  	94.583932 
4417.064008  	94.536919 
4418.028433  	94.519479 
4418.992857  	94.514433 
4419.957282  	94.528367 
4420.921706  	94.568394 
4421.886131  	94.589701 
4422.850555  	94.533580 
4423.814980  	94.474249 
4424.779404  	94.515740 
4425.743829  	94.513387 
4426.708253  	94.535962 
4427.672677  	94.585096 
4428.637102  	94.548682 
4429.601526  	94.554121 
4430.565951  	94.578543 
4431.530375  	94.552803 
4432.494800  	94.493655 
4433.459224  	94.407414 
4434.423649  	94.414636 
4435.388073  	94.453773 
4436.352498  	94.555446 
4437.316922  	94.651620 
4438.281347  	94.665278 
4439.245771  	94.579417 
4440.210195  	94.591743 
4441.174620  	94.601342 
4442.139044  	94.521457 
4443.103469  	94.496125 
4444.067893  	94.488783 
4445.032318  	94.518356 
4445.996742  	94.575796 
4446.961167  	94.560495 
4447.925591  	94.488186 
4448.890016  	94.488607 
4449.854440  	94.533507 
4450.818864  	94.573409 
4451.783289  	94.591517 
4452.747713  	94.542813 
4453.712138  	94.525983 
4454.676562  	94.505130 
4455.640987  	94.537244 
4456.605411  	94.551854 
4457.569836  	94.537791 
4458.534260  	94.502834 
4459.498685  	94.504206 
4460.463109  	94.490323 
4461.427533  	94.502042 
4462.391958  	94.524153 
4463.356382  	94.566102 
4464.320807  	94.559863 
4465.285231  	94.514430 
4466.249656  	94.509629 
4467.214080  	94.521962 
4468.178505  	94.518709 
4469.142929  	94.545208 
4470.107354  	94.586536 
4471.071778  	94.581063 
4472.036202  	94.651333 
4473.000627  	94.608694 
4473.965051  	94.507138 
4474.929476  	94.515343 
4475.893900  	94.567717 
4476.858325  	94.606142 
4477.822749  	94.602057 
4478.787174  	94.649943 
4479.751598  	94.709726 
4480.716023  	94.652286 
4481.680447  	94.587014 
4482.644871  	94.567979 
4483.609296  	94.541358 
4484.573720  	94.558650 
4485.538145  	94.596654 
4486.502569  	94.671699 
4487.466994  	94.670417 
4488.431418  	94.665890 
4489.395843  	94.652402 
4490.360267  	94.640845 
4491.324692  	94.646421 
4492.289116  	94.634520 
4493.253541  	94.633865 
4494.217965  	94.655287 
4495.182389  	94.569672 
4496.146814  	94.518075 
4497.111238  	94.554216 
4498.075663  	94.610205 
4499.040087  	94.645796 
4500.004512  	94.604211 
4500.968936  	94.631941 
4501.933361  	94.650483 
4502.897785  	94.624972 
4503.862210  	94.633638 
4504.826634  	94.651032 
4505.791058  	94.564853 
4506.755483  	94.589558 
4507.719907  	94.629282 
4508.684332  	94.599228 
4509.648756  	94.637074 
4510.613181  	94.644237 
4511.577605  	94.689971 
4512.542030  	94.713720 
4513.506454  	94.677793 
4514.470879  	94.647480 
4515.435303  	94.611348 
4516.399727  	94.609156 
4517.364152  	94.499869 
4518.328576  	94.534266 
4519.293001  	94.658827 
4520.257425  	94.640790 
4521.221850  	94.572785 
4522.186274  	94.584547 
4523.150699  	94.602437 
4524.115123  	94.604538 
4525.079548  	94.645505 
4526.043972  	94.626342 
4527.008396  	94.589957 
4527.972821  	94.642544 
4528.937245  	94.674964 
4529.901670  	94.570094 
4530.866094  	94.584583 
4531.830519  	94.635616 
4532.794943  	94.600837 
4533.759368  	94.583362 
4534.723792  	94.650260 
4535.688217  	94.684225 
4536.652641  	94.673813 
4537.617065  	94.676365 
4538.581490  	94.723393 
4539.545914  	94.681304 
4540.510339  	94.653293 
4541.474763  	94.628458 
4542.439188  	94.597583 
4543.403612  	94.588325 
4544.368037  	94.612435 
4545.332461  	94.599737 
4546.296886  	94.573326 
4547.261310  	94.556069 
4548.225734  	94.580850 
4549.190159  	94.628023 
4550.154583  	94.713516 
4551.119008  	94.666649 
4552.083432  	94.601475 
4553.047857  	94.637255 
4554.012281  	94.700169 
4554.976706  	94.681305 
4555.941130  	94.689997 
4556.905555  	94.661319 
4557.869979  	94.647849 
4558.834404  	94.705199 
4559.798828  	94.641973 
4560.763252  	94.579741 
4561.727677  	94.589589 
4562.692101  	94.680797 
4563.656526  	94.760877 
4564.620950  	94.714665 
4565.585375  	94.601076 
4566.549799  	94.598316 
4567.514224  	94.640648 
4568.478648  	94.624995 
4569.443073  	94.594887 
4570.407497  	94.617019 
4571.371921  	94.697829 
4572.336346  	94.654105 
4573.300770  	94.643198 
4574.265195  	94.620777 
4575.229619  	94.575551 
4576.194044  	94.584413 
4577.158468  	94.576723 
4578.122893  	94.609879 
4579.087317  	94.649573 
4580.051742  	94.663203 
4581.016166  	94.716439 
4581.980590  	94.727633 
4582.945015  	94.695520 
4583.909439  	94.692681 
4584.873864  	94.703294 
4585.838288  	94.624103 
4586.802713  	94.625989 
4587.767137  	94.579193 
4588.731562  	94.562725 
4589.695986  	94.586926 
4590.660411  	94.607707 
4591.624835  	94.616549 
4592.589259  	94.625073 
4593.553684  	94.667146 
4594.518108  	94.643373 
4595.482533  	94.579194 
4596.446957  	94.600095 
4597.411382  	94.618462 
4598.375806  	94.592601 
4599.340231  	94.619952 
4600.304655  	94.636464 
4601.269080  	94.647289 
4602.233504  	94.640402 
4603.197928  	94.623426 
4604.162353  	94.680318 
4605.126777  	94.685399 
4606.091202  	94.652293 
4607.055626  	94.676476 
4608.020051  	94.623864 
4608.984475  	94.645805 
4609.948900  	94.787758 
4610.913324  	94.807521 
4611.877749  	94.761080 
4612.842173  	94.700012 
4613.806598  	94.674326 
4614.771022  	94.645760 
4615.735446  	94.669420 
4616.699871  	94.659880 
4617.664295  	94.612503 
4618.628720  	94.633746 
4619.593144  	94.606049 
4620.557569  	94.638354 
4621.521993  	94.639893 
4622.486418  	94.576392 
4623.450842  	94.609909 
4624.415267  	94.630438 
4625.379691  	94.686227 
4626.344115  	94.706477 
4627.308540  	94.670176 
4628.272964  	94.632400 
4629.237389  	94.615428 
4630.201813  	94.603751 
4631.166238  	94.663113 
4632.130662  	94.663365 
4633.095087  	94.638174 
4634.059511  	94.674022 
4635.023936  	94.750327 
4635.988360  	94.742551 
4636.952784  	94.659878 
4637.917209  	94.659553 
4638.881633  	94.607477 
4639.846058  	94.589591 
4640.810482  	94.631788 
4641.774907  	94.593719 
4642.739331  	94.522914 
4643.703756  	94.521132 
4644.668180  	94.644278 
4645.632605  	94.654167 
4646.597029  	94.713417 
4647.561453  	94.692467 
4648.525878  	94.687059 
4649.490302  	94.724150 
4650.454727  	94.719102 
4651.419151  	94.679514 
4652.383576  	94.635164 
4653.348000  	94.653091 
4654.312425  	94.714071 
4655.276849  	94.731257 
4656.241274  	94.649995 
4657.205698  	94.629696 
4658.170122  	94.612905 
4659.134547  	94.613572 
4660.098971  	94.662478 
4661.063396  	94.704541 
4662.027820  	94.738155 
4662.992245  	94.734120 
4663.956669  	94.718892 
4664.921094  	94.689749 
4665.885518  	94.658991 
4666.849943  	94.623536 
4667.814367  	94.628550 
4668.778791  	94.662965 
4669.743216  	94.689520 
4670.707640  	94.662193 
4671.672065  	94.592587 
4672.636489  	94.557486 
4673.600914  	94.619238 
4674.565338  	94.691566 
4675.529763  	94.705267 
4676.494187  	94.747273 
4677.458612  	94.704003 
4678.423036  	94.690717 
4679.387461  	94.774995 
4680.351885  	94.748249 
4681.316309  	94.627125 
4682.280734  	94.634778 
4683.245158  	94.643140 
4684.209583  	94.662866 
4685.174007  	94.765252 
4686.138432  	94.781968 
4687.102856  	94.760698 
4688.067281  	94.695413 
4689.031705  	94.591911 
4689.996130  	94.646008 
4690.960554  	94.727350 
4691.924978  	94.704288 
4692.889403  	94.668799 
4693.853827  	94.611035 
4694.818252  	94.567006 
4695.782676  	94.660508 
4696.747101  	94.703902 
4697.711525  	94.748368 
4698.675950  	94.731555 
4699.640374  	94.596116 