##TITLE=No Description
##DATA TYPE=INFRARED SPECTRUM
##XUNITS=1/CM
##YUNITS=%T
400.236149  	100.793963 
401.200574  	97.570584 
402.164998  	95.791351 
403.129423  	92.103768 
404.093847  	90.476778 
405.058272  	90.872926 
406.022696  	91.428711 
406.987120  	96.180039 
407.951545  	98.404677 
408.915969  	87.519804 
409.880394  	89.538306 
410.844818  	101.354746 
411.809243  	106.542893 
412.773667  	103.314998 
413.738092  	90.466467 
414.702516  	80.456366 
415.666941  	79.323731 
416.631365  	86.041914 
417.595789  	92.297562 
418.560214  	94.316851 
419.524638  	87.685590 
420.489063  	81.894593 
421.453487  	82.582377 
422.417912  	85.859924 
423.382336  	86.058623 
424.346761  	84.428182 
425.311185  	81.723514 
426.275610  	82.030442 
427.240034  	81.899867 
428.204458  	82.035796 
429.168883  	83.116325 
430.133307  	84.143959 
431.097732  	83.078238 
432.062156  	78.940956 
433.026581  	77.989032 
433.991005  	78.955026 
434.955430  	78.506196 
435.919854  	80.376942 
436.884279  	81.172444 
437.848703  	81.652534 
438.813127  	82.820309 
439.777552  	81.907495 
440.741976  	82.048020 
441.706401  	83.453240 
442.670825  	83.487750 
443.635250  	82.701377 
444.599674  	81.794914 
445.564099  	82.536377 
446.528523  	83.872156 
447.492948  	86.009730 
448.457372  	87.337841 
449.421796  	84.645501 
450.386221  	83.661411 
451.350645  	84.696420 
452.315070  	83.693165 
453.279494  	83.888688 
454.243919  	84.397889 
455.208343  	84.612436 
456.172768  	84.376132 
457.137192  	83.936362 
458.101617  	84.263336 
459.066041  	84.044561 
460.030466  	83.103209 
460.994890  	82.752646 
461.959314  	83.405825 
462.923739  	84.293047 
463.888163  	84.071531 
464.852588  	83.390840 
465.817012  	84.012099 
466.781437  	83.701300 
467.745861  	82.119291 
468.710286  	82.056382 
469.674710  	81.803715 
470.639135  	81.425635 
471.603559  	81.779262 
472.567983  	82.882975 
473.532408  	83.563483 
474.496832  	83.149553 
475.461257  	82.920355 
476.425681  	82.264625 
477.390106  	82.391555 
478.354530  	83.054415 
479.318955  	82.596794 
480.283379  	82.049354 
481.247804  	82.015709 
482.212228  	81.812639 
483.176652  	82.561403 
484.141077  	83.401345 
485.105501  	82.376166 
486.069926  	81.741741 
487.034350  	82.362973 
487.998775  	82.469429 
488.963199  	82.471401 
489.927624  	82.840441 
490.892048  	81.907828 
491.856473  	81.149197 
492.820897  	81.479849 
493.785321  	81.426214 
494.749746  	80.848617 
495.714170  	80.652663 
496.678595  	80.503723 
497.643019  	80.485409 
498.607444  	80.583713 
499.571868  	80.033818 
500.536293  	79.358703 
501.500717  	79.028548 
502.465142  	78.890099 
503.429566  	79.295042 
504.393990  	79.521926 
505.358415  	79.379699 
506.322839  	78.807796 
507.287264  	79.196683 
508.251688  	80.280246 
509.216113  	81.354056 
510.180537  	81.382644 
511.144962  	81.781533 
512.109386  	82.651547 
513.073811  	82.922254 
514.038235  	83.174148 
515.002660  	83.028582 
515.967084  	82.346359 
516.931508  	81.933873 
517.895933  	82.381173 
518.860357  	82.560293 
519.824782  	82.534648 
520.789206  	82.688067 
521.753631  	82.916668 
522.718055  	83.099690 
523.682480  	83.069511 
524.646904  	83.028495 
525.611329  	82.748741 
526.575753  	82.524436 
527.540177  	83.057890 
528.504602  	83.337143 
529.469026  	83.236084 
530.433451  	83.114658 
531.397875  	83.165889 
532.362300  	83.286290 
533.326724  	83.738920 
534.291149  	83.602541 
535.255573  	83.405274 
536.219998  	83.320028 
537.184422  	83.922497 
538.148846  	83.850351 
539.113271  	83.883943 
540.077695  	84.227952 
541.042120  	84.213990 
542.006544  	84.188871 
542.970969  	84.176098 
543.935393  	84.333669 
544.899818  	84.345805 
545.864242  	84.307400 
546.828667  	84.101792 
547.793091  	83.824821 
548.757515  	84.022992 
549.721940  	84.500373 
550.686364  	84.557991 
551.650789  	84.708665 
552.615213  	84.325742 
553.579638  	84.402073 
554.544062  	84.422022 
555.508487  	84.059070 
556.472911  	83.857951 
557.437336  	83.998777 
558.401760  	84.157104 
559.366184  	84.491358 
560.330609  	84.427985 
561.295033  	84.269718 
562.259458  	84.087304 
563.223882  	83.684613 
564.188307  	83.831876 
565.152731  	84.168394 
566.117156  	83.946209 
567.081580  	83.565223 
568.046005  	83.569770 
569.010429  	83.670039 
569.974853  	83.620220 
570.939278  	83.659566 
571.903702  	83.742872 
572.868127  	83.773301 
573.832551  	83.643681 
574.796976  	83.578982 
575.761400  	83.095911 
576.725825  	83.302400 
577.690249  	83.612642 
578.654674  	83.663163 
579.619098  	83.417906 
580.583523  	83.175510 
581.547947  	83.482614 
582.512371  	83.822951 
583.476796  	83.720093 
584.441220  	83.457700 
585.405645  	83.516296 
586.370069  	83.890182 
587.334494  	83.710290 
588.298918  	83.414958 
589.263343  	83.255027 
590.227767  	83.387056 
591.192192  	83.220408 
592.156616  	83.042062 
593.121040  	83.311262 
594.085465  	83.486013 
595.049889  	83.445236 
596.014314  	83.432863 
596.978738  	83.470933 
597.943163  	83.425657 
598.907587  	83.381812 
599.872012  	83.192065 
600.836436  	83.250348 
601.800861  	83.429394 
602.765285  	83.370379 
603.729709  	83.240246 
604.694134  	83.180028 
605.658558  	83.191410 
606.622983  	83.150206 
607.587407  	83.007903 
608.551832  	82.972497 
609.516256  	83.077773 
610.480681  	82.973890 
611.445105  	82.938552 
612.409530  	83.062656 
613.373954  	83.140459 
614.338378  	82.851349 
615.302803  	82.563579 
616.267227  	82.524685 
617.231652  	82.832256 
618.196076  	82.887292 
619.160501  	82.790140 
620.124925  	82.521761 
621.089350  	82.333262 
622.053774  	82.405536 
623.018199  	82.642497 
623.982623  	82.399560 
624.947047  	82.308770 
625.911472  	82.127482 
626.875896  	82.189029 
627.840321  	82.075587 
628.804745  	82.057858 
629.769170  	81.817943 
630.733594  	81.394749 
631.698019  	81.274308 
632.662443  	81.504827 
633.626868  	81.808426 
634.591292  	82.044005 
635.555717  	81.979855 
636.520141  	82.136260 
637.484565  	82.193185 
638.448990  	82.207398 
639.413414  	82.127547 
640.377839  	82.149215 
641.342263  	82.199587 
642.306688  	81.997025 
643.271112  	82.016684 
644.235537  	81.981758 
645.199961  	81.863999 
646.164386  	81.929080 
647.128810  	81.811822 
648.093234  	81.686066 
649.057659  	81.779939 
650.022083  	81.760571 
650.986508  	81.705938 
651.950932  	81.548901 
652.915357  	81.204710 
653.879781  	81.073992 
654.844206  	81.158563 
655.808630  	81.110855 
656.773055  	80.948290 
657.737479  	80.961575 
658.701903  	80.922206 
659.666328  	80.760772 
660.630752  	80.622376 
661.595177  	80.580641 
662.559601  	80.507678 
663.524026  	80.406125 
664.488450  	80.377238 
665.452875  	80.186053 
666.417299  	80.164439 
667.381724  	80.543306 
668.346148  	80.533262 
669.310572  	79.824720 
670.274997  	79.528244 
671.239421  	79.463561 
672.203846  	79.485039 
673.168270  	79.278219 
674.132695  	79.027970 
675.097119  	78.883915 
676.061544  	78.565116 
677.025968  	78.326510 
677.990393  	78.183494 
678.954817  	78.041524 
679.919241  	77.923162 
680.883666  	77.985527 
681.848090  	77.946898 
682.812515  	77.879785 
683.776939  	77.763365 
684.741364  	77.543352 
685.705788  	77.333401 
686.670213  	77.323732 
687.634637  	77.015550 
688.599062  	76.644826 
689.563486  	76.374775 
690.527910  	76.103009 
691.492335  	75.759845 
692.456759  	75.485248 
693.421184  	75.019021 
694.385608  	74.554351 
695.350033  	74.010325 
696.314457  	73.518718 
697.278882  	73.081219 
698.243306  	72.439261 
699.207731  	71.668799 
700.172155  	71.055596 
701.136580  	70.367225 
702.101004  	69.814272 
703.065428  	69.338989 
704.029853  	68.742809 
704.994277  	68.082984 
705.958702  	67.512718 
706.923126  	66.866168 
707.887551  	66.113002 
708.851975  	65.298238 
709.816400  	64.354515 
710.780824  	63.426438 
711.745249  	62.429174 
712.709673  	61.293622 
713.674097  	59.970574 
714.638522  	58.636582 
715.602946  	57.189523 
716.567371  	55.578831 
717.531795  	54.013935 
718.496220  	52.495179 
719.460644  	51.060165 
720.425069  	49.812476 
721.389493  	48.874038 
722.353918  	48.328108 
723.318342  	48.183954 
724.282766  	48.819402 
725.247191  	50.472332 
726.211615  	52.763489 
727.176040  	55.268918 
728.140464  	57.834259 
729.104889  	60.452429 
730.069313  	62.948522 
731.033738  	65.502393 
731.998162  	68.131806 
732.962587  	70.771444 
733.927011  	73.401813 
734.891435  	75.940791 
735.855860  	78.322172 
736.820284  	80.581380 
737.784709  	82.605345 
738.749133  	84.445546 
739.713558  	85.968921 
740.677982  	87.121185 
741.642407  	87.908287 
742.606831  	88.492112 
743.571256  	88.910793 
744.535680  	89.117892 
745.500104  	89.220517 
746.464529  	89.243435 
747.428953  	89.139622 
748.393378  	89.062557 
749.357802  	88.934961 
750.322227  	88.784675 
751.286651  	88.619180 
752.251076  	88.481882 
753.215500  	88.435751 
754.179925  	88.370248 
755.144349  	88.266093 
756.108774  	88.202243 
757.073198  	88.034188 
758.037622  	87.909410 
759.002047  	87.742276 
759.966471  	87.565136 
760.930896  	87.416481 
761.895320  	87.252337 
762.859745  	87.175731 
763.824169  	87.031030 
764.788594  	86.842726 
765.753018  	86.651215 
766.717443  	86.424825 
767.681867  	86.175110 
768.646291  	85.967681 
769.610716  	85.873420 
770.575140  	85.740715 
771.539565  	85.629735 
772.503989  	85.553280 
773.468414  	85.510792 
774.432838  	85.421346 
775.397263  	85.335810 
776.361687  	85.215521 
777.326112  	85.118955 
778.290536  	85.044363 
779.254960  	85.007720 
780.219385  	84.914020 
781.183809  	84.801770 
782.148234  	84.456252 
783.112658  	84.206793 
784.077083  	84.162866 
785.041507  	83.990749 
786.005932  	83.800092 
786.970356  	83.503199 
787.934781  	83.155372 
788.899205  	82.906445 
789.863629  	82.749304 
790.828054  	82.533935 
791.792478  	82.258568 
792.756903  	82.067687 
793.721327  	82.205969 
794.685752  	82.514444 
795.650176  	83.054453 
796.614601  	83.648766 
797.579025  	84.013403 
798.543450  	84.034733 
799.507874  	84.004068 
800.472298  	84.065701 
801.436723  	84.046736 
802.401147  	83.972981 
803.365572  	83.956587 
804.329996  	83.908582 
805.294421  	83.811269 
806.258845  	83.755271 
807.223270  	83.689401 
808.187694  	83.668283 
809.152119  	83.747554 
810.116543  	83.731280 
811.080967  	83.670241 
812.045392  	83.657571 
813.009816  	83.634817 
813.974241  	83.562810 
814.938665  	83.549001 
815.903090  	83.554332 
816.867514  	83.509077 
817.831939  	83.556944 
818.796363  	83.516445 
819.760788  	83.348899 
820.725212  	83.342859 
821.689637  	83.293055 
822.654061  	83.147668 
823.618485  	83.010891 
824.582910  	82.912818 
825.547334  	82.695721 
826.511759  	82.542059 
827.476183  	82.545978 
828.440608  	82.457905 
829.405032  	82.227895 
830.369457  	81.990257 
831.333881  	81.827068 
832.298306  	81.667514 
833.262730  	81.409755 
834.227154  	81.174241 
835.191579  	80.908874 
836.156003  	80.678046 
837.120428  	80.419438 
838.084852  	80.077539 
839.049277  	79.793982 
840.013701  	79.533171 
840.978126  	79.204600 
841.942550  	78.957891 
842.906975  	78.632753 
843.871399  	78.282758 
844.835823  	77.963234 
845.800248  	77.770013 
846.764672  	77.774922 
847.729097  	77.946640 
848.693521  	78.181506 
849.657946  	78.533691 
850.622370  	78.923449 
851.586795  	79.218525 
852.551219  	79.357037 
853.515644  	79.570955 
854.480068  	79.776796 
855.444492  	79.827034 
856.408917  	79.868899 
857.373341  	79.985109 
858.337766  	80.134559 
859.302190  	80.153066 
860.266615  	80.144833 
861.231039  	80.176265 
862.195464  	80.103327 
863.159888  	79.918938 
864.124313  	79.654315 
865.088737  	79.169009 
866.053161  	78.607271 
867.017586  	77.798072 
867.982010  	76.749644 
868.946435  	75.476414 
869.910859  	73.851647 
870.875284  	72.157163 
871.839708  	71.305858 
872.804133  	71.980537 
873.768557  	73.892564 
874.732982  	75.905833 
875.697406  	77.429423 
876.661831  	78.544163 
877.626255  	79.425565 
878.590679  	80.201558 
879.555104  	80.885806 
880.519528  	81.448496 
881.483953  	81.912259 
882.448377  	82.344705 
883.412802  	82.759617 
884.377226  	83.101239 
885.341651  	83.281894 
886.306075  	83.357523 
887.270500  	83.447275 
888.234924  	83.569380 
889.199348  	83.535600 
890.163773  	83.476380 
891.128197  	83.494561 
892.092622  	83.441670 
893.057046  	83.300855 
894.021471  	83.216151 
894.985895  	83.205799 
895.950320  	83.093561 
896.914744  	82.968805 
897.879169  	82.948359 
898.843593  	83.006051 
899.808017  	83.099609 
900.772442  	83.154483 
901.736866  	83.146502 
902.701291  	83.295559 
903.665715  	83.420189 
904.630140  	83.483721 
905.594564  	83.527368 
906.558989  	83.651412 
907.523413  	83.798759 
908.487838  	83.900139 
909.452262  	83.989931 
910.416686  	84.070263 
911.381111  	84.102077 
912.345535  	84.063843 
913.309960  	84.000218 
914.274384  	83.987475 
915.238809  	84.000097 
916.203233  	84.000133 
917.167658  	83.998861 
918.132082  	83.925270 
919.096507  	83.864854 
920.060931  	83.829983 
921.025355  	83.752938 
921.989780  	83.666729 
922.954204  	83.575908 
923.918629  	83.469766 
924.883053  	83.407822 
925.847478  	83.349669 
926.811902  	83.259231 
927.776327  	83.165115 
928.740751  	83.089534 
929.705176  	83.047377 
930.669600  	82.981416 
931.634024  	82.890080 
932.598449  	82.836798 
933.562873  	82.774159 
934.527298  	82.656186 
935.491722  	82.499335 
936.456147  	82.405766 
937.420571  	82.385109 
938.384996  	82.294334 
939.349420  	82.147036 
940.313845  	82.032896 
941.278269  	81.918613 
942.242694  	81.821695 
943.207118  	81.697806 
944.171542  	81.606233 
945.135967  	81.516137 
946.100391  	81.390858 
947.064816  	81.243470 
948.029240  	81.088189 
948.993665  	80.919242 
949.958089  	80.787854 
950.922514  	80.669319 
951.886938  	80.548079 
952.851363  	80.347493 
953.815787  	80.114178 
954.780211  	79.955590 
955.744636  	79.849372 
956.709060  	79.654800 
957.673485  	79.402015 
958.637909  	79.134196 
959.602334  	78.880337 
960.566758  	78.666285 
961.531183  	78.441554 
962.495607  	78.172571 
963.460032  	77.925164 
964.424456  	77.694654 
965.388880  	77.420756 
966.353305  	77.172021 
967.317729  	77.034954 
968.282154  	76.886478 
969.246578  	76.723233 
970.211003  	76.694305 
971.175427  	76.797658 
972.139852  	76.938084 
973.104276  	77.186482 
974.068701  	77.529995 
975.033125  	77.881554 
975.997549  	78.199958 
976.961974  	78.513708 
977.926398  	78.792272 
978.890823  	79.037069 
979.855247  	79.194553 
980.819672  	79.277137 
981.784096  	79.371544 
982.748521  	79.480297 
983.712945  	79.470975 
984.677370  	79.387841 
985.641794  	79.313927 
986.606218  	79.226296 
987.570643  	79.093926 
988.535067  	78.994501 
989.499492  	78.979647 
990.463916  	78.955112 
991.428341  	78.879234 
992.392765  	78.750258 
993.357190  	78.560775 
994.321614  	78.398400 
995.286039  	78.248765 
996.250463  	78.059774 
997.214888  	77.860470 
998.179312  	77.676041 
999.143736  	77.413349 
1000.108161  	77.136471 
1001.072585  	76.872954 
1002.037010  	76.580382 
1003.001434  	76.229251 
1003.965859  	75.863502 
1004.930283  	75.500681 
1005.894708  	75.026235 
1006.859132  	74.433813 
1007.823557  	73.799904 
1008.787981  	73.103872 
1009.752405  	72.292964 
1010.716830  	71.315941 
1011.681254  	70.175595 
1012.645679  	68.919108 
1013.610103  	67.552602 
1014.574528  	66.209761 
1015.538952  	65.202423 
1016.503377  	64.778323 
1017.467801  	65.012819 
1018.432226  	65.852513 
1019.396650  	67.101753 
1020.361074  	68.540244 
1021.325499  	69.982673 
1022.289923  	71.311501 
1023.254348  	72.715311 
1024.218772  	74.334099 
1025.183197  	76.047161 
1026.147621  	77.560088 
1027.112046  	78.622332 
1028.076470  	79.112640 
1029.040895  	79.193706 
1030.005319  	79.056290 
1030.969743  	78.844299 
1031.934168  	78.605809 
1032.898592  	78.325780 
1033.863017  	77.968085 
1034.827441  	77.563945 
1035.791866  	77.209823 
1036.756290  	76.932965 
1037.720715  	76.671616 
1038.685139  	76.421498 
1039.649564  	76.213689 
1040.613988  	76.023607 
1041.578412  	75.852891 
1042.542837  	75.722679 
1043.507261  	75.647069 
1044.471686  	75.578202 
1045.436110  	75.541885 
1046.400535  	75.499211 
1047.364959  	75.457597 
1048.329384  	75.393450 
1049.293808  	75.362278 
1050.258233  	75.400710 
1051.222657  	75.384867 
1052.187081  	75.296501 
1053.151506  	75.165483 
1054.115930  	75.060779 
1055.080355  	74.928723 
1056.044779  	74.755880 
1057.009204  	74.511130 
1057.973628  	74.271966 
1058.938053  	74.023312 
1059.902477  	73.715772 
1060.866902  	73.343026 
1061.831326  	73.013394 
1062.795751  	72.670448 
1063.760175  	72.234902 
1064.724599  	71.712529 
1065.689024  	71.242416 
1066.653448  	70.827083 
1067.617873  	70.371774 
1068.582297  	69.854437 
1069.546722  	69.313698 
1070.511146  	68.783101 
1071.475571  	68.211164 
1072.439995  	67.589147 
1073.404420  	66.983868 
1074.368844  	66.328837 
1075.333268  	65.603681 
1076.297693  	64.864830 
1077.262117  	64.138102 
1078.226542  	63.450587 
1079.190966  	62.770918 
1080.155391  	62.106239 
1081.119815  	61.509457 
1082.084240  	60.963058 
1083.048664  	60.488636 
1084.013089  	60.105482 
1084.977513  	59.802742 
1085.941937  	59.485616 
1086.906362  	59.133298 
1087.870786  	58.869350 
1088.835211  	58.619430 
1089.799635  	58.338893 
1090.764060  	58.085709 
1091.728484  	57.914792 
1092.692909  	57.793522 
1093.657333  	57.676643 
1094.621758  	57.595922 
1095.586182  	57.641959 
1096.550606  	57.757867 
1097.515031  	57.903522 
1098.479455  	58.123895 
1099.443880  	58.481258 
1100.408304  	58.938600 
1101.372729  	59.430353 
1102.337153  	60.001971 
1103.301578  	60.598648 
1104.266002  	61.204429 
1105.230427  	61.881282 
1106.194851  	62.550117 
1107.159275  	63.235644 
1108.123700  	63.906748 
1109.088124  	64.471181 
1110.052549  	64.965615 
1111.016973  	65.367198 
1111.981398  	65.621276 
1112.945822  	65.780808 
1113.910247  	65.867684 
1114.874671  	65.837857 
1115.839096  	65.710041 
1116.803520  	65.537294 
1117.767945  	65.422911 
1118.732369  	65.470147 
1119.696793  	65.650099 
1120.661218  	65.896085 
1121.625642  	66.204421 
1122.590067  	66.643146 
1123.554491  	67.181407 
1124.518916  	67.757691 
1125.483340  	68.414632 
1126.447765  	69.162812 
1127.412189  	69.969657 
1128.376614  	70.827515 
1129.341038  	71.761205 
1130.305462  	72.748616 
1131.269887  	73.751533 
1132.234311  	74.755325 
1133.198736  	75.764541 
1134.163160  	76.759220 
1135.127585  	77.717707 
1136.092009  	78.626098 
1137.056434  	79.529759 
1138.020858  	80.397298 
1138.985283  	81.141468 
1139.949707  	81.812237 
1140.914131  	82.480113 
1141.878556  	83.085170 
1142.842980  	83.586025 
1143.807405  	84.108573 
1144.771829  	84.620996 
1145.736254  	85.011338 
1146.700678  	85.332246 
1147.665103  	85.614719 
1148.629527  	85.920705 
1149.593952  	86.189024 
1150.558376  	86.395222 
1151.522800  	86.543988 
1152.487225  	86.688540 
1153.451649  	86.817774 
1154.416074  	86.907874 
1155.380498  	86.940147 
1156.344923  	86.984497 
1157.309347  	87.047583 
1158.273772  	87.049504 
1159.238196  	86.998408 
1160.202621  	87.000258 
1161.167045  	86.964138 
1162.131469  	86.848476 
1163.095894  	86.749096 
1164.060318  	86.676500 
1165.024743  	86.518362 
1165.989167  	86.317805 
1166.953592  	86.106465 
1167.918016  	85.856329 
1168.882441  	85.536728 
1169.846865  	85.192456 
1170.811290  	84.868441 
1171.775714  	84.584799 
1172.740138  	84.356746 
1173.704563  	84.123011 
1174.668987  	83.929145 
1175.633412  	83.883505 
1176.597836  	83.883776 
1177.562261  	83.873177 
1178.526685  	83.891941 
1179.491110  	83.904236 
1180.455534  	83.893712 
1181.419959  	83.902525 
1182.384383  	83.858002 
1183.348808  	83.778055 
1184.313232  	83.693513 
1185.277656  	83.536190 
1186.242081  	83.326600 
1187.206505  	83.130446 
1188.170930  	82.943299 
1189.135354  	82.683867 
1190.099779  	82.365507 
1191.064203  	82.072670 
1192.028628  	81.759026 
1192.993052  	81.384159 
1193.957477  	81.008123 
1194.921901  	80.626066 
1195.886325  	80.230875 
1196.850750  	79.812918 
1197.815174  	79.388830 
1198.779599  	78.995164 
1199.744023  	78.629567 
1200.708448  	78.197184 
1201.672872  	77.742698 
1202.637297  	77.332334 
1203.601721  	76.962604 
1204.566146  	76.560387 
1205.530570  	76.102955 
1206.494994  	75.676927 
1207.459419  	75.292013 
1208.423843  	74.858610 
1209.388268  	74.383359 
1210.352692  	73.956766 
1211.317117  	73.512979 
1212.281541  	73.001303 
1213.245966  	72.474589 
1214.210390  	71.963033 
1215.174815  	71.439767 
1216.139239  	70.870836 
1217.103663  	70.269475 
1218.068088  	69.663852 
1219.032512  	69.057220 
1219.996937  	68.449327 
1220.961361  	67.871406 
1221.925786  	67.357502 
1222.890210  	66.844943 
1223.854635  	66.317619 
1224.819059  	65.790802 
1225.783484  	65.274313 
1226.747908  	64.724698 
1227.712332  	64.099986 
1228.676757  	63.422929 
1229.641181  	62.717559 
1230.605606  	61.953712 
1231.570030  	61.148378 
1232.534455  	60.352090 
1233.498879  	59.569705 
1234.463304  	58.827151 
1235.427728  	58.119441 
1236.392153  	57.526162 
1237.356577  	57.029453 
1238.321002  	56.598506 
1239.285426  	56.265946 
1240.249850  	56.079395 
1241.214275  	56.027680 
1242.178699  	56.072802 
1243.143124  	56.181854 
1244.107548  	56.407689 
1245.071973  	56.752902 
1246.036397  	57.100607 
1247.000822  	57.486446 
1247.965246  	57.946015 
1248.929671  	58.428795 
1249.894095  	58.880989 
1250.858519  	59.345100 
1251.822944  	59.824638 
1252.787368  	60.268012 
1253.751793  	60.655929 
1254.716217  	60.989785 
1255.680642  	61.318765 
1256.645066  	61.607343 
1257.609491  	61.836285 
1258.573915  	62.044358 
1259.538340  	62.273503 
1260.502764  	62.544811 
1261.467188  	62.980077 
1262.431613  	63.479234 
1263.396037  	63.992363 
1264.360462  	64.562864 
1265.324886  	65.205511 
1266.289311  	65.901952 
1267.253735  	66.630276 
1268.218160  	67.368180 
1269.182584  	68.118009 
1270.147009  	68.873220 
1271.111433  	69.633208 
1272.075857  	70.350992 
1273.040282  	71.136708 
1274.004706  	71.837968 
1274.969131  	72.448499 
1275.933555  	73.033410 
1276.897980  	73.596825 
1277.862404  	74.144807 
1278.826829  	74.668025 
1279.791253  	75.127458 
1280.755678  	75.607462 
1281.720102  	76.123541 
1282.684526  	76.614810 
1283.648951  	77.049941 
1284.613375  	77.482628 
1285.577800  	77.944792 
1286.542224  	78.352856 
1287.506649  	78.668188 
1288.471073  	79.102882 
1289.435498  	79.669798 
1290.399922  	80.200484 
1291.364347  	80.721905 
1292.328771  	81.270043 
1293.293195  	81.824900 
1294.257620  	82.374837 
1295.222044  	82.868090 
1296.186469  	83.321565 
1297.150893  	83.862474 
1298.115318  	84.519671 
1299.079742  	85.061914 
1300.044167  	85.583891 
1301.008591  	86.093229 
1301.973016  	86.524801 
1302.937440  	86.869295 
1303.901865  	87.180441 
1304.866289  	87.494691 
1305.830713  	87.763049 
1306.795138  	87.966419 
1307.759562  	88.140989 
1308.723987  	88.375790 
1309.688411  	88.700053 
1310.652836  	88.933729 
1311.617260  	89.036448 
1312.581685  	88.917828 
1313.546109  	89.103427 
1314.510534  	89.381522 
1315.474958  	89.631135 
1316.439382  	89.671089 
1317.403807  	89.661316 
1318.368231  	89.724847 
1319.332656  	89.701125 
1320.297080  	89.986009 
1321.261505  	90.243257 
1322.225929  	90.411764 
1323.190354  	90.414511 
1324.154778  	90.444312 
1325.119203  	90.438115 
1326.083627  	90.319556 
1327.048051  	90.144308 
1328.012476  	89.880385 
1328.976900  	89.496561 
1329.941325  	88.946134 
1330.905749  	88.270221 
1331.870174  	87.422240 
1332.834598  	86.352053 
1333.799023  	85.145430 
1334.763447  	83.875906 
1335.727872  	82.477907 
1336.692296  	80.967942 
1337.656720  	79.980860 
1338.621145  	79.034198 
1339.585569  	78.391264 
1340.549994  	78.882690 
1341.514418  	80.422898 
1342.478843  	81.825090 
1343.443267  	83.066144 
1344.407692  	84.417862 
1345.372116  	85.732565 
1346.336541  	86.892940 
1347.300965  	87.877026 
1348.265389  	88.632348 
1349.229814  	89.153053 
1350.194238  	89.688200 
1351.158663  	90.154074 
1352.123087  	90.455744 
1353.087512  	90.682835 
1354.051936  	90.710353 
1355.016361  	90.596363 
1355.980785  	90.817099 
1356.945210  	90.930537 
1357.909634  	90.821949 
1358.874059  	90.815417 
1359.838483  	90.756333 
1360.802907  	90.176329 
1361.767332  	89.679845 
1362.731756  	88.947679 
1363.696181  	88.808919 
1364.660605  	89.655301 
1365.625030  	89.717252 
1366.589454  	89.529671 
1367.553879  	89.162898 
1368.518303  	88.620134 
1369.482728  	88.574051 
1370.447152  	88.907003 
1371.411576  	88.895315 
1372.376001  	88.747711 
1373.340425  	88.200433 
1374.304850  	87.766432 
1375.269274  	88.153287 
1376.233699  	88.845511 
1377.198123  	88.976884 
1378.162548  	88.783825 
1379.126972  	88.840285 
1380.091397  	88.943341 
1381.055821  	89.064501 
1382.020245  	89.068865 
1382.984670  	89.057698 
1383.949094  	89.068967 
1384.913519  	89.055195 
1385.877943  	88.748462 
1386.842368  	87.953354 
1387.806792  	87.762926 
1388.771217  	88.638383 
1389.735641  	89.021430 
1390.700066  	88.934247 
1391.664490  	88.896081 
1392.628914  	88.843977 
1393.593339  	88.308577 
1394.557763  	87.167274 
1395.522188  	86.879327 
1396.486612  	87.303281 
1397.451037  	87.084091 
1398.415461  	86.304597 
1399.379886  	85.780983 
1400.344310  	86.000742 
1401.308735  	85.939313 
1402.273159  	85.281117 
1403.237583  	84.459561 
1404.202008  	83.250607 
1405.166432  	81.769967 
1406.130857  	81.266117 
1407.095281  	81.010399 
1408.059706  	80.566471 
1409.024130  	80.496468 
1409.988555  	80.755728 
1410.952979  	81.552952 
1411.917404  	82.671653 
1412.881828  	84.331228 
1413.846252  	85.894920 
1414.810677  	87.176354 
1415.775101  	87.950645 
1416.739526  	88.346332 
1417.703950  	88.608628 
1418.668375  	88.665123 
1419.632799  	88.702779 
1420.597224  	90.388342 
1421.561648  	91.123130 
1422.526073  	91.279899 
1423.490497  	90.587659 
1424.454922  	90.334091 
1425.419346  	91.258545 
1426.383770  	91.566370 
1427.348195  	91.483279 
1428.312619  	91.210211 
1429.277044  	90.779885 
1430.241468  	90.384535 
1431.205893  	90.720881 
1432.170317  	90.714341 
1433.134742  	90.413567 
1434.099166  	90.428067 
1435.063591  	90.169316 
1436.028015  	89.072394 
1436.992439  	88.200256 
1437.956864  	89.391267 
1438.921288  	89.966489 
1439.885713  	89.994511 
1440.850137  	89.951249 
1441.814562  	89.905508 
1442.778986  	89.918454 
1443.743411  	89.857759 
1444.707835  	89.732336 
1445.672260  	89.605372 
1446.636684  	89.433529 
1447.601108  	88.760936 
1448.565533  	88.619752 
1449.529957  	89.260168 
1450.494382  	89.392226 
1451.458806  	89.013527 
1452.423231  	88.668416 
1453.387655  	88.966926 
1454.352080  	88.671721 
1455.316504  	87.759730 
1456.280929  	87.000052 
1457.245353  	86.361656 
1458.209777  	86.598269 
1459.174202  	87.441772 
1460.138626  	88.734499 
1461.103051  	89.493959 
1462.067475  	89.667979 
1463.031900  	89.681063 
1463.996324  	89.334183 
1464.960749  	88.574693 
1465.925173  	89.013835 
1466.889598  	89.522444 
1467.854022  	89.494769 
1468.818446  	89.380254 
1469.782871  	89.034579 
1470.747295  	88.379682 
1471.711720  	87.013220 
1472.676144  	86.158042 
1473.640569  	86.882244 
1474.604993  	88.319791 
1475.569418  	88.597288 
1476.533842  	88.313714 
1477.498267  	89.441371 
1478.462691  	90.184485 
1479.427116  	90.413776 
1480.391540  	90.356391 
1481.355964  	90.048934 
1482.320389  	90.527603 
1483.284813  	91.007560 
1484.249238  	91.200860 
1485.213662  	91.158611 
1486.178087  	90.788573 
1487.142511  	90.283960 
1488.106936  	90.337602 
1489.071360  	89.699012 
1490.035785  	88.622775 
1491.000209  	89.606133 
1491.964633  	90.976695 
1492.929058  	91.504590 
1493.893482  	91.468800 
1494.857907  	91.138787 
1495.822331  	90.236597 
1496.786756  	89.623416 
1497.751180  	90.009320 
1498.715605  	89.471932 
1499.680029  	89.363602 
1500.644454  	89.448795 
1501.608878  	88.705314 
1502.573302  	88.097494 
1503.537727  	87.686791 
1504.502151  	86.880439 
1505.466576  	85.470673 
1506.431000  	83.115658 
1507.395425  	83.337168 
1508.359849  	85.611480 
1509.324274  	87.290380 
1510.288698  	88.615692 
1511.253123  	89.804852 
1512.217547  	89.827127 
1513.181971  	90.416299 
1514.146396  	90.801295 
1515.110820  	90.069647 
1516.075245  	89.200479 
1517.039669  	88.119882 
1518.004094  	89.397621 
1518.968518  	90.445578 
1519.932943  	89.725462 
1520.897367  	87.732394 
1521.861792  	87.823612 
1522.826216  	88.937042 
1523.790640  	89.851753 
1524.755065  	89.554545 
1525.719489  	89.069110 
1526.683914  	89.532625 
1527.648338  	89.316814 
1528.612763  	89.667095 
1529.577187  	90.583002 
1530.541612  	90.861983 
1531.506036  	90.221841 
1532.470461  	89.757196 
1533.434885  	89.014008 
1534.399309  	89.296432 
1535.363734  	90.096476 
1536.328158  	90.481922 
1537.292583  	90.536913 
1538.257007  	89.696876 
1539.221432  	87.574764 
1540.185856  	87.282050 
1541.150281  	88.402660 
1542.114705  	88.431499 
1543.079130  	88.517752 
1544.043554  	88.682560 
1545.007979  	88.417895 
1545.972403  	89.333875 
1546.936827  	90.527660 
1547.901252  	90.757657 
1548.865676  	90.309307 
1549.830101  	88.921554 
1550.794525  	89.291398 
1551.758950  	90.416777 
1552.723374  	90.452301 
1553.687799  	89.763022 
1554.652223  	88.929380 
1555.616648  	89.673941 
1556.581072  	89.818669 
1557.545496  	88.731087 
1558.509921  	85.462253 
1559.474345  	85.321712 
1560.438770  	87.695563 
1561.403194  	89.523292 
1562.367619  	90.160616 
1563.332043  	90.322894 
1564.296468  	89.993110 
1565.260892  	89.656657 
1566.225317  	90.103468 
1567.189741  	90.276535 
1568.154165  	89.889689 
1569.118590  	88.692012 
1570.083014  	88.310931 
1571.047439  	89.433980 
1572.011863  	89.718669 
1572.976288  	89.579769 
1573.940712  	89.372368 
1574.905137  	88.959088 
1575.869561  	87.992191 
1576.833986  	87.337874 
1577.798410  	88.130293 
1578.762834  	88.758589 
1579.727259  	89.071586 
1580.691683  	89.318384 
1581.656108  	89.563897 
1582.620532  	89.783899 
1583.584957  	89.927640 
1584.549381  	90.075078 
1585.513806  	90.167880 
1586.478230  	90.241299 
1587.442655  	90.296310 
1588.407079  	90.281623 
1589.371503  	90.153505 
1590.335928  	90.089866 
1591.300352  	90.128416 
1592.264777  	90.141220 
1593.229201  	90.115762 
1594.193626  	89.881707 
1595.158050  	89.810543 
1596.122475  	89.892810 
1597.086899  	89.915325 
1598.051324  	89.961869 
1599.015748  	89.906080 
1599.980173  	89.837305 
1600.944597  	89.627780 
1601.909021  	89.496567 
1602.873446  	89.299637 
1603.837870  	89.267884 
1604.802295  	89.403551 
1605.766719  	89.350688 
1606.731144  	89.015278 
1607.695568  	88.816806 
1608.659993  	88.754108 
1609.624417  	88.443841 
1610.588842  	88.628694 
1611.553266  	88.737173 
1612.517690  	88.636062 
1613.482115  	88.550009 
1614.446539  	88.429047 
1615.410964  	88.101578 
1616.375388  	87.317053 
1617.339813  	87.220667 
1618.304237  	88.078455 
1619.268662  	88.436648 
1620.233086  	88.472205 
1621.197511  	88.409362 
1622.161935  	88.048741 
1623.126359  	87.269786 
1624.090784  	87.320857 
1625.055208  	88.017392 
1626.019633  	88.162781 
1626.984057  	87.942177 
1627.948482  	87.488468 
1628.912906  	87.797021 
1629.877331  	88.088152 
1630.841755  	88.081482 
1631.806180  	87.996805 
1632.770604  	87.926579 
1633.735028  	87.644364 
1634.699453  	86.855297 
1635.663877  	85.366242 
1636.628302  	86.103790 
1637.592726  	86.338935 
1638.557151  	86.921315 
1639.521575  	87.287827 
1640.486000  	87.287744 
1641.450424  	87.266477 
1642.414849  	87.140691 
1643.379273  	87.134898 
1644.343697  	87.047067 
1645.308122  	86.346543 
1646.272546  	85.077293 
1647.236971  	84.581701 
1648.201395  	84.881679 
1649.165820  	85.953230 
1650.130244  	86.376228 
1651.094669  	86.109532 
1652.059093  	85.275218 
1653.023518  	82.708450 
1653.987942  	82.373521 
1654.952366  	84.318501 
1655.916791  	85.434948 
1656.881215  	85.633229 
1657.845640  	85.713169 
1658.810064  	85.766588 
1659.774489  	85.682967 
1660.738913  	85.281299 
1661.703338  	84.712877 
1662.667762  	84.012417 
1663.632187  	84.136785 
1664.596611  	84.444486 
1665.561036  	84.345528 
1666.525460  	84.147524 
1667.489884  	83.627423 
1668.454309  	82.475025 
1669.418733  	81.665630 
1670.383158  	82.157251 
1671.347582  	81.871327 
1672.312007  	81.863418 
1673.276431  	82.142049 
1674.240856  	81.769104 
1675.205280  	80.722102 
1676.169705  	80.615808 
1677.134129  	81.000886 
1678.098553  	80.845338 
1679.062978  	80.263826 
1680.027402  	79.016951 
1680.991827  	78.721665 
1681.956251  	78.953547 
1682.920676  	77.995791 
1683.885100  	75.216204 
1684.849525  	74.915403 
1685.813949  	77.213716 
1686.778374  	77.637085 
1687.742798  	77.048266 
1688.707222  	76.339658 
1689.671647  	76.093453 
1690.636071  	75.755903 
1691.600496  	75.611631 
1692.564920  	75.115993 
1693.529345  	74.312088 
1694.493769  	73.313620 
1695.458194  	71.730398 
1696.422618  	69.867431 
1697.387043  	69.796120 
1698.351467  	69.370819 
1699.315891  	68.365225 
1700.280316  	65.626125 
1701.244740  	64.832331 
1702.209165  	65.179981 
1703.173589  	64.579414 
1704.138014  	63.245123 
1705.102438  	61.869951 
1706.066863  	60.942738 
1707.031287  	59.819955 
1707.995712  	59.456722 
1708.960136  	59.008711 
1709.924560  	58.154027 
1710.888985  	57.579043 
1711.853409  	57.559587 
1712.817834  	57.418033 
1713.782258  	57.138529 
1714.746683  	56.935264 
1715.711107  	57.675938 
1716.675532  	58.449174 
1717.639956  	58.522533 
1718.604381  	59.807587 
1719.568805  	62.144249 
1720.533230  	63.664129 
1721.497654  	64.818438 
1722.462078  	65.830237 
1723.426503  	66.661245 
1724.390927  	67.923979 
1725.355352  	69.195352 
1726.319776  	70.274512 
1727.284201  	71.360466 
1728.248625  	72.449325 
1729.213050  	73.034647 
1730.177474  	73.455555 
1731.141899  	75.156567 
1732.106323  	76.269969 
1733.070747  	76.342104 
1734.035172  	75.998188 
1734.999596  	78.652336 
1735.964021  	81.024244 
1736.928445  	82.254832 
1737.892870  	83.269925 
1738.857294  	84.017219 
1739.821719  	84.536954 
1740.786143  	86.241086 
1741.750568  	87.568139 
1742.714992  	87.832793 
1743.679416  	87.997036 
1744.643841  	89.337036 
1745.608265  	90.367721 
1746.572690  	90.685166 
1747.537114  	90.774742 
1748.501539  	90.841768 
1749.465963  	91.259540 
1750.430388  	91.755943 
1751.394812  	91.347510 
1752.359237  	92.382284 
1753.323661  	93.393637 
1754.288085  	93.807329 
1755.252510  	93.891162 
1756.216934  	93.397590 
1757.181359  	92.931211 
1758.145783  	93.491637 
1759.110208  	93.888894 
1760.074632  	94.035706 
1761.039057  	93.581407 
1762.003481  	92.757476 
1762.967906  	93.538487 
1763.932330  	94.162390 
1764.896754  	94.301482 
1765.861179  	94.299303 
1766.825603  	94.140200 
1767.790028  	93.416596 
1768.754452  	93.172583 
1769.718877  	93.943987 
1770.683301  	93.750117 
1771.647726  	92.829310 
1772.612150  	92.318929 
1773.576575  	93.181914 
1774.540999  	93.806462 
1775.505423  	93.523675 
1776.469848  	93.704814 
1777.434272  	94.195030 
1778.398697  	94.049813 
1779.363121  	93.814734 
1780.327546  	93.473226 
1781.291970  	93.367434 
1782.256395  	93.903101 
1783.220819  	94.157935 
1784.185244  	93.879958 
1785.149668  	93.410375 
1786.114093  	93.820687 
1787.078517  	94.138577 
1788.042941  	94.134631 
1789.007366  	94.027488 
1789.971790  	93.742708 
1790.936215  	93.000774 
1791.900639  	92.634907 
1792.865064  	92.542542 
1793.829488  	93.295268 
1794.793913  	93.700624 
1795.758337  	93.209826 
1796.722762  	93.172553 
1797.687186  	93.786042 
1798.651610  	93.814642 
1799.616035  	93.295294 
1800.580459  	93.238897 
1801.544884  	93.138148 
1802.509308  	92.963882 
1803.473733  	93.535743 
1804.438157  	93.941520 
1805.402582  	93.898168 
1806.367006  	93.798132 
1807.331431  	93.585955 
1808.295855  	93.513274 
1809.260279  	93.769932 
1810.224704  	93.437337 
1811.189128  	93.094280 
1812.153553  	93.339694 
1813.117977  	93.626170 
1814.082402  	93.915329 
1815.046826  	93.950294 
1816.011251  	93.968226 
1816.975675  	93.767402 
1817.940100  	93.594969 
1818.904524  	93.805318 
1819.868948  	93.889278 
1820.833373  	93.789973 
1821.797797  	93.710402 
1822.762222  	93.571669 
1823.726646  	93.581051 
1824.691071  	93.162732 
1825.655495  	92.642035 
1826.619920  	93.404610 
1827.584344  	93.743721 
1828.548769  	93.409420 
1829.513193  	92.546236 
1830.477617  	92.566487 
1831.442042  	93.497480 
1832.406466  	93.758911 
1833.370891  	93.610318 
1834.335315  	93.786292 
1835.299740  	93.936318 
1836.264164  	93.735379 
1837.228589  	93.350020 
1838.193013  	93.547298 
1839.157438  	93.846442 
1840.121862  	93.912246 
1841.086287  	93.866306 
1842.050711  	93.607971 
1843.015135  	93.391880 
1843.979560  	92.820288 
1844.943984  	92.577789 
1845.908409  	93.296846 
1846.872833  	93.537754 
1847.837258  	93.166450 
1848.801682  	93.370762 
1849.766107  	93.893319 
1850.730531  	94.081232 
1851.694956  	94.058897 
1852.659380  	94.007625 
1853.623804  	94.022498 
1854.588229  	94.000118 
1855.552653  	94.038403 
1856.517078  	94.066882 
1857.481502  	94.028988 
1858.445927  	93.854908 
1859.410351  	93.793801 
1860.374776  	93.877673 
1861.339200  	93.823700 
1862.303625  	93.849861 
1863.268049  	93.949741 
1864.232473  	93.936313 
1865.196898  	93.946669 
1866.161322  	93.713806 
1867.125747  	93.406928 
1868.090171  	92.919940 
1869.054596  	92.525212 
1870.019020  	92.911619 
1870.983445  	93.504524 
1871.947869  	93.884591 
1872.912294  	94.121063 
1873.876718  	94.139726 
1874.841142  	94.081735 
1875.805567  	94.079908 
1876.769991  	94.072100 
1877.734416  	94.034195 
1878.698840  	93.991287 
1879.663265  	93.904038 
1880.627689  	93.930678 
1881.592114  	93.947311 
1882.556538  	93.923317 
1883.520963  	93.976191 
1884.485387  	93.906373 
1885.449811  	93.829941 
1886.414236  	94.013715 
1887.378660  	94.059848 
1888.343085  	93.796165 
1889.307509  	93.169469 
1890.271934  	93.139100 
1891.236358  	93.625826 
1892.200783  	93.813556 
1893.165207  	93.889402 
1894.129632  	93.793921 
1895.094056  	93.412330 
1896.058480  	93.502548 
1897.022905  	93.868101 
1897.987329  	93.910283 
1898.951754  	93.909460 
1899.916178  	93.901702 
1900.880603  	93.860751 
1901.845027  	93.763872 
1902.809452  	93.751095 
1903.773876  	93.796046 
1904.738301  	93.835381 
1905.702725  	93.819687 
1906.667150  	93.779672 
1907.631574  	93.576795 
1908.595998  	93.415272 
1909.560423  	93.335465 
1910.524847  	93.352622 
1911.489272  	93.650371 
1912.453696  	93.665715 
1913.418121  	93.680346 
1914.382545  	93.682528 
1915.346970  	93.693746 
1916.311394  	93.653657 
1917.275819  	93.339326 
1918.240243  	92.824730 
1919.204667  	93.344140 
1920.169092  	93.675584 
1921.133516  	93.510214 
1922.097941  	93.020251 
1923.062365  	92.621764 
1924.026790  	93.214142 
1924.991214  	93.738475 
1925.955639  	93.700861 
1926.920063  	93.701194 
1927.884488  	93.806710 
1928.848912  	93.876603 
1929.813336  	93.857171 
1930.777761  	93.779007 
1931.742185  	93.715368 
1932.706610  	93.788828 
1933.671034  	93.876377 
1934.635459  	93.849797 
1935.599883  	93.709365 
1936.564308  	93.727409 
1937.528732  	93.793481 
1938.493157  	93.804182 
1939.457581  	93.759696 
1940.422005  	93.770483 
1941.386430  	93.540887 
1942.350854  	92.812316 
1943.315279  	92.814151 
1944.279703  	93.486835 
1945.244128  	93.438081 
1946.208552  	93.288241 
1947.172977  	93.323203 
1948.137401  	93.513962 
1949.101826  	93.513475 
1950.066250  	93.698398 
1951.030674  	93.732776 
1951.995099  	93.591142 
1952.959523  	93.585862 
1953.923948  	93.517896 
1954.888372  	93.316671 
1955.852797  	93.286292 
1956.817221  	93.463127 
1957.781646  	93.845368 
1958.746070  	93.844255 
1959.710495  	93.649768 
1960.674919  	93.363000 
1961.639344  	93.271013 
1962.603768  	93.268496 
1963.568192  	93.472626 
1964.532617  	93.776107 
1965.497041  	93.979697 
1966.461466  	93.749208 
1967.425890  	93.518436 
1968.390315  	93.788030 
1969.354739  	94.161072 
1970.319164  	94.162887 
1971.283588  	94.127272 
1972.248013  	94.113758 
1973.212437  	93.989050 
1974.176861  	93.829128 
1975.141286  	93.787767 
1976.105710  	93.953172 
1977.070135  	94.181053 
1978.034559  	94.179323 
1978.998984  	93.477510 
1979.963408  	93.165943 
1980.927833  	93.314225 
1981.892257  	93.617480 
1982.856682  	93.796994 
1983.821106  	93.827213 
1984.785530  	93.705243 
1985.749955  	93.532057 
1986.714379  	93.719370 
1987.678804  	93.655832 
1988.643228  	93.575872 
1989.607653  	93.772988 
1990.572077  	93.529094 
1991.536502  	93.083661 
1992.500926  	93.055842 
1993.465351  	93.383334 
1994.429775  	93.647601 
1995.394199  	93.684677 
1996.358624  	93.638545 
1997.323048  	93.517997 
1998.287473  	93.699509 
1999.251897  	94.124584 
2000.216322  	94.203877 
2001.180746  	94.376347 
2002.145171  	94.408900 
2003.109595  	94.358589 
2004.074020  	94.498653 
2005.038444  	94.722715 
2006.002868  	94.734943 
2006.967293  	94.441814 
2007.931717  	93.995242 
2008.896142  	93.894443 
2009.860566  	94.220097 
2010.824991  	94.321530 
2011.789415  	94.206700 
2012.753840  	94.133908 
2013.718264  	93.729981 
2014.682689  	93.625591 
2015.647113  	94.176833 
2016.611537  	94.122925 
2017.575962  	93.720734 
2018.540386  	93.889022 
2019.504811  	94.168859 
2020.469235  	94.407553 
2021.433660  	94.266487 
2022.398084  	94.130634 
2023.362509  	94.227723 
2024.326933  	94.067708 
2025.291358  	93.959190 
2026.255782  	94.162704 
2027.220207  	94.155728 
2028.184631  	94.252789 
2029.149055  	94.470820 
2030.113480  	94.291933 
2031.077904  	94.302030 
2032.042329  	94.304532 
2033.006753  	94.209673 
2033.971178  	94.052810 
2034.935602  	93.921953 
2035.900027  	94.205598 
2036.864451  	94.253735 
2037.828876  	94.107079 
2038.793300  	93.955371 
2039.757724  	93.809210 
2040.722149  	93.761786 
2041.686573  	93.541183 
2042.650998  	93.389107 
2043.615422  	93.376987 
2044.579847  	93.759093 
2045.544271  	94.136159 
2046.508696  	94.281278 
2047.473120  	94.022646 
2048.437545  	93.989291 
2049.401969  	93.873050 
2050.366393  	93.445419 
2051.330818  	93.234476 
2052.295242  	93.560139 
2053.259667  	93.846734 
2054.224091  	93.802043 
2055.188516  	93.472596 
2056.152940  	93.316174 
2057.117365  	93.243450 
2058.081789  	93.306530 
2059.046214  	93.471313 
2060.010638  	93.457645 
2060.975062  	93.280561 
2061.939487  	93.297029 
2062.903911  	93.265219 
2063.868336  	93.248053 
2064.832760  	93.130744 
2065.797185  	93.346474 
2066.761609  	93.468118 
2067.726034  	93.483130 
2068.690458  	93.621567 
2069.654883  	93.673049 
2070.619307  	93.493803 
2071.583731  	93.455355 
2072.548156  	93.437049 
2073.512580  	93.337463 
2074.477005  	93.355178 
2075.441429  	93.523225 
2076.405854  	93.516557 
2077.370278  	93.457499 
2078.334703  	93.370821 
2079.299127  	93.299501 
2080.263552  	93.267041 
2081.227976  	93.265403 
2082.192401  	93.285888 
2083.156825  	93.259543 
2084.121249  	93.281488 
2085.085674  	93.392848 
2086.050098  	93.449240 
2087.014523  	93.423640 
2087.978947  	93.453152 
2088.943372  	93.391113 
2089.907796  	93.162791 
2090.872221  	93.281208 
2091.836645  	93.644922 
2092.801070  	93.708153 
2093.765494  	93.679358 
2094.729918  	93.592730 
2095.694343  	93.418575 
2096.658767  	93.349452 
2097.623192  	93.345878 
2098.587616  	93.368017 
2099.552041  	93.385680 
2100.516465  	93.307485 
2101.480890  	93.371632 
2102.445314  	93.382971 
2103.409739  	93.279246 
2104.374163  	93.332795 
2105.338587  	93.330477 
2106.303012  	93.252349 
2107.267436  	93.355226 
2108.231861  	93.443841 
2109.196285  	93.341087 
2110.160710  	93.328424 
2111.125134  	93.373461 
2112.089559  	93.426154 
2113.053983  	93.501006 
2114.018408  	93.561931 
2114.982832  	93.506262 
2115.947256  	93.397019 
2116.911681  	93.402437 
2117.876105  	93.505251 
2118.840530  	93.484652 
2119.804954  	93.531501 
2120.769379  	93.564583 
2121.733803  	93.520820 
2122.698228  	93.530865 
2123.662652  	93.553860 
2124.627077  	93.606752 
2125.591501  	93.726363 
2126.555925  	93.818777 
2127.520350  	93.837526 
2128.484774  	93.834651 
2129.449199  	93.934239 
2130.413623  	93.932653 
2131.378048  	93.917019 
2132.342472  	94.077325 
2133.306897  	94.115052 
2134.271321  	93.775005 
2135.235746  	93.602018 
2136.200170  	93.682032 
2137.164594  	93.853207 
2138.129019  	93.932657 
2139.093443  	93.904855 
2140.057868  	93.837081 
2141.022292  	93.762637 
2141.986717  	93.825166 
2142.951141  	94.126606 
2143.915566  	94.434378 
2144.879990  	94.204862 
2145.844415  	94.074245 
2146.808839  	94.089057 
2147.773264  	94.049542 
2148.737688  	94.051149 
2149.702112  	94.038482 
2150.666537  	94.281119 
2151.630961  	94.220423 
2152.595386  	94.272820 
2153.559810  	94.248423 
2154.524235  	94.473503 
2155.488659  	95.036014 
2156.453084  	95.289157 
2157.417508  	94.992009 
2158.381933  	94.742112 
2159.346357  	94.232298 
2160.310781  	93.578142 
2161.275206  	93.387443 
2162.239630  	93.797175 
2163.204055  	93.984963 
2164.168479  	93.914893 
2165.132904  	93.891446 
2166.097328  	94.100862 
2167.061753  	94.314496 
2168.026177  	94.077139 
2168.990602  	93.809691 
2169.955026  	93.739841 
2170.919450  	93.925910 
2171.883875  	93.841526 
2172.848299  	93.772513 
2173.812724  	93.943724 
2174.777148  	94.049506 
2175.741573  	93.850088 
2176.705997  	93.621427 
2177.670422  	93.719751 
2178.634846  	93.878118 
2179.599271  	94.061409 
2180.563695  	94.003298 
2181.528119  	94.108382 
2182.492544  	94.037306 
2183.456968  	93.612120 
2184.421393  	93.434607 
2185.385817  	93.867426 
2186.350242  	94.057493 
2187.314666  	93.634886 
2188.279091  	93.545161 
2189.243515  	93.700992 
2190.207940  	93.604971 
2191.172364  	93.786855 
2192.136788  	93.994848 
2193.101213  	94.020916 
2194.065637  	93.695934 
2195.030062  	93.441625 
2195.994486  	93.359114 
2196.958911  	93.481108 
2197.923335  	93.717064 
2198.887760  	93.768596 
2199.852184  	93.896547 
2200.816609  	94.002580 
2201.781033  	93.835658 
2202.745458  	93.710414 
2203.709882  	93.820610 
2204.674306  	93.851096 
2205.638731  	93.792122 
2206.603155  	93.821357 
2207.567580  	93.701270 
2208.532004  	93.692737 
2209.496429  	93.775088 
2210.460853  	93.766326 
2211.425278  	93.797864 
2212.389702  	93.867375 
2213.354127  	93.663412 
2214.318551  	93.444487 
2215.282975  	93.453760 
2216.247400  	93.443837 
2217.211824  	93.515332 
2218.176249  	93.578629 
2219.140673  	93.632067 
2220.105098  	93.525430 
2221.069522  	93.418768 
2222.033947  	93.555036 
2222.998371  	93.639646 
2223.962796  	93.624260 
2224.927220  	93.713817 
2225.891644  	93.537928 
2226.856069  	93.364873 
2227.820493  	93.437884 
2228.784918  	93.461123 
2229.749342  	93.413024 
2230.713767  	93.495182 
2231.678191  	93.333329 
2232.642616  	93.276398 
2233.607040  	93.563419 
2234.571465  	93.560312 
2235.535889  	93.358692 
2236.500313  	93.342492 
2237.464738  	93.381595 
2238.429162  	93.460223 
2239.393587  	93.517125 
2240.358011  	93.422153 
2241.322436  	93.401625 
2242.286860  	93.326481 
2243.251285  	93.293284 
2244.215709  	93.366932 
2245.180134  	93.295214 
2246.144558  	93.237189 
2247.108982  	93.347380 
2248.073407  	93.385057 
2249.037831  	93.358402 
2250.002256  	93.457747 
2250.966680  	93.415651 
2251.931105  	93.367728 
2252.895529  	93.325757 
2253.859954  	93.246377 
2254.824378  	93.166163 
2255.788803  	93.196103 
2256.753227  	93.210316 
2257.717651  	93.266031 
2258.682076  	93.243934 
2259.646500  	93.310941 
2260.610925  	93.298670 
2261.575349  	93.176982 
2262.539774  	93.076523 
2263.504198  	93.244021 
2264.468623  	93.277388 
2265.433047  	93.145164 
2266.397472  	93.159552 
2267.361896  	93.213527 
2268.326321  	93.218613 
2269.290745  	93.138856 
2270.255169  	93.166330 
2271.219594  	93.235080 
2272.184018  	93.190403 
2273.148443  	93.199873 
2274.112867  	93.182970 
2275.077292  	93.172206 
2276.041716  	93.130105 
2277.006141  	93.097753 
2277.970565  	93.094014 
2278.934990  	93.073460 
2279.899414  	93.065504 
2280.863838  	93.123601 
2281.828263  	93.092888 
2282.792687  	92.985817 
2283.757112  	92.939481 
2284.721536  	92.914534 
2285.685961  	92.906903 
2286.650385  	92.953131 
2287.614810  	92.983722 
2288.579234  	92.929692 
2289.543659  	92.905846 
2290.508083  	93.011092 
2291.472507  	93.048582 
2292.436932  	93.097131 
2293.401356  	93.079270 
2294.365781  	92.978377 
2295.330205  	92.993517 
2296.294630  	93.016598 
2297.259054  	92.978151 
2298.223479  	92.976122 
2299.187903  	93.028441 
2300.152328  	93.050578 
2301.116752  	93.047975 
2302.081176  	93.105734 
2303.045601  	93.071137 
2304.010025  	93.076463 
2304.974450  	93.026629 
2305.938874  	93.024552 
2306.903299  	93.036113 
2307.867723  	93.069917 
2308.832148  	92.984086 
2309.796572  	92.993007 
2310.760997  	93.020800 
2311.725421  	93.064483 
2312.689845  	93.160082 
2313.654270  	93.175674 
2314.618694  	93.187245 
2315.583119  	93.296206 
2316.547543  	93.323998 
2317.511968  	93.436203 
2318.476392  	93.511180 
2319.440817  	93.505146 
2320.405241  	93.387954 
2321.369666  	93.517135 
2322.334090  	93.600461 
2323.298515  	93.607508 
2324.262939  	93.493769 
2325.227363  	93.791750 
2326.191788  	94.137790 
2327.156212  	94.401259 
2328.120637  	94.462071 
2329.085061  	94.485159 
2330.049486  	94.529205 
2331.013910  	94.612074 
2331.978335  	94.711738 
2332.942759  	94.777742 
2333.907184  	94.830584 
2334.871608  	94.920713 
2335.836032  	95.063006 
2336.800457  	95.155208 
2337.764881  	95.108633 
2338.729306  	95.112422 
2339.693730  	95.086910 
2340.658155  	95.181513 
2341.622579  	95.250071 
2342.587004  	95.229290 
2343.551428  	95.110503 
2344.515853  	94.864423 
2345.480277  	94.636972 
2346.444701  	94.376316 
2347.409126  	94.144722 
2348.373550  	93.846331 
2349.337975  	93.762649 
2350.302399  	94.043938 
2351.266824  	94.431377 
2352.231248  	94.862531 
2353.195673  	95.054544 
2354.160097  	95.199604 
2355.124522  	95.373027 
2356.088946  	95.493256 
2357.053370  	95.556196 
2358.017795  	95.685569 
2358.982219  	95.783393 
2359.946644  	95.994895 
2360.911068  	95.892992 
2361.875493  	95.819086 
2362.839917  	95.794281 
2363.804342  	95.643451 
2364.768766  	95.469439 
2365.733191  	95.619033 
2366.697615  	95.553457 
2367.662039  	95.271611 
2368.626464  	94.955818 
2369.590888  	94.724257 
2370.555313  	94.550009 
2371.519737  	94.425705 
2372.484162  	94.177065 
2373.448586  	93.982718 
2374.413011  	93.887381 
2375.377435  	93.729222 
2376.341860  	93.574418 
2377.306284  	93.439155 
2378.270708  	93.253953 
2379.235133  	93.134711 
2380.199557  	93.135367 
2381.163982  	93.127921 
2382.128406  	93.100026 
2383.092831  	93.101877 
2384.057255  	93.085283 
2385.021680  	93.121520 
2385.986104  	93.187720 
2386.950529  	93.224614 
2387.914953  	93.243584 
2388.879378  	93.235225 
2389.843802  	93.292546 
2390.808226  	93.314934 
2391.772651  	93.275391 
2392.737075  	93.288390 
2393.701500  	93.347334 
2394.665924  	93.386146 
2395.630349  	93.346920 
2396.594773  	93.346180 
2397.559198  	93.377303 
2398.523622  	93.372500 
2399.488047  	93.380664 
2400.452471  	93.355497 
2401.416895  	93.320794 
2402.381320  	93.338892 
2403.345744  	93.355925 
2404.310169  	93.345688 
2405.274593  	93.334118 
2406.239018  	93.323888 
2407.203442  	93.332146 
2408.167867  	93.334384 
2409.132291  	93.339377 
2410.096716  	93.313115 
2411.061140  	93.231540 
2412.025564  	93.233836 
2412.989989  	93.281130 
2413.954413  	93.305470 
2414.918838  	93.349979 
2415.883262  	93.352339 
2416.847687  	93.303646 
2417.812111  	93.284631 
2418.776536  	93.289747 
2419.740960  	93.310072 
2420.705385  	93.353677 
2421.669809  	93.320682 
2422.634233  	93.328201 
2423.598658  	93.305372 
2424.563082  	93.300555 
2425.527507  	93.381731 
2426.491931  	93.378371 
2427.456356  	93.318579 
2428.420780  	93.385371 
2429.385205  	93.382672 
2430.349629  	93.334112 
2431.314054  	93.296747 
2432.278478  	93.308638 
2433.242902  	93.326234 
2434.207327  	93.298416 
2435.171751  	93.320798 
2436.136176  	93.353043 
2437.100600  	93.383794 
2438.065025  	93.389260 
2439.029449  	93.408048 
2439.993874  	93.400328 
2440.958298  	93.355506 
2441.922723  	93.308806 
2442.887147  	93.310774 
2443.851572  	93.367694 
2444.815996  	93.396315 
2445.780420  	93.348513 
2446.744845  	93.255974 
2447.709269  	93.262381 
2448.673694  	93.275519 
2449.638118  	93.251019 
2450.602543  	93.247029 
2451.566967  	93.232598 
2452.531392  	93.227673 
2453.495816  	93.262235 
2454.460241  	93.289884 
2455.424665  	93.283581 
2456.389089  	93.244207 
2457.353514  	93.270869 
2458.317938  	93.311972 
2459.282363  	93.326520 
2460.246787  	93.383348 
2461.211212  	93.365506 
2462.175636  	93.291187 
2463.140061  	93.319769 
2464.104485  	93.387584 
2465.068910  	93.380306 
2466.033334  	93.310761 
2466.997758  	93.298079 
2467.962183  	93.351834 
2468.926607  	93.375554 
2469.891032  	93.367537 
2470.855456  	93.371705 
2471.819881  	93.376428 
2472.784305  	93.369895 
2473.748730  	93.336409 
2474.713154  	93.340053 
2475.677579  	93.351431 
2476.642003  	93.331964 
2477.606427  	93.335434 
2478.570852  	93.375885 
2479.535276  	93.355351 
2480.499701  	93.300027 
2481.464125  	93.291224 
2482.428550  	93.356526 
2483.392974  	93.417877 
2484.357399  	93.418734 
2485.321823  	93.325826 
2486.286248  	93.237417 
2487.250672  	93.223241 
2488.215096  	93.285520 
2489.179521  	93.286908 
2490.143945  	93.229327 
2491.108370  	93.209988 
2492.072794  	93.239174 
2493.037219  	93.291313 
2494.001643  	93.360728 
2494.966068  	93.399338 
2495.930492  	93.389838 
2496.894917  	93.355809 
2497.859341  	93.362737 
2498.823765  	93.325887 
2499.788190  	93.291776 
2500.752614  	93.263665 
2501.717039  	93.217216 
2502.681463  	93.214180 
2503.645888  	93.220135 
2504.610312  	93.206757 
2505.574737  	93.244644 
2506.539161  	93.289461 
2507.503586  	93.345809 
2508.468010  	93.350484 
2509.432435  	93.280752 
2510.396859  	93.261354 
2511.361283  	93.278612 
2512.325708  	93.287280 
2513.290132  	93.279185 
2514.254557  	93.267626 
2515.218981  	93.271477 
2516.183406  	93.256177 
2517.147830  	93.279859 
2518.112255  	93.228932 
2519.076679  	93.222327 
2520.041104  	93.308043 
2521.005528  	93.311203 
2521.969952  	93.246563 
2522.934377  	93.191526 
2523.898801  	93.196262 
2524.863226  	93.227069 
2525.827650  	93.219165 
2526.792075  	93.229115 
2527.756499  	93.208811 
2528.720924  	93.159056 
2529.685348  	93.133156 
2530.649773  	93.172213 
2531.614197  	93.204489 
2532.578621  	93.224670 
2533.543046  	93.269289 
2534.507470  	93.282189 
2535.471895  	93.238963 
2536.436319  	93.225556 
2537.400744  	93.242688 
2538.365168  	93.221541 
2539.329593  	93.190084 
2540.294017  	93.132598 
2541.258442  	93.114448 
2542.222866  	93.147736 
2543.187290  	93.172670 
2544.151715  	93.235991 
2545.116139  	93.280539 
2546.080564  	93.207749 
2547.044988  	93.124825 
2548.009413  	93.073531 
2548.973837  	93.091331 
2549.938262  	93.148058 
2550.902686  	93.200990 
2551.867111  	93.198968 
2552.831535  	93.138872 
2553.795959  	93.173962 
2554.760384  	93.226633 
2555.724808  	93.177703 
2556.689233  	93.134282 
2557.653657  	93.155123 
2558.618082  	93.166270 
2559.582506  	93.232090 
2560.546931  	93.228318 
2561.511355  	93.131044 
2562.475780  	93.087079 
2563.440204  	93.125101 
2564.404629  	93.179610 
2565.369053  	93.213452 
2566.333477  	93.223098 
2567.297902  	93.264922 
2568.262326  	93.239651 
2569.226751  	93.125263 
2570.191175  	93.091784 
2571.155600  	93.156308 
2572.120024  	93.182349 
2573.084449  	93.197633 
2574.048873  	93.133909 
2575.013298  	93.092610 
2575.977722  	93.124133 
2576.942146  	93.182121 
2577.906571  	93.198779 
2578.870995  	93.200603 
2579.835420  	93.188281 
2580.799844  	93.194676 
2581.764269  	93.135009 
2582.728693  	93.144611 
2583.693118  	93.137032 
2584.657542  	93.098112 
2585.621967  	93.080462 
2586.586391  	93.092399 
2587.550815  	93.154535 
2588.515240  	93.161738 
2589.479664  	93.109430 
2590.444089  	93.077991 
2591.408513  	93.108118 
2592.372938  	93.147027 
2593.337362  	93.134702 
2594.301787  	93.101218 
2595.266211  	93.087012 
2596.230636  	93.135153 
2597.195060  	93.188260 
2598.159484  	93.158286 
2599.123909  	93.143072 
2600.088333  	93.170625 
2601.052758  	93.153071 
2602.017182  	93.140631 
2602.981607  	93.131957 
2603.946031  	93.124856 
2604.910456  	93.147258 
2605.874880  	93.167650 
2606.839305  	93.165010 
2607.803729  	93.167954 
2608.768153  	93.131818 
2609.732578  	93.072840 
2610.697002  	93.073665 
2611.661427  	93.106390 
2612.625851  	93.125212 
2613.590276  	93.173188 
2614.554700  	93.140845 
2615.519125  	93.085979 
2616.483549  	93.085674 
2617.447974  	93.087106 
2618.412398  	93.101919 
2619.376822  	93.083401 
2620.341247  	93.099902 
2621.305671  	93.101541 
2622.270096  	93.076988 
2623.234520  	93.093764 
2624.198945  	93.073939 
2625.163369  	93.088273 
2626.127794  	93.112537 
2627.092218  	93.097451 
2628.056643  	93.084239 
2629.021067  	93.066486 
2629.985492  	93.096967 
2630.949916  	93.131914 
2631.914340  	93.103701 
2632.878765  	93.062342 
2633.843189  	93.075832 
2634.807614  	93.075908 
2635.772038  	93.079617 
2636.736463  	93.075277 
2637.700887  	93.103946 
2638.665312  	93.098705 
2639.629736  	93.067947 
2640.594161  	93.099635 
2641.558585  	93.130544 
2642.523009  	93.079831 
2643.487434  	93.069464 
2644.451858  	93.123024 
2645.416283  	93.140803 
2646.380707  	93.124244 
2647.345132  	93.124432 
2648.309556  	93.145132 
2649.273981  	93.146808 
2650.238405  	93.157159 
2651.202830  	93.156489 
2652.167254  	93.141052 
2653.131678  	93.146490 
2654.096103  	93.149006 
2655.060527  	93.142552 
2656.024952  	93.140413 
2656.989376  	93.133740 
2657.953801  	93.136276 
2658.918225  	93.164586 
2659.882650  	93.169147 
2660.847074  	93.175563 
2661.811499  	93.202799 
2662.775923  	93.224138 
2663.740347  	93.248843 
2664.704772  	93.236600 
2665.669196  	93.258655 
2666.633621  	93.274698 
2667.598045  	93.255526 
2668.562470  	93.231122 
2669.526894  	93.227922 
2670.491319  	93.214783 
2671.455743  	93.259158 
2672.420168  	93.291698 
2673.384592  	93.285870 
2674.349016  	93.265766 
2675.313441  	93.272979 
2676.277865  	93.294466 
2677.242290  	93.288122 
2678.206714  	93.268216 
2679.171139  	93.263606 
2680.135563  	93.276911 
2681.099988  	93.296287 
2682.064412  	93.297778 
2683.028837  	93.287840 
2683.993261  	93.256498 
2684.957686  	93.249598 
2685.922110  	93.279057 
2686.886534  	93.262921 
2687.850959  	93.229055 
2688.815383  	93.240728 
2689.779808  	93.251325 
2690.744232  	93.258000 
2691.708657  	93.274601 
2692.673081  	93.281591 
2693.637506  	93.275008 
2694.601930  	93.296360 
2695.566355  	93.288255 
2696.530779  	93.269926 
2697.495203  	93.282657 
2698.459628  	93.294446 
2699.424052  	93.280621 
2700.388477  	93.232275 
2701.352901  	93.214771 
2702.317326  	93.231363 
2703.281750  	93.261221 
2704.246175  	93.277620 
2705.210599  	93.253315 
2706.175024  	93.239799 
2707.139448  	93.248360 
2708.103872  	93.252917 
2709.068297  	93.275450 
2710.032721  	93.269684 
2710.997146  	93.256441 
2711.961570  	93.265384 
2712.925995  	93.285639 
2713.890419  	93.286659 
2714.854844  	93.282163 
2715.819268  	93.293655 
2716.783693  	93.288137 
2717.748117  	93.278763 
2718.712541  	93.270673 
2719.676966  	93.276684 
2720.641390  	93.284094 
2721.605815  	93.291334 
2722.570239  	93.272345 
2723.534664  	93.270181 
2724.499088  	93.250509 
2725.463513  	93.240115 
2726.427937  	93.262131 
2727.392362  	93.273038 
2728.356786  	93.234999 
2729.321210  	93.206847 
2730.285635  	93.231022 
2731.250059  	93.218188 
2732.214484  	93.222908 
2733.178908  	93.227360 
2734.143333  	93.218501 
2735.107757  	93.231980 
2736.072182  	93.252655 
2737.036606  	93.252513 
2738.001031  	93.229188 
2738.965455  	93.194358 
2739.929879  	93.183494 
2740.894304  	93.202938 
2741.858728  	93.224343 
2742.823153  	93.215544 
2743.787577  	93.200888 
2744.752002  	93.190888 
2745.716426  	93.185965 
2746.680851  	93.183534 
2747.645275  	93.179974 
2748.609700  	93.191786 
2749.574124  	93.194875 
2750.538549  	93.191151 
2751.502973  	93.151051 
2752.467397  	93.148753 
2753.431822  	93.191144 
2754.396246  	93.189950 
2755.360671  	93.165197 
2756.325095  	93.204333 
2757.289520  	93.218254 
2758.253944  	93.210875 
2759.218369  	93.185631 
2760.182793  	93.177521 
2761.147218  	93.188009 
2762.111642  	93.169280 
2763.076066  	93.184032 
2764.040491  	93.226395 
2765.004915  	93.211136 
2765.969340  	93.195160 
2766.933764  	93.194570 
2767.898189  	93.201281 
2768.862613  	93.185113 
2769.827038  	93.167212 
2770.791462  	93.177400 
2771.755887  	93.175477 
2772.720311  	93.157370 
2773.684735  	93.142734 
2774.649160  	93.114042 
2775.613584  	93.105616 
2776.578009  	93.118873 
2777.542433  	93.119612 
2778.506858  	93.137737 
2779.471282  	93.158099 
2780.435707  	93.132688 
2781.400131  	93.113003 
2782.364556  	93.127885 
2783.328980  	93.149308 
2784.293404  	93.152521 
2785.257829  	93.160197 
2786.222253  	93.166787 
2787.186678  	93.146238 
2788.151102  	93.130473 
2789.115527  	93.168739 
2790.079951  	93.160168 
2791.044376  	93.123546 
2792.008800  	93.099153 
2792.973225  	93.083630 
2793.937649  	93.096355 
2794.902073  	93.091314 
2795.866498  	93.081367 
2796.830922  	93.076602 
2797.795347  	93.095981 
2798.759771  	93.107458 
2799.724196  	93.077604 
2800.688620  	93.058629 
2801.653045  	93.064162 
2802.617469  	93.064008 
2803.581894  	93.073673 
2804.546318  	93.094266 
2805.510743  	93.088368 
2806.475167  	93.052326 
2807.439591  	93.032885 
2808.404016  	93.056189 
2809.368440  	93.060290 
2810.332865  	93.077559 
2811.297289  	93.060210 
2812.261714  	93.053640 
2813.226138  	93.068325 
2814.190563  	93.045090 
2815.154987  	93.044682 
2816.119412  	93.051331 
2817.083836  	93.052466 
2818.048260  	93.054665 
2819.012685  	93.059344 
2819.977109  	93.095932 
2820.941534  	93.089697 
2821.905958  	93.083148 
2822.870383  	93.050600 
2823.834807  	93.032300 
2824.799232  	93.025573 
2825.763656  	93.029154 
2826.728081  	93.041724 
2827.692505  	93.047716 
2828.656929  	93.041858 
2829.621354  	93.031393 
2830.585778  	93.017459 
2831.550203  	93.010216 
2832.514627  	92.997448 
2833.479052  	92.991014 
2834.443476  	92.992366 
2835.407901  	93.011811 
2836.372325  	93.031683 
2837.336750  	93.004417 
2838.301174  	92.960895 
2839.265598  	92.902784 
2840.230023  	92.902683 
2841.194447  	92.961371 
2842.158872  	92.957003 
2843.123296  	92.918655 
2844.087721  	92.880594 
2845.052145  	92.847171 
2846.016570  	92.802158 
2846.980994  	92.781481 
2847.945419  	92.772904 
2848.909843  	92.735434 
2849.874267  	92.708817 
2850.838692  	92.726560 
2851.803116  	92.721476 
2852.767541  	92.685678 
2853.731965  	92.680875 
2854.696390  	92.684456 
2855.660814  	92.701791 
2856.625239  	92.727881 
2857.589663  	92.751190 
2858.554088  	92.764930 
2859.518512  	92.743085 
2860.482936  	92.736090 
2861.447361  	92.743183 
2862.411785  	92.755698 
2863.376210  	92.762549 
2864.340634  	92.739316 
2865.305059  	92.743011 
2866.269483  	92.756632 
2867.233908  	92.733336 
2868.198332  	92.723105 
2869.162757  	92.726751 
2870.127181  	92.728731 
2871.091606  	92.682582 
2872.056030  	92.673281 
2873.020454  	92.706962 
2873.984879  	92.711016 
2874.949303  	92.655625 
2875.913728  	92.644620 
2876.878152  	92.653990 
2877.842577  	92.625501 
2878.807001  	92.596052 
2879.771426  	92.585526 
2880.735850  	92.528729 
2881.700275  	92.517432 
2882.664699  	92.564261 
2883.629123  	92.558210 
2884.593548  	92.553556 
2885.557972  	92.542449 
2886.522397  	92.527731 
2887.486821  	92.530133 
2888.451246  	92.536113 
2889.415670  	92.556137 
2890.380095  	92.541469 
2891.344519  	92.524132 
2892.308944  	92.520467 
2893.273368  	92.499494 
2894.237792  	92.493346 
2895.202217  	92.459669 
2896.166641  	92.430340 
2897.131066  	92.424624 
2898.095490  	92.405964 
2899.059915  	92.394826 
2900.024339  	92.363447 
2900.988764  	92.320917 
2901.953188  	92.292126 
2902.917613  	92.242081 
2903.882037  	92.177820 
2904.846461  	92.160003 
2905.810886  	92.133509 
2906.775310  	92.133307 
2907.739735  	92.132578 
2908.704159  	92.100639 
2909.668584  	92.079419 
2910.633008  	92.086834 
2911.597433  	92.130104 
2912.561857  	92.216801 
2913.526282  	92.248873 
2914.490706  	92.231772 
2915.455130  	92.220551 
2916.419555  	92.264380 
2917.383979  	92.317742 
2918.348404  	92.339928 
2919.312828  	92.396724 
2920.277253  	92.412336 
2921.241677  	92.358229 
2922.206102  	92.343465 
2923.170526  	92.346570 
2924.134951  	92.394122 
2925.099375  	92.429343 
2926.063800  	92.425903 
2927.028224  	92.427502 
2927.992648  	92.431037 
2928.957073  	92.444511 
2929.921497  	92.442100 
2930.885922  	92.461451 
2931.850346  	92.487940 
2932.814771  	92.492108 
2933.779195  	92.500541 
2934.743620  	92.513998 
2935.708044  	92.465564 
2936.672469  	92.431297 
2937.636893  	92.449722 
2938.601317  	92.463294 
2939.565742  	92.481177 
2940.530166  	92.482908 
2941.494591  	92.410101 
2942.459015  	92.358859 
2943.423440  	92.322855 
2944.387864  	92.289506 
2945.352289  	92.246001 
2946.316713  	92.207621 
2947.281138  	92.200407 
2948.245562  	92.210425 
2949.209986  	92.139044 
2950.174411  	92.036399 
2951.138835  	92.048561 
2952.103260  	92.029383 
2953.067684  	91.959946 
2954.032109  	91.934144 
2954.996533  	91.919031 
2955.960958  	91.835355 
2956.925382  	91.794200 
2957.889807  	91.797726 
2958.854231  	91.717427 
2959.818655  	91.658853 
2960.783080  	91.681825 
2961.747504  	91.674522 
2962.711929  	91.635670 
2963.676353  	91.625854 
2964.640778  	91.604835 
2965.605202  	91.535305 
2966.569627  	91.471765 
2967.534051  	91.501740 
2968.498476  	91.567687 
2969.462900  	91.559939 
2970.427324  	91.537391 
2971.391749  	91.576478 
2972.356173  	91.651013 
2973.320598  	91.719213 
2974.285022  	91.766436 
2975.249447  	91.785784 
2976.213871  	91.872256 
2977.178296  	91.935321 
2978.142720  	91.948690 
2979.107145  	92.001533 
2980.071569  	92.100383 
2981.035993  	92.123754 
2982.000418  	92.148417 
2982.964842  	92.226646 
2983.929267  	92.298918 
2984.893691  	92.357949 
2985.858116  	92.367411 
2986.822540  	92.403195 
2987.786965  	92.433988 
2988.751389  	92.444216 
2989.715814  	92.476724 
2990.680238  	92.510201 
2991.644663  	92.559481 
2992.609087  	92.588265 
2993.573511  	92.587930 
2994.537936  	92.571167 
2995.502360  	92.571918 
2996.466785  	92.582516 
2997.431209  	92.610342 
2998.395634  	92.657878 
2999.360058  	92.701449 
3000.324483  	92.705383 
3001.288907  	92.663174 
3002.253332  	92.655506 
3003.217756  	92.703362 
3004.182180  	92.682728 
3005.146605  	92.651968 
3006.111029  	92.679732 
3007.075454  	92.719740 
3008.039878  	92.778614 
3009.004303  	92.843353 
3009.968727  	92.806647 
3010.933152  	92.779043 
3011.897576  	92.771487 
3012.862001  	92.732936 
3013.826425  	92.784420 
3014.790849  	92.834558 
3015.755274  	92.820315 
3016.719698  	92.866714 
3017.684123  	92.942015 
3018.648547  	92.958327 
3019.612972  	92.958661 
3020.577396  	93.027334 
3021.541821  	93.073549 
3022.506245  	93.073302 
3023.470670  	93.058295 
3024.435094  	93.102380 
3025.399518  	93.097164 
3026.363943  	93.063457 
3027.328367  	93.112274 
3028.292792  	93.154350 
3029.257216  	93.176715 
3030.221641  	93.132359 
3031.186065  	93.036294 
3032.150490  	93.005345 
3033.114914  	93.069651 
3034.079339  	93.068317 
3035.043763  	93.053037 
3036.008187  	93.075620 
3036.972612  	93.104511 
3037.937036  	93.097059 
3038.901461  	93.079071 
3039.865885  	93.072856 
3040.830310  	93.057121 
3041.794734  	93.091357 
3042.759159  	93.117272 
3043.723583  	93.122114 
3044.688008  	93.085194 
3045.652432  	93.080362 
3046.616857  	93.072020 
3047.581281  	93.035239 
3048.545705  	92.955989 
3049.510130  	92.892069 
3050.474554  	92.873516 
3051.438979  	92.893925 
3052.403403  	92.913232 
3053.367828  	92.892272 
3054.332252  	92.880082 
3055.296677  	92.894898 
3056.261101  	92.807669 
3057.225526  	92.785850 
3058.189950  	92.899179 
3059.154374  	92.941431 
3060.118799  	92.954647 
3061.083223  	92.966739 
3062.047648  	92.982752 
3063.012072  	92.945506 
3063.976497  	92.881281 
3064.940921  	92.880601 
3065.905346  	92.932862 
3066.869770  	92.905355 
3067.834195  	92.901440 
3068.798619  	92.905866 
3069.763043  	92.899317 
3070.727468  	92.912662 
3071.691892  	92.935493 
3072.656317  	92.921512 
3073.620741  	92.919131 
3074.585166  	92.902518 
3075.549590  	92.935229 
3076.514015  	92.960179 
3077.478439  	92.910099 
3078.442864  	92.890467 
3079.407288  	92.862294 
3080.371712  	92.878102 
3081.336137  	92.918440 
3082.300561  	92.854927 
3083.264986  	92.915000 
3084.229410  	92.974557 
3085.193835  	92.966700 
3086.158259  	93.028632 
3087.122684  	92.974531 
3088.087108  	92.938624 
3089.051533  	93.011000 
3090.015957  	93.035401 
3090.980381  	93.027706 
3091.944806  	93.046645 
3092.909230  	93.056386 
3093.873655  	93.028754 
3094.838079  	93.013189 
3095.802504  	93.038074 
3096.766928  	93.058613 
3097.731353  	93.024970 
3098.695777  	93.006759 
3099.660202  	93.011001 
3100.624626  	93.003237 
3101.589050  	92.938706 
3102.553475  	92.915851 
3103.517899  	92.921397 
3104.482324  	92.959895 
3105.446748  	92.976972 
3106.411173  	92.970707 
3107.375597  	92.975713 
3108.340022  	92.982743 
3109.304446  	93.011001 
3110.268871  	92.987118 
3111.233295  	93.002871 
3112.197720  	93.015319 
3113.162144  	92.997612 
3114.126568  	93.022306 
3115.090993  	93.035482 
3116.055417  	93.050124 
3117.019842  	93.086023 
3117.984266  	93.076503 
3118.948691  	93.027007 
3119.913115  	93.074290 
3120.877540  	93.101887 
3121.841964  	93.063236 
3122.806389  	93.052715 
3123.770813  	93.084167 
3124.735237  	93.110539 
3125.699662  	93.111122 
3126.664086  	93.078487 
3127.628511  	93.111210 
3128.592935  	93.097993 
3129.557360  	93.032265 
3130.521784  	93.047437 
3131.486209  	93.049274 
3132.450633  	93.022063 
3133.415058  	92.985301 
3134.379482  	93.079700 
3135.343906  	93.136622 
3136.308331  	93.154334 
3137.272755  	93.139528 
3138.237180  	93.130355 
3139.201604  	93.167063 
3140.166029  	93.170186 
3141.130453  	93.195981 
3142.094878  	93.135061 
3143.059302  	93.048333 
3144.023727  	93.089137 
3144.988151  	93.134081 
3145.952575  	93.107738 
3146.917000  	93.055093 
3147.881424  	93.123664 
3148.845849  	93.201404 
3149.810273  	93.164852 
3150.774698  	93.126983 
3151.739122  	93.123301 
3152.703547  	93.112219 
3153.667971  	93.118315 
3154.632396  	93.144513 
3155.596820  	93.122825 
3156.561244  	93.059773 
3157.525669  	93.066280 
3158.490093  	93.093838 
3159.454518  	93.132663 
3160.418942  	93.127628 
3161.383367  	93.113045 
3162.347791  	93.081340 
3163.312216  	93.049310 
3164.276640  	93.095115 
3165.241065  	93.151107 
3166.205489  	93.161324 
3167.169914  	93.141431 
3168.134338  	93.100168 
3169.098762  	93.101918 
3170.063187  	93.037941 
3171.027611  	92.995449 
3171.992036  	93.077761 
3172.956460  	93.102790 
3173.920885  	93.098258 
3174.885309  	93.103709 
3175.849734  	93.067614 
3176.814158  	93.055684 
3177.778583  	93.019914 
3178.743007  	93.000776 
3179.707431  	93.023956 
3180.671856  	93.062149 
3181.636280  	93.125063 
3182.600705  	93.093813 
3183.565129  	92.997247 
3184.529554  	92.978242 
3185.493978  	93.000610 
3186.458403  	93.010418 
3187.422827  	92.982333 
3188.387252  	93.004760 
3189.351676  	93.091991 
3190.316100  	93.108656 
3191.280525  	93.064809 
3192.244949  	93.035410 
3193.209374  	93.041092 
3194.173798  	93.048401 
3195.138223  	93.085515 
3196.102647  	93.050394 
3197.067072  	93.004649 
3198.031496  	92.935101 
3198.995921  	92.991744 
3199.960345  	93.078765 
3200.924769  	93.081615 
3201.889194  	93.107687 
3202.853618  	93.122006 
3203.818043  	93.069949 
3204.782467  	93.000426 
3205.746892  	92.989137 
3206.711316  	92.957198 
3207.675741  	92.922550 
3208.640165  	92.906095 
3209.604590  	92.869684 
3210.569014  	92.881512 
3211.533438  	92.991103 
3212.497863  	93.046494 
3213.462287  	93.003819 
3214.426712  	92.949288 
3215.391136  	92.951910 
3216.355561  	92.939282 
3217.319985  	92.926428 
3218.284410  	92.915842 
3219.248834  	92.894171 
3220.213259  	92.906616 
3221.177683  	92.920938 
3222.142107  	92.922341 
3223.106532  	92.966186 
3224.070956  	93.019049 
3225.035381  	92.990341 
3225.999805  	92.927269 
3226.964230  	92.940714 
3227.928654  	92.944667 
3228.893079  	92.970512 
3229.857503  	92.999778 
3230.821928  	92.975495 
3231.786352  	92.954576 
3232.750777  	92.953605 
3233.715201  	92.926930 
3234.679625  	92.923778 
3235.644050  	92.953502 
3236.608474  	92.985846 
3237.572899  	92.994294 
3238.537323  	92.998682 
3239.501748  	92.951220 
3240.466172  	92.896559 
3241.430597  	92.975263 
3242.395021  	93.008774 
3243.359446  	92.943217 
3244.323870  	92.878699 
3245.288294  	92.851238 
3246.252719  	92.903383 
3247.217143  	92.928655 
3248.181568  	92.946371 
3249.145992  	92.972312 
3250.110417  	93.003469 
3251.074841  	92.952224 
3252.039266  	92.913586 
3253.003690  	92.953493 
3253.968115  	92.872859 
3254.932539  	92.853077 
3255.896963  	92.881728 
3256.861388  	92.837135 
3257.825812  	92.903403 
3258.790237  	92.921347 
3259.754661  	92.906053 
3260.719086  	92.890074 
3261.683510  	92.910244 
3262.647935  	92.935735 
3263.612359  	92.952519 
3264.576784  	92.933782 
3265.541208  	92.931489 
3266.505632  	92.964859 
3267.470057  	92.950650 
3268.434481  	92.929589 
3269.398906  	92.889787 
3270.363330  	92.887021 
3271.327755  	92.960327 
3272.292179  	92.928846 
3273.256604  	92.864330 
3274.221028  	92.874334 
3275.185453  	92.933132 
3276.149877  	92.916896 
3277.114301  	92.862576 
3278.078726  	92.852367 
3279.043150  	92.819182 
3280.007575  	92.785699 
3280.971999  	92.819915 
3281.936424  	92.837951 
3282.900848  	92.819545 
3283.865273  	92.827182 
3284.829697  	92.894241 
3285.794122  	92.892156 
3286.758546  	92.879413 
3287.722971  	92.815629 
3288.687395  	92.797574 
3289.651819  	92.899436 
3290.616244  	92.915865 
3291.580668  	92.861514 
3292.545093  	92.851429 
3293.509517  	92.844641 
3294.473942  	92.851768 
3295.438366  	92.888388 
3296.402791  	92.933940 
3297.367215  	92.880756 
3298.331640  	92.808743 
3299.296064  	92.844526 
3300.260488  	92.901845 
3301.224913  	92.926426 
3302.189337  	92.967669 
3303.153762  	92.951700 
3304.118186  	92.924889 
3305.082611  	92.935153 
3306.047035  	92.958538 
3307.011460  	92.970801 
3307.975884  	92.901320 
3308.940309  	92.829036 
3309.904733  	92.876056 
3310.869157  	92.888115 
3311.833582  	92.859147 
3312.798006  	92.885537 
3313.762431  	92.848369 
3314.726855  	92.861782 
3315.691280  	92.921693 
3316.655704  	92.923763 
3317.620129  	92.903569 
3318.584553  	92.923520 
3319.548978  	92.908238 
3320.513402  	92.928626 
3321.477826  	92.905367 
3322.442251  	92.864813 
3323.406675  	92.915656 
3324.371100  	92.899821 
3325.335524  	92.840659 
3326.299949  	92.909500 
3327.264373  	92.909897 
3328.228798  	92.865930 
3329.193222  	92.855975 
3330.157647  	92.854474 
3331.122071  	92.919343 
3332.086495  	92.976259 
3333.050920  	92.929212 
3334.015344  	92.847580 
3334.979769  	92.828342 
3335.944193  	92.875240 
3336.908618  	92.810019 
3337.873042  	92.809518 
3338.837467  	92.866196 
3339.801891  	92.881649 
3340.766316  	92.900857 
3341.730740  	92.886949 
3342.695164  	92.847973 
3343.659589  	92.922324 
3344.624013  	93.052442 
3345.588438  	93.055057 
3346.552862  	92.973060 
3347.517287  	92.934055 
3348.481711  	92.918912 
3349.446136  	92.936021 
3350.410560  	92.997627 
3351.374985  	93.057544 
3352.339409  	93.094070 
3353.303834  	93.055846 
3354.268258  	93.060333 
3355.232682  	92.978297 
3356.197107  	92.851078 
3357.161531  	92.898878 
3358.125956  	93.011105 
3359.090380  	93.054891 
3360.054805  	92.925544 
3361.019229  	92.837951 
3361.983654  	92.835078 
3362.948078  	92.935950 
3363.912503  	92.982481 
3364.876927  	92.886178 
3365.841351  	92.877453 
3366.805776  	92.891004 
3367.770200  	92.858677 
3368.734625  	92.864679 
3369.699049  	92.919903 
3370.663474  	92.959868 
3371.627898  	92.993549 
3372.592323  	92.983708 
3373.556747  	92.974102 
3374.521172  	92.970976 
3375.485596  	92.961086 
3376.450020  	92.909151 
3377.414445  	92.910848 
3378.378869  	92.983471 
3379.343294  	93.038191 
3380.307718  	93.019644 
3381.272143  	93.070417 
3382.236567  	93.063678 
3383.200992  	93.004483 
3384.165416  	92.910941 
3385.129841  	92.857174 
3386.094265  	92.915806 
3387.058689  	93.011543 
3388.023114  	93.077294 
3388.987538  	93.087222 
3389.951963  	92.979318 
3390.916387  	92.933174 
3391.880812  	92.936011 
3392.845236  	92.802764 
3393.809661  	92.842885 
3394.774085  	93.011470 
3395.738510  	92.976827 
3396.702934  	92.943152 
3397.667358  	92.921566 
3398.631783  	92.968134 
3399.596207  	93.019161 
3400.560632  	92.951898 
3401.525056  	92.913333 
3402.489481  	93.002141 
3403.453905  	92.984440 
3404.418330  	92.951583 
3405.382754  	92.959224 
3406.347179  	92.956306 
3407.311603  	92.893462 
3408.276028  	92.897529 
3409.240452  	92.883853 
3410.204876  	92.831954 
3411.169301  	92.830934 
3412.133725  	92.905099 
3413.098150  	92.979101 
3414.062574  	92.919613 
3415.026999  	92.880340 
3415.991423  	92.813661 
3416.955848  	92.801724 
3417.920272  	92.812202 
3418.884697  	92.809375 
3419.849121  	92.622804 
3420.813545  	92.374307 
3421.777970  	92.387814 
3422.742394  	92.476101 
3423.706819  	92.591467 
3424.671243  	92.689770 
3425.635668  	92.722516 
3426.600092  	92.716217 
3427.564517  	92.689140 
3428.528941  	92.664789 
3429.493366  	92.689315 
3430.457790  	92.671665 
3431.422214  	92.678166 
3432.386639  	92.675053 
3433.351063  	92.700871 
3434.315488  	92.806271 
3435.279912  	92.805422 
3436.244337  	92.772679 
3437.208761  	92.766606 
3438.173186  	92.790498 
3439.137610  	92.817949 
3440.102035  	92.813626 
3441.066459  	92.821766 
3442.030883  	92.764643 
3442.995308  	92.646331 
3443.959732  	92.753835 
3444.924157  	92.864795 
3445.888581  	92.891858 
3446.853006  	92.515089 
3447.817430  	92.197960 
3448.781855  	92.640828 
3449.746279  	92.924926 
3450.710704  	92.925521 
3451.675128  	92.920914 
3452.639552  	93.004828 
3453.603977  	93.005911 
3454.568401  	92.977285 
3455.532826  	92.992398 
3456.497250  	92.999464 
3457.461675  	92.975946 
3458.426099  	92.969246 
3459.390524  	92.971049 
3460.354948  	93.005065 
3461.319373  	92.954720 
3462.283797  	92.902773 
3463.248221  	92.844985 
3464.212646  	92.961677 
3465.177070  	93.061265 
3466.141495  	93.014408 
3467.105919  	92.795422 
3468.070344  	92.912871 
3469.034768  	93.096949 
3469.999193  	93.102506 
3470.963617  	93.076225 
3471.928042  	93.045497 
3472.892466  	93.029898 
3473.856891  	93.040556 
3474.821315  	93.002423 
3475.785739  	93.062690 
3476.750164  	93.085006 
3477.714588  	93.053720 
3478.679013  	93.082105 
3479.643437  	93.073477 
3480.607862  	92.826531 
3481.572286  	92.709853 
3482.536711  	92.604830 
3483.501135  	92.809116 
3484.465560  	93.036344 
3485.429984  	92.975909 
3486.394408  	92.989645 
3487.358833  	93.031897 
3488.323257  	92.784336 
3489.287682  	92.786180 
3490.252106  	92.984734 
3491.216531  	92.976884 
3492.180955  	93.065579 
3493.145380  	93.150038 
3494.109804  	93.195586 
3495.074229  	93.073485 
3496.038653  	92.890848 
3497.003077  	92.784532 
3497.967502  	92.948305 
3498.931926  	93.089180 
3499.896351  	93.016557 
3500.860775  	92.945950 
3501.825200  	92.699556 
3502.789624  	92.318476 
3503.754049  	92.189700 
3504.718473  	92.477261 
3505.682898  	92.767565 
3506.647322  	93.013145 
3507.611746  	93.124577 
3508.576171  	92.884622 
3509.540595  	92.382589 
3510.505020  	92.469171 
3511.469444  	92.842901 
3512.433869  	92.919541 
3513.398293  	92.931924 
3514.362718  	93.089031 
3515.327142  	93.215420 
3516.291567  	93.154604 
3517.255991  	93.026476 
3518.220415  	92.980006 
3519.184840  	93.001637 
3520.149264  	93.044003 
3521.113689  	93.104721 
3522.078113  	92.974463 
3523.042538  	92.400316 
3524.006962  	92.121461 
3524.971387  	92.399967 
3525.935811  	92.516202 
3526.900236  	92.439832 
3527.864660  	92.314113 
3528.829085  	92.374516 
3529.793509  	92.534220 
3530.757933  	92.758871 
3531.722358  	92.770606 
3532.686782  	92.968811 
3533.651207  	93.115237 
3534.615631  	93.117818 
3535.580056  	92.931239 
3536.544480  	92.463918 
3537.508905  	92.606007 
3538.473329  	93.039131 
3539.437754  	93.017139 
3540.402178  	92.976297 
3541.366602  	93.010822 
3542.331027  	93.062663 
3543.295451  	92.828626 
3544.259876  	92.492284 
3545.224300  	91.874097 
3546.188725  	91.725404 
3547.153149  	91.821244 
3548.117574  	92.132316 
3549.081998  	92.747258 
3550.046423  	92.974302 
3551.010847  	92.921055 
3551.975271  	92.493194 
3552.939696  	92.313644 
3553.904120  	92.612774 
3554.868545  	92.931526 
3555.832969  	93.151773 
3556.797394  	93.098844 
3557.761818  	93.146358 
3558.726243  	93.207037 
3559.690667  	92.867845 
3560.655092  	92.494830 
3561.619516  	92.785553 
3562.583940  	92.823546 
3563.548365  	92.739965 
3564.512789  	92.688450 
3565.477214  	92.131738 
3566.441638  	90.509578 
3567.406063  	90.301287 
3568.370487  	90.583184 
3569.334912  	91.738852 
3570.299336  	92.682459 
3571.263761  	92.799169 
3572.228185  	93.027867 
3573.192609  	93.073576 
3574.157034  	93.029728 
3575.121458  	93.020423 
3576.085883  	93.095254 
3577.050307  	92.971923 
3578.014732  	92.941596 
3578.979156  	93.107363 
3579.943581  	92.860234 
3580.908005  	92.784827 
3581.872430  	93.107896 
3582.836854  	93.182468 
3583.801278  	93.043653 
3584.765703  	92.986673 
3585.730127  	92.739743 
3586.694552  	91.528484 
3587.658976  	90.736046 
3588.623401  	91.021068 
3589.587825  	91.824163 
3590.552250  	92.884375 
3591.516674  	93.212424 
3592.481099  	93.120475 
3593.445523  	92.556434 
3594.409948  	92.576429 
3595.374372  	92.302733 
3596.338796  	92.120541 
3597.303221  	92.772818 
3598.267645  	92.864038 
3599.232070  	92.569602 
3600.196494  	92.647467 
3601.160919  	92.471203 
3602.125343  	92.666868 
3603.089768  	92.906124 
3604.054192  	93.176718 
3605.018617  	93.327941 
3605.983041  	93.159940 
3606.947465  	92.310437 
3607.911890  	91.882267 
3608.876314  	92.237646 
3609.840739  	92.030494 
3610.805163  	92.647067 
3611.769588  	92.723339 
3612.734012  	91.797753 
3613.698437  	91.782376 
3614.662861  	91.994541 
3615.627286  	92.026877 
3616.591710  	92.769555 
3617.556134  	92.429302 
3618.520559  	91.611984 
3619.484983  	91.528838 
3620.449408  	91.608899 
3621.413832  	92.301844 
3622.378257  	92.908437 
3623.342681  	93.209903 
3624.307106  	93.337324 
3625.271530  	93.299285 
3626.235955  	92.874608 
3627.200379  	92.599390 
3628.164803  	91.967507 
3629.129228  	89.869163 
3630.093652  	90.240691 
3631.058077  	92.139175 
3632.022501  	92.936882 
3632.986926  	93.021012 
3633.951350  	92.459749 
3634.915775  	92.641321 
3635.880199  	93.224907 
3636.844624  	93.413316 
3637.809048  	93.296743 
3638.773472  	93.152861 
3639.737897  	93.337492 
3640.702321  	93.462730 
3641.666746  	93.267191 
3642.631170  	92.918159 
3643.595595  	93.049218 
3644.560019  	93.338897 
3645.524444  	93.166159 
3646.488868  	92.364832 
3647.453293  	90.861672 
3648.417717  	90.857255 
3649.382142  	90.788995 
3650.346566  	90.135015 
3651.310990  	90.335467 
3652.275415  	91.897083 
3653.239839  	93.035245 
3654.204264  	93.350652 
3655.168688  	93.255457 
3656.133113  	92.545989 
3657.097537  	92.239217 
3658.061962  	93.206219 
3659.026386  	93.531575 
3659.990811  	93.410933 
3660.955235  	93.454598 
3661.919659  	93.674732 
3662.884084  	93.747390 
3663.848508  	93.745606 
3664.812933  	93.705759 
3665.777357  	93.721948 
3666.741782  	93.733722 
3667.706206  	93.646411 
3668.670631  	92.971168 
3669.635055  	92.019408 
3670.599480  	91.588816 
3671.563904  	91.797423 
3672.528328  	92.981761 
3673.492753  	93.335414 
3674.457177  	92.469474 
3675.421602  	90.176382 
3676.386026  	90.331421 
3677.350451  	92.013659 
3678.314875  	92.756694 
3679.279300  	92.801455 
3680.243724  	92.785099 
3681.208149  	93.438551 
3682.172573  	93.783701 
3683.136997  	93.836798 
3684.101422  	93.766235 
3685.065846  	93.599826 
3686.030271  	93.675676 
3686.994695  	93.623092 
3687.959120  	93.056828 
3688.923544  	91.965618 
3689.887969  	92.380196 
3690.852393  	92.161135 
3691.816818  	91.884858 
3692.781242  	93.106979 
3693.745666  	93.601863 
3694.710091  	93.696829 
3695.674515  	93.778999 
3696.638940  	93.709808 
3697.603364  	93.817589 
3698.567789  	93.957223 
3699.532213  	93.852006 
3700.496638  	93.813516 
3701.461062  	93.313079 
3702.425487  	92.785365 
3703.389911  	93.479971 
3704.354335  	93.891709 
3705.318760  	93.867654 
3706.283184  	93.826140 
3707.247609  	93.877445 
3708.212033  	93.857150 
3709.176458  	93.353267 
3710.140882  	92.643341 
3711.105307  	92.431408 
3712.069731  	91.722173 
3713.034156  	91.681749 
3713.998580  	92.885430 
3714.963005  	93.129613 
3715.927429  	93.332744 
3716.891853  	93.749271 
3717.856278  	93.865859 
3718.820702  	93.398669 
3719.785127  	93.097754 
3720.749551  	93.625276 
3721.713976  	93.452587 
3722.678400  	92.348480 
3723.642825  	92.716124 
3724.607249  	93.078739 
3725.571674  	92.550399 
3726.536098  	92.318361 
3727.500522  	92.577361 
3728.464947  	93.405833 
3729.429371  	93.841455 
3730.393796  	93.773712 
3731.358220  	93.470196 
3732.322645  	92.706909 
3733.287069  	92.659739 
3734.251494  	92.419966 
3735.215918  	90.095899 
3736.180343  	90.139162 
3737.144767  	91.441792 
3738.109191  	92.216039 
3739.073616  	92.602900 
3740.038040  	93.089609 
3741.002465  	92.879235 
3741.966889  	92.844163 
3742.931314  	93.277653 
3743.895738  	92.685111 
3744.860163  	89.953139 
3745.824587  	91.248413 
3746.789012  	92.475220 
3747.753436  	92.678626 
3748.717860  	92.550994 
3749.682285  	91.887700 
3750.646709  	91.540053 
3751.611134  	91.663272 
3752.575558  	90.941313 
3753.539983  	91.947543 
3754.504407  	92.865575 
3755.468832  	93.386031 
3756.433256  	93.204181 
3757.397681  	93.091865 
3758.362105  	93.296500 
3759.326529  	92.631295 
3760.290954  	92.102345 
3761.255378  	93.225046 
3762.219803  	93.717714 
3763.184227  	93.764117 
3764.148652  	93.765251 
3765.113076  	93.528180 
3766.077501  	92.813170 
3767.041925  	93.195538 
3768.006350  	93.680808 
3768.970774  	93.485828 
3769.935199  	92.629078 
3770.899623  	92.628117 
3771.864047  	93.430269 
3772.828472  	93.821440 
3773.792896  	93.937905 
3774.757321  	93.995092 
3775.721745  	94.061427 
3776.686170  	94.127730 
3777.650594  	94.004204 
3778.615019  	93.654789 
3779.579443  	93.007479 
3780.543868  	93.043653 
3781.508292  	93.737368 
3782.472716  	93.828880 
3783.437141  	93.844057 
3784.401565  	93.599887 
3785.365990  	93.218290 
3786.330414  	93.474496 
3787.294839  	93.788510 
3788.259263  	93.939922 
3789.223688  	93.951690 
3790.188112  	93.957778 
3791.152537  	94.066358 
3792.116961  	94.079122 
3793.081385  	94.073052 
3794.045810  	94.032031 
3795.010234  	93.892723 
3795.974659  	93.523982 
3796.939083  	92.870003 
3797.903508  	93.008875 
3798.867932  	93.451216 
3799.832357  	93.549105 
3800.796781  	92.862055 
3801.761206  	91.545029 
3802.725630  	91.846795 
3803.690054  	92.862329 
3804.654479  	93.636682 
3805.618903  	93.742284 
3806.583328  	93.222106 
3807.547752  	92.514207 
3808.512177  	93.311208 
3809.476601  	93.829945 
3810.441026  	93.911809 
3811.405450  	93.984747 
3812.369875  	93.988986 
3813.334299  	93.978972 
3814.298723  	93.878934 
3815.263148  	93.431208 
3816.227572  	92.330268 
3817.191997  	92.524101 
3818.156421  	93.356605 
3819.120846  	93.356549 
3820.085270  	92.797028 
3821.049695  	91.479374 
3822.014119  	91.247727 
3822.978544  	92.708789 
3823.942968  	93.322949 
3824.907392  	93.541365 
3825.871817  	93.479719 
3826.836241  	93.045069 
3827.800666  	93.081522 
3828.765090  	93.604434 
3829.729515  	93.871270 
3830.693939  	93.820039 
3831.658364  	93.208651 
3832.622788  	93.067165 
3833.587213  	93.644919 
3834.551637  	93.469233 
3835.516062  	92.871503 
3836.480486  	93.246601 
3837.444910  	93.023051 
3838.409335  	91.879652 
3839.373759  	92.221240 
3840.338184  	92.044915 
3841.302608  	92.052666 
3842.267033  	93.057749 
3843.231457  	93.245412 
3844.195882  	92.649347 
3845.160306  	93.257186 
3846.124731  	93.782800 
3847.089155  	93.899813 
3848.053579  	93.923609 
3849.018004  	93.750554 
3849.982428  	93.343745 
3850.946853  	93.281955 
3851.911277  	92.655809 
3852.875702  	91.299199 
3853.840126  	90.804101 
3854.804551  	90.949091 
3855.768975  	92.534571 
3856.733400  	92.875770 
3857.697824  	92.607918 
3858.662248  	93.369492 
3859.626673  	93.933196 
3860.591097  	93.962901 
3861.555522  	93.483059 
3862.519946  	92.884618 
3863.484371  	93.084043 
3864.448795  	92.589286 
3865.413220  	91.729231 
3866.377644  	92.779577 
3867.342069  	93.675423 
3868.306493  	93.674297 
3869.270917  	92.744605 
3870.235342  	91.071182 
3871.199766  	91.943377 
3872.164191  	93.079905 
3873.128615  	93.438579 
3874.093040  	92.459454 
3875.057464  	92.286110 
3876.021889  	93.599465 
3876.986313  	93.993496 
3877.950738  	93.988552 
3878.915162  	93.932757 
3879.879586  	93.199272 
3880.844011  	91.678555 
3881.808435  	92.593499 
3882.772860  	93.484593 
3883.737284  	93.213133 
3884.701709  	93.120474 
3885.666133  	92.550554 
3886.630558  	92.119680 
3887.594982  	93.422676 
3888.559407  	93.963405 
3889.523831  	93.927852 
3890.488256  	93.588471 
3891.452680  	92.651631 
3892.417104  	92.492103 
3893.381529  	93.339171 
3894.345953  	93.378026 
3895.310378  	93.543807 
3896.274802  	93.870731 
3897.239227  	93.942243 
3898.203651  	93.521816 
3899.168076  	92.724181 
3900.132500  	92.471509 
3901.096925  	93.028754 
3902.061349  	92.137699 
3903.025773  	91.988402 
3903.990198  	92.428576 
3904.954622  	92.066700 
3905.919047  	92.326401 
3906.883471  	93.047981 
3907.847896  	93.826607 
3908.812320  	94.066163 
3909.776745  	94.084300 
3910.741169  	94.095101 
3911.705594  	94.127729 
3912.670018  	94.133993 
3913.634442  	94.105063 
3914.598867  	94.115316 
3915.563291  	93.991171 
3916.527716  	93.299947 
3917.492140  	92.693397 
3918.456565  	93.324439 
3919.420989  	93.604227 
3920.385414  	93.107613 
3921.349838  	93.443614 
3922.314263  	93.963757 
3923.278687  	93.735379 
3924.243111  	93.104960 
3925.207536  	92.723775 
3926.171960  	93.262538 
3927.136385  	93.960261 
3928.100809  	94.066861 
3929.065234  	93.861834 
3930.029658  	93.555397 
3930.994083  	93.428223 
3931.958507  	93.152307 
3932.922932  	92.806504 
3933.887356  	93.343672 
3934.851780  	93.709853 
3935.816205  	93.958177 
3936.780629  	94.095032 
3937.745054  	94.040799 
3938.709478  	93.910684 
3939.673903  	94.021625 
3940.638327  	94.066287 
3941.602752  	93.934396 
3942.567176  	93.262277 
3943.531601  	92.902040 
3944.496025  	93.544234 
3945.460449  	93.893505 
3946.424874  	93.980916 
3947.389298  	93.553278 
3948.353723  	93.219376 
3949.318147  	93.435825 
3950.282572  	93.279482 
3951.246996  	93.560160 
3952.211421  	93.993250 
3953.175845  	93.915070 
3954.140270  	93.969944 
3955.104694  	94.068935 
3956.069119  	94.013954 
3957.033543  	93.871173 
3957.997967  	93.893159 
3958.962392  	93.983183 
3959.926816  	94.013565 
3960.891241  	93.960581 
3961.855665  	93.665991 
3962.820090  	93.645351 
3963.784514  	94.005454 
3964.748939  	94.043659 
3965.713363  	94.089735 
3966.677788  	94.140800 
3967.642212  	94.128668 
3968.606636  	94.006477 
3969.571061  	93.885335 
3970.535485  	93.987754 
3971.499910  	94.052136 
3972.464334  	93.882444 
3973.428759  	93.950412 
3974.393183  	94.038274 
3975.357608  	93.974440 
3976.322032  	93.867345 
3977.286457  	93.967911 
3978.250881  	94.128139 
3979.215305  	94.149227 
3980.179730  	94.132426 
3981.144154  	94.094719 
3982.108579  	94.053738 
3983.073003  	94.049765 
3984.037428  	94.133962 
3985.001852  	94.167252 
3985.966277  	94.134030 
3986.930701  	94.142653 
3987.895126  	94.150630 
3988.859550  	94.155803 
3989.823974  	94.068272 
3990.788399  	93.907541 
3991.752823  	93.979444 
3992.717248  	94.124226 
3993.681672  	94.110147 
3994.646097  	94.045589 
3995.610521  	93.981087 
3996.574946  	94.093728 
3997.539370  	94.157591 
3998.503795  	94.149431 
3999.468219  	94.175785 
4000.432643  	94.254073 
4001.397068  	94.263332 
4002.361492  	94.216489 
4003.325917  	94.155176 
4004.290341  	94.172150 
4005.254766  	94.211476 
4006.219190  	94.197231 
4007.183615  	94.147042 
4008.148039  	94.070119 
4009.112464  	93.943844 
4010.076888  	94.044590 
4011.041313  	94.127962 
4012.005737  	94.160731 
4012.970161  	94.147903 
4013.934586  	94.145272 
4014.899010  	94.137689 
4015.863435  	94.101652 
4016.827859  	94.151405 
4017.792284  	94.205514 
4018.756708  	94.173200 
4019.721133  	94.086115 
4020.685557  	94.087203 
4021.649982  	94.148793 
4022.614406  	94.181628 
4023.578830  	94.162748 
4024.543255  	94.132600 
4025.507679  	94.065407 
4026.472104  	94.061061 
4027.436528  	94.165686 
4028.400953  	94.194059 
4029.365377  	94.158995 
4030.329802  	94.111710 
4031.294226  	94.104721 
4032.258651  	94.130978 
4033.223075  	94.205997 
4034.187499  	94.217101 
4035.151924  	94.169297 
4036.116348  	94.178242 
4037.080773  	94.227760 
4038.045197  	94.242953 
4039.009622  	94.249675 
4039.974046  	94.217079 
4040.938471  	94.200551 
4041.902895  	94.181105 
4042.867320  	94.168783 
4043.831744  	94.075428 
4044.796168  	94.011580 
4045.760593  	94.040045 
4046.725017  	94.140655 
4047.689442  	94.189437 
4048.653866  	94.178108 
4049.618291  	94.174337 
4050.582715  	94.210778 
4051.547140  	94.180744 
4052.511564  	94.136195 
4053.475989  	94.154122 
4054.440413  	94.184354 
4055.404837  	94.153576 
4056.369262  	94.192227 
4057.333686  	94.259769 
4058.298111  	94.245502 
4059.262535  	94.218253 
4060.226960  	94.218256 
4061.191384  	94.176481 
4062.155809  	94.169726 
4063.120233  	94.201358 
4064.084658  	94.242317 
4065.049082  	94.253667 
4066.013506  	94.264602 
4066.977931  	94.208880 
4067.942355  	94.153293 
4068.906780  	94.177975 
4069.871204  	94.215648 
4070.835629  	94.207876 
4071.800053  	94.201474 
4072.764478  	94.129606 
4073.728902  	94.122407 
4074.693327  	94.145938 
4075.657751  	94.151354 
4076.622176  	94.152258 
4077.586600  	94.175429 
4078.551024  	94.218365 
4079.515449  	94.191863 
4080.479873  	94.171244 
4081.444298  	94.178236 
4082.408722  	94.135741 
4083.373147  	94.078894 
4084.337571  	94.105049 
4085.301996  	94.146015 
4086.266420  	94.136352 
4087.230845  	94.160124 
4088.195269  	94.134825 
4089.159693  	94.118425 
4090.124118  	94.153004 
4091.088542  	94.138299 
4092.052967  	94.153084 
4093.017391  	94.205061 
4093.981816  	94.161661 
4094.946240  	94.149612 
4095.910665  	94.163630 
4096.875089  	94.196651 
4097.839514  	94.207734 
4098.803938  	94.152561 
4099.768362  	94.167478 
4100.732787  	94.201318 
4101.697211  	94.156867 
4102.661636  	94.121910 
4103.626060  	94.198376 
4104.590485  	94.230560 
4105.554909  	94.169561 
4106.519334  	94.140119 
4107.483758  	94.137668 
4108.448183  	94.195292 
4109.412607  	94.233482 
4110.377031  	94.190363 
4111.341456  	94.170625 
4112.305880  	94.193654 
4113.270305  	94.196909 
4114.234729  	94.223534 
4115.199154  	94.244861 
4116.163578  	94.212513 
4117.128003  	94.178431 
4118.092427  	94.211307 
4119.056852  	94.209302 
4120.021276  	94.200629 
4120.985700  	94.208457 
4121.950125  	94.242398 
4122.914549  	94.215193 
4123.878974  	94.191463 
4124.843398  	94.207958 
4125.807823  	94.270430 
4126.772247  	94.260728 
4127.736672  	94.250093 
4128.701096  	94.218029 
4129.665521  	94.224970 
4130.629945  	94.223864 
4131.594370  	94.219541 
4132.558794  	94.235444 
4133.523218  	94.200142 
4134.487643  	94.200678 
4135.452067  	94.239983 
4136.416492  	94.269600 
4137.380916  	94.309097 
4138.345341  	94.279961 
4139.309765  	94.219103 
4140.274190  	94.236854 
4141.238614  	94.237835 
4142.203039  	94.226317 
4143.167463  	94.294474 
4144.131887  	94.259989 
4145.096312  	94.220903 
4146.060736  	94.242440 
4147.025161  	94.224166 
4147.989585  	94.196762 
4148.954010  	94.166247 
4149.918434  	94.162490 
4150.882859  	94.195090 
4151.847283  	94.272167 
4152.811708  	94.283717 
4153.776132  	94.293158 
4154.740556  	94.282753 
4155.704981  	94.239964 
4156.669405  	94.227461 
4157.633830  	94.233329 
4158.598254  	94.263902 
4159.562679  	94.289170 
4160.527103  	94.220451 
4161.491528  	94.213751 
4162.455952  	94.268904 
4163.420377  	94.312033 
4164.384801  	94.331593 
4165.349225  	94.327005 
4166.313650  	94.307265 
4167.278074  	94.273512 
4168.242499  	94.259391 
4169.206923  	94.266735 
4170.171348  	94.297413 
4171.135772  	94.294586 
4172.100197  	94.249890 
4173.064621  	94.211430 
4174.029046  	94.229506 
4174.993470  	94.280350 
4175.957894  	94.294196 
4176.922319  	94.320223 
4177.886743  	94.320333 
4178.851168  	94.268217 
4179.815592  	94.218363 
4180.780017  	94.236115 
4181.744441  	94.284452 
4182.708866  	94.255464 
4183.673290  	94.275140 
4184.637715  	94.290506 
4185.602139  	94.290554 
4186.566563  	94.279258 
4187.530988  	94.266268 
4188.495412  	94.260512 
4189.459837  	94.294983 
4190.424261  	94.280824 
4191.388686  	94.260494 
4192.353110  	94.287889 
4193.317535  	94.284150 
4194.281959  	94.263158 
4195.246384  	94.314142 
4196.210808  	94.314668 
4197.175233  	94.244583 
4198.139657  	94.212727 
4199.104081  	94.235687 
4200.068506  	94.243646 
4201.032930  	94.268470 
4201.997355  	94.316015 
4202.961779  	94.368870 
4203.926204  	94.311491 
4204.890628  	94.253524 
4205.855053  	94.285210 
4206.819477  	94.258263 
4207.783902  	94.261707 
4208.748326  	94.314559 
4209.712750  	94.341702 
4210.677175  	94.334618 
4211.641599  	94.304723 
4212.606024  	94.273333 
4213.570448  	94.277615 
4214.534873  	94.308483 
4215.499297  	94.336279 
4216.463722  	94.364055 
4217.428146  	94.310879 
4218.392571  	94.299298 
4219.356995  	94.300365 
4220.321419  	94.301818 
4221.285844  	94.337000 
4222.250268  	94.346734 
4223.214693  	94.241751 
4224.179117  	94.213046 
4225.143542  	94.238538 
4226.107966  	94.292110 
4227.072391  	94.338258 
4228.036815  	94.254654 
4229.001240  	94.228068 
4229.965664  	94.226775 
4230.930088  	94.232963 
4231.894513  	94.314714 
4232.858937  	94.337834 
4233.823362  	94.345122 
4234.787786  	94.330641 
4235.752211  	94.306372 
4236.716635  	94.329259 
4237.681060  	94.368724 
4238.645484  	94.364479 
4239.609909  	94.295910 
4240.574333  	94.265515 
4241.538757  	94.326663 
4242.503182  	94.364232 
4243.467606  	94.352181 
4244.432031  	94.306634 
4245.396455  	94.255725 
4246.360880  	94.252143 
4247.325304  	94.284241 
4248.289729  	94.309895 
4249.254153  	94.352116 
4250.218578  	94.391214 
4251.183002  	94.355473 
4252.147427  	94.321032 
4253.111851  	94.322957 
4254.076275  	94.278121 
4255.040700  	94.269153 
4256.005124  	94.264008 
4256.969549  	94.360163 
4257.933973  	94.385968 
4258.898398  	94.318053 
4259.862822  	94.272598 
4260.827247  	94.239248 
4261.791671  	94.261235 
4262.756096  	94.319185 
4263.720520  	94.310682 
4264.684944  	94.263385 
4265.649369  	94.280644 
4266.613793  	94.350935 
4267.578218  	94.310187 
4268.542642  	94.305064 
4269.507067  	94.279700 
4270.471491  	94.285893 
4271.435916  	94.296955 
4272.400340  	94.250683 
4273.364765  	94.245908 
4274.329189  	94.311555 
4275.293613  	94.348483 
4276.258038  	94.357394 
4277.222462  	94.320338 
4278.186887  	94.210291 
4279.151311  	94.152826 
4280.115736  	94.197697 
4281.080160  	94.305969 
4282.044585  	94.327662 
4283.009009  	94.269703 
4283.973434  	94.268186 
4284.937858  	94.270807 
4285.902282  	94.252679 
4286.866707  	94.290538 
4287.831131  	94.355177 
4288.795556  	94.396722 
4289.759980  	94.324905 
4290.724405  	94.248202 
4291.688829  	94.274954 
4292.653254  	94.310239 
4293.617678  	94.342437 
4294.582103  	94.418266 
4295.546527  	94.427031 
4296.510951  	94.388219 
4297.475376  	94.378301 
4298.439800  	94.372645 
4299.404225  	94.311713 
4300.368649  	94.311032 
4301.333074  	94.297376 
4302.297498  	94.212545 
4303.261923  	94.243720 
4304.226347  	94.319349 
4305.190772  	94.448697 
4306.155196  	94.427389 
4307.119620  	94.333481 
4308.084045  	94.307702 
4309.048469  	94.376184 
4310.012894  	94.348468 
4310.977318  	94.315809 
4311.941743  	94.294355 
4312.906167  	94.298981 
4313.870592  	94.294502 
4314.835016  	94.365627 
4315.799441  	94.397085 
4316.763865  	94.382363 
4317.728290  	94.370029 
4318.692714  	94.388850 
4319.657138  	94.354722 
4320.621563  	94.329117 
4321.585987  	94.320655 
4322.550412  	94.324182 
4323.514836  	94.327903 
4324.479261  	94.347029 
4325.443685  	94.353074 
4326.408110  	94.381781 
4327.372534  	94.390993 
4328.336959  	94.353466 
4329.301383  	94.368384 
4330.265807  	94.374617 
4331.230232  	94.369737 
4332.194656  	94.371752 
4333.159081  	94.358284 
4334.123505  	94.365059 
4335.087930  	94.353173 
4336.052354  	94.329346 
4337.016779  	94.328485 
4337.981203  	94.381782 
4338.945628  	94.412028 
4339.910052  	94.407949 
4340.874476  	94.412341 
4341.838901  	94.414936 
4342.803325  	94.362584 
4343.767750  	94.307140 
4344.732174  	94.257820 
4345.696599  	94.248457 
4346.661023  	94.273533 
4347.625448  	94.323458 
4348.589872  	94.341830 
4349.554297  	94.327220 
4350.518721  	94.337949 
4351.483145  	94.371103 
4352.447570  	94.354706 
4353.411994  	94.380932 
4354.376419  	94.392261 
4355.340843  	94.387034 
4356.305268  	94.418375 
4357.269692  	94.430969 
4358.234117  	94.393283 
4359.198541  	94.357767 
4360.162966  	94.347809 
4361.127390  	94.333986 
4362.091814  	94.355728 
4363.056239  	94.349795 
4364.020663  	94.383187 
4364.985088  	94.355084 
4365.949512  	94.297768 
4366.913937  	94.284258 
4367.878361  	94.265184 
4368.842786  	94.301617 
4369.807210  	94.406047 
4370.771635  	94.483969 
4371.736059  	94.414115 
4372.700484  	94.364276 
4373.664908  	94.403836 
4374.629332  	94.389210 
4375.593757  	94.396481 
4376.558181  	94.422777 
4377.522606  	94.385716 
4378.487030  	94.314156 
4379.451455  	94.286727 
4380.415879  	94.282793 
4381.380304  	94.272897 
4382.344728  	94.328160 
4383.309153  	94.345251 
4384.273577  	94.336661 
4385.238001  	94.400952 
4386.202426  	94.404287 
4387.166850  	94.360117 
4388.131275  	94.359890 
4389.095699  	94.321171 
4390.060124  	94.319169 
4391.024548  	94.377080 
4391.988973  	94.426444 
4392.953397  	94.451804 
4393.917822  	94.467993 
4394.882246  	94.425524 
4395.846670  	94.379075 
4396.811095  	94.317201 
4397.775519  	94.326032 
4398.739944  	94.361654 
4399.704368  	94.415772 
4400.668793  	94.434229 
4401.633217  	94.343130 
4402.597642  	94.325178 
4403.562066  	94.422179 
4404.526491  	94.417944 
4405.490915  	94.395653 
4406.455339  	94.382259 
4407.419764  	94.396505 
4408.384188  	94.414590 
4409.348613  	94.381758 
4410.313037  	94.365724 
4411.277462  	94.345122 
4412.241886  	94.346385 
4413.206311  	94.355509 
4414.170735  	94.416009 
4415.135160  	94.443627 
4416.099584  	94.426979 
4417.064008  	94.376655 
4418.028433  	94.288728 
4418.992857  	94.290619 
4419.957282  	94.281302 
4420.921706  	94.279217 
4421.886131  	94.315852 
4422.850555  	94.345356 
4423.814980  	94.358942 
4424.779404  	94.380198 
4425.743829  	94.343363 
4426.708253  	94.306195 
4427.672677  	94.327988 
4428.637102  	94.339768 
4429.601526  	94.367940 
4430.565951  	94.327954 
4431.530375  	94.279866 
4432.494800  	94.240993 
4433.459224  	94.224421 
4434.423649  	94.262491 
4435.388073  	94.315347 
4436.352498  	94.385510 
4437.316922  	94.406432 
4438.281347  	94.404157 
4439.245771  	94.342669 
4440.210195  	94.355492 
4441.174620  	94.424848 
4442.139044  	94.416459 
4443.103469  	94.429339 
4444.067893  	94.419753 
4445.032318  	94.415769 
4445.996742  	94.356297 
4446.961167  	94.307769 
4447.925591  	94.316985 
4448.890016  	94.282353 
4449.854440  	94.268581 
4450.818864  	94.313025 
4451.783289  	94.377228 
4452.747713  	94.374204 
4453.712138  	94.390842 
4454.676562  	94.335753 
4455.640987  	94.289356 
4456.605411  	94.364332 
4457.569836  	94.417024 
4458.534260  	94.316242 
4459.498685  	94.278842 
4460.463109  	94.302611 
4461.427533  	94.336133 
4462.391958  	94.320987 
4463.356382  	94.346231 
4464.320807  	94.397336 
4465.285231  	94.368058 
4466.249656  	94.337370 
4467.214080  	94.311941 
4468.178505  	94.311347 
4469.142929  	94.391006 
4470.107354  	94.447360 
4471.071778  	94.422320 
4472.036202  	94.452145 
4473.000627  	94.478090 
4473.965051  	94.378073 
4474.929476  	94.380864 
4475.893900  	94.410506 
4476.858325  	94.434963 
4477.822749  	94.455148 
4478.787174  	94.451989 
4479.751598  	94.405752 
4480.716023  	94.380167 
4481.680447  	94.387715 
4482.644871  	94.391889 
4483.609296  	94.398853 
4484.573720  	94.414269 
4485.538145  	94.406439 
4486.502569  	94.395813 
4487.466994  	94.364222 
4488.431418  	94.379462 
4489.395843  	94.369823 
4490.360267  	94.383978 
4491.324692  	94.379275 
4492.289116  	94.348611 
4493.253541  	94.397999 
4494.217965  	94.468834 
4495.182389  	94.431357 
4496.146814  	94.371436 
4497.111238  	94.395030 
4498.075663  	94.433553 
4499.040087  	94.402379 
4500.004512  	94.391676 
4500.968936  	94.436235 
4501.933361  	94.407474 
4502.897785  	94.373664 
4503.862210  	94.465933 
4504.826634  	94.531846 
4505.791058  	94.495754 
4506.755483  	94.431107 
4507.719907  	94.389926 
4508.684332  	94.386959 
4509.648756  	94.377165 
4510.613181  	94.370918 
4511.577605  	94.450364 
4512.542030  	94.481013 
4513.506454  	94.448495 
4514.470879  	94.425761 
4515.435303  	94.368003 
4516.399727  	94.383563 
4517.364152  	94.369142 
4518.328576  	94.380867 
4519.293001  	94.462082 
4520.257425  	94.485969 
4521.221850  	94.418575 
4522.186274  	94.462587 
4523.150699  	94.517653 
4524.115123  	94.491088 
4525.079548  	94.464080 
4526.043972  	94.443398 
4527.008396  	94.447592 
4527.972821  	94.413087 
4528.937245  	94.449080 
4529.901670  	94.441914 
4530.866094  	94.428424 
4531.830519  	94.461239 
4532.794943  	94.453617 
4533.759368  	94.430117 
4534.723792  	94.428176 
4535.688217  	94.394574 
4536.652641  	94.410190 
4537.617065  	94.453750 
4538.581490  	94.494104 
4539.545914  	94.428772 
4540.510339  	94.371677 
4541.474763  	94.342014 
4542.439188  	94.403919 
4543.403612  	94.445383 
4544.368037  	94.414271 
4545.332461  	94.414392 
4546.296886  	94.446682 
4547.261310  	94.400249 
4548.225734  	94.364032 
4549.190159  	94.400510 
4550.154583  	94.464786 
4551.119008  	94.393370 
4552.083432  	94.331708 
4553.047857  	94.362282 
4554.012281  	94.482497 
4554.976706  	94.506490 
4555.941130  	94.414658 
4556.905555  	94.393800 
4557.869979  	94.464275 
4558.834404  	94.500879 
4559.798828  	94.391102 
4560.763252  	94.285314 
4561.727677  	94.276992 
4562.692101  	94.349575 
4563.656526  	94.453310 
4564.620950  	94.458043 
4565.585375  	94.345245 
4566.549799  	94.258822 
4567.514224  	94.305273 
4568.478648  	94.405599 
4569.443073  	94.421594 
4570.407497  	94.417049 
4571.371921  	94.473484 
4572.336346  	94.475656 
4573.300770  	94.497442 
4574.265195  	94.439927 
4575.229619  	94.385196 
4576.194044  	94.402501 
4577.158468  	94.409065 
4578.122893  	94.459159 
4579.087317  	94.516828 
4580.051742  	94.468057 
4581.016166  	94.461365 
4581.980590  	94.484990 
4582.945015  	94.453390 
4583.909439  	94.384217 
4584.873864  	94.362864 
4585.838288  	94.398725 
4586.802713  	94.484160 
4587.767137  	94.454376 
4588.731562  	94.408557 
4589.695986  	94.378730 
4590.660411  	94.391147 
4591.624835  	94.464694 
4592.589259  	94.524684 
4593.553684  	94.528633 
4594.518108  	94.464752 
4595.482533  	94.460754 
4596.446957  	94.486945 
4597.411382  	94.420418 
4598.375806  	94.406182 
4599.340231  	94.436594 
4600.304655  	94.451748 
4601.269080  	94.479146 
4602.233504  	94.481088 
4603.197928  	94.385876 
4604.162353  	94.334306 
4605.126777  	94.387635 
4606.091202  	94.493334 
4607.055626  	94.497816 
4608.020051  	94.458445 
4608.984475  	94.438478 
4609.948900  	94.459426 
4610.913324  	94.436818 
4611.877749  	94.393369 
4612.842173  	94.345494 
4613.806598  	94.413581 
4614.771022  	94.504741 
4615.735446  	94.529107 
4616.699871  	94.467637 
4617.664295  	94.440029 
4618.628720  	94.454424 
4619.593144  	94.476930 
4620.557569  	94.484829 
4621.521993  	94.401038 
4622.486418  	94.361536 
4623.450842  	94.478265 
4624.415267  	94.538060 
4625.379691  	94.595054 
4626.344115  	94.550042 
4627.308540  	94.510708 
4628.272964  	94.454762 
4629.237389  	94.438742 
4630.201813  	94.459155 
4631.166238  	94.458398 
4632.130662  	94.458217 
4633.095087  	94.372034 
4634.059511  	94.297788 
4635.023936  	94.369910 
4635.988360  	94.484285 
4636.952784  	94.504364 
4637.917209  	94.524455 
4638.881633  	94.453493 
4639.846058  	94.385826 
4640.810482  	94.413719 
4641.774907  	94.382512 
4642.739331  	94.323942 
4643.703756  	94.339092 
4644.668180  	94.420325 
4645.632605  	94.363393 
4646.597029  	94.425315 
4647.561453  	94.440175 
4648.525878  	94.384797 
4649.490302  	94.419859 
4650.454727  	94.492836 
4651.419151  	94.496913 
4652.383576  	94.451395 
4653.348000  	94.433896 
4654.312425  	94.410121 
4655.276849  	94.431443 
4656.241274  	94.455053 
4657.205698  	94.429104 
4658.170122  	94.366119 
4659.134547  	94.364248 
4660.098971  	94.397437 
4661.063396  	94.499612 
4662.027820  	94.568736 
4662.992245  	94.476198 
4663.956669  	94.474999 
4664.921094  	94.528392 
4665.885518  	94.514850 
4666.849943  	94.475319 
4667.814367  	94.424077 
4668.778791  	94.458203 
4669.743216  	94.473754 
4670.707640  	94.464658 
4671.672065  	94.468211 
4672.636489  	94.443947 
4673.600914  	94.452237 
4674.565338  	94.488265 
4675.529763  	94.489939 
4676.494187  	94.534115 
4677.458612  	94.542830 
4678.423036  	94.538536 
4679.387461  	94.557724 
4680.351885  	94.493725 
4681.316309  	94.369899 
4682.280734  	94.351824 
4683.245158  	94.364957 
4684.209583  	94.392658 
4685.174007  	94.516287 
4686.138432  	94.512178 
4687.102856  	94.437421 
4688.067281  	94.390700 
4689.031705  	94.328455 
4689.996130  	94.385953 
4690.960554  	94.513211 
4691.924978  	94.449298 
4692.889403  	94.363470 
4693.853827  	94.361709 
4694.818252  	94.411876 
4695.782676  	94.436858 
4696.747101  	94.432024 
4697.711525  	94.452264 
4698.675950  	94.430123 
4699.640374  	94.377151 