##TITLE=No Description
##DATA TYPE=INFRARED SPECTRUM
##XUNITS=1/CM
##YUNITS=%T
400.236149  	97.344310 
401.200574  	80.038027 
402.164998  	64.028552 
403.129423  	72.233064 
404.093847  	83.055006 
405.058272  	90.494767 
406.022696  	97.265228 
406.987120  	93.349946 
407.951545  	87.502023 
408.915969  	84.674633 
409.880394  	87.619459 
410.844818  	87.881250 
411.809243  	94.919998 
412.773667  	96.986094 
413.738092  	90.652446 
414.702516  	82.674421 
415.666941  	80.602821 
416.631365  	84.111327 
417.595789  	92.737989 
418.560214  	97.879035 
419.524638  	90.523753 
420.489063  	81.442870 
421.453487  	82.326271 
422.417912  	86.230292 
423.382336  	83.393336 
424.346761  	78.554740 
425.311185  	75.111231 
426.275610  	77.691341 
427.240034  	79.513426 
428.204458  	81.758026 
429.168883  	81.231976 
430.133307  	78.857972 
431.097732  	77.180168 
432.062156  	73.315162 
433.026581  	72.987637 
433.991005  	77.122525 
434.955430  	78.743671 
435.919854  	77.835483 
436.884279  	78.357951 
437.848703  	78.223298 
438.813127  	78.713239 
439.777552  	78.954655 
440.741976  	78.498954 
441.706401  	79.201893 
442.670825  	80.218710 
443.635250  	79.696737 
444.599674  	79.484849 
445.564099  	79.837499 
446.528523  	80.051229 
447.492948  	81.693212 
448.457372  	82.802788 
449.421796  	81.789976 
450.386221  	80.995006 
451.350645  	81.042334 
452.315070  	81.110464 
453.279494  	81.323158 
454.243919  	82.139145 
455.208343  	81.734283 
456.172768  	81.321539 
457.137192  	81.049994 
458.101617  	80.188342 
459.066041  	80.601024 
460.030466  	80.908163 
460.994890  	81.085693 
461.959314  	80.879610 
462.923739  	81.119420 
463.888163  	81.283601 
464.852588  	81.282937 
465.817012  	81.284148 
466.781437  	81.062385 
467.745861  	79.676541 
468.710286  	79.558296 
469.674710  	79.534891 
470.639135  	79.422651 
471.603559  	79.299602 
472.567983  	79.654804 
473.532408  	80.079318 
474.496832  	80.141873 
475.461257  	80.522654 
476.425681  	80.403861 
477.390106  	80.280635 
478.354530  	80.465976 
479.318955  	79.653582 
480.283379  	79.176341 
481.247804  	79.295962 
482.212228  	79.219243 
483.176652  	79.939982 
484.141077  	79.485030 
485.105501  	79.122717 
486.069926  	79.022477 
487.034350  	79.778025 
487.998775  	80.050484 
488.963199  	79.951483 
489.927624  	80.215974 
490.892048  	79.554504 
491.856473  	78.519076 
492.820897  	79.168383 
493.785321  	79.488029 
494.749746  	78.613249 
495.714170  	77.989200 
496.678595  	77.531369 
497.643019  	77.388839 
498.607444  	77.394827 
499.571868  	77.085338 
500.536293  	76.788028 
501.500717  	75.730180 
502.465142  	75.343880 
503.429566  	76.209038 
504.393990  	76.319807 
505.358415  	76.201778 
506.322839  	76.009190 
507.287264  	76.289385 
508.251688  	77.700429 
509.216113  	79.070921 
510.180537  	79.498144 
511.144962  	79.535305 
512.109386  	80.103663 
513.073811  	80.408855 
514.038235  	80.372366 
515.002660  	80.233979 
515.967084  	79.928698 
516.931508  	79.166212 
517.895933  	79.334187 
518.860357  	79.416785 
519.824782  	78.994080 
520.789206  	79.625600 
521.753631  	80.336665 
522.718055  	80.626101 
523.682480  	80.605136 
524.646904  	80.342619 
525.611329  	79.760486 
526.575753  	79.906306 
527.540177  	80.545993 
528.504602  	80.669458 
529.469026  	80.415623 
530.433451  	80.675416 
531.397875  	81.073349 
532.362300  	80.896001 
533.326724  	81.018964 
534.291149  	81.186839 
535.255573  	81.021087 
536.219998  	81.092134 
537.184422  	81.757909 
538.148846  	81.618787 
539.113271  	81.442638 
540.077695  	81.194788 
541.042120  	81.694599 
542.006544  	81.947103 
542.970969  	81.775383 
543.935393  	81.663394 
544.899818  	81.534677 
545.864242  	81.702227 
546.828667  	81.841224 
547.793091  	81.653789 
548.757515  	81.495393 
549.721940  	81.621436 
550.686364  	81.794775 
551.650789  	81.959645 
552.615213  	81.508067 
553.579638  	81.714024 
554.544062  	81.960922 
555.508487  	81.875370 
556.472911  	81.677011 
557.437336  	81.411093 
558.401760  	81.392056 
559.366184  	81.553283 
560.330609  	81.655468 
561.295033  	81.622577 
562.259458  	81.563261 
563.223882  	81.374982 
564.188307  	81.277715 
565.152731  	81.583876 
566.117156  	81.576954 
567.081580  	81.187453 
568.046005  	81.271189 
569.010429  	81.224755 
569.974853  	81.090786 
570.939278  	81.243267 
571.903702  	81.436364 
572.868127  	81.284431 
573.832551  	81.266511 
574.796976  	81.380864 
575.761400  	80.944152 
576.725825  	81.074118 
577.690249  	81.417721 
578.654674  	81.492859 
579.619098  	81.213155 
580.583523  	80.767034 
581.547947  	81.082456 
582.512371  	81.435411 
583.476796  	81.378219 
584.441220  	81.103668 
585.405645  	81.240339 
586.370069  	81.647091 
587.334494  	81.621920 
588.298918  	81.433673 
589.263343  	81.260370 
590.227767  	81.208448 
591.192192  	80.817749 
592.156616  	80.495333 
593.121040  	80.897545 
594.085465  	81.227517 
595.049889  	81.171612 
596.014314  	81.179184 
596.978738  	81.273540 
597.943163  	81.334293 
598.907587  	81.117039 
599.872012  	80.759451 
600.836436  	80.805297 
601.800861  	80.979427 
602.765285  	80.921946 
603.729709  	80.925033 
604.694134  	81.191462 
605.658558  	81.220682 
606.622983  	81.119219 
607.587407  	80.911259 
608.551832  	80.692591 
609.516256  	80.769078 
610.480681  	80.814896 
611.445105  	80.770660 
612.409530  	80.794445 
613.373954  	80.842300 
614.338378  	80.644609 
615.302803  	80.423105 
616.267227  	80.325535 
617.231652  	80.629718 
618.196076  	80.699458 
619.160501  	80.512122 
620.124925  	80.306077 
621.089350  	80.170596 
622.053774  	80.079468 
623.018199  	80.333015 
623.982623  	80.311950 
624.947047  	80.124521 
625.911472  	80.036209 
626.875896  	80.164600 
627.840321  	80.061394 
628.804745  	79.949367 
629.769170  	79.692886 
630.733594  	79.178281 
631.698019  	78.978381 
632.662443  	79.211412 
633.626868  	79.484603 
634.591292  	79.881451 
635.555717  	79.675808 
636.520141  	79.775724 
637.484565  	80.034962 
638.448990  	80.089541 
639.413414  	79.912859 
640.377839  	79.919490 
641.342263  	79.981174 
642.306688  	79.815058 
643.271112  	79.708627 
644.235537  	79.612945 
645.199961  	79.514748 
646.164386  	79.610070 
647.128810  	79.677459 
648.093234  	79.517578 
649.057659  	79.354395 
650.022083  	79.363029 
650.986508  	79.423603 
651.950932  	79.284665 
652.915357  	79.142751 
653.879781  	79.056062 
654.844206  	79.068787 
655.808630  	79.007366 
656.773055  	78.874326 
657.737479  	78.980043 
658.701903  	78.826126 
659.666328  	78.647543 
660.630752  	78.560775 
661.595177  	78.600755 
662.559601  	78.611283 
663.524026  	78.388626 
664.488450  	78.168164 
665.452875  	78.068544 
666.417299  	78.083142 
667.381724  	78.235346 
668.346148  	77.533780 
669.310572  	77.184667 
670.274997  	77.349323 
671.239421  	77.457849 
672.203846  	77.312398 
673.168270  	77.172807 
674.132695  	76.921889 
675.097119  	76.649466 
676.061544  	76.470283 
677.025968  	76.429789 
677.990393  	76.204762 
678.954817  	76.008210 
679.919241  	75.889468 
680.883666  	75.838541 
681.848090  	75.766782 
682.812515  	75.668186 
683.776939  	75.626039 
684.741364  	75.582225 
685.705788  	75.354662 
686.670213  	75.227307 
687.634637  	74.889862 
688.599062  	74.543507 
689.563486  	74.362485 
690.527910  	74.172985 
691.492335  	73.869264 
692.456759  	73.486922 
693.421184  	72.965983 
694.385608  	72.553003 
695.350033  	71.995757 
696.314457  	71.358668 
697.278882  	70.634740 
698.243306  	69.905481 
699.207731  	69.143676 
700.172155  	68.443607 
701.136580  	67.674873 
702.101004  	66.979250 
703.065428  	66.364657 
704.029853  	65.804651 
704.994277  	65.099196 
705.958702  	64.410703 
706.923126  	63.705398 
707.887551  	62.836501 
708.851975  	61.991168 
709.816400  	61.048305 
710.780824  	59.990611 
711.745249  	58.953513 
712.709673  	57.792673 
713.674097  	56.374960 
714.638522  	54.947906 
715.602946  	53.609203 
716.567371  	52.042490 
717.531795  	50.412371 
718.496220  	48.991466 
719.460644  	47.749797 
720.425069  	46.628729 
721.389493  	45.812194 
722.353918  	45.316863 
723.318342  	45.309590 
724.282766  	45.999034 
725.247191  	47.581088 
726.211615  	49.832519 
727.176040  	52.407606 
728.140464  	54.961400 
729.104889  	57.567135 
730.069313  	60.117491 
731.033738  	62.732410 
731.998162  	65.357387 
732.962587  	67.998667 
733.927011  	70.657366 
734.891435  	73.372030 
735.855860  	75.959767 
736.820284  	78.377672 
737.784709  	80.597687 
738.749133  	82.448308 
739.713558  	83.913078 
740.677982  	85.139150 
741.642407  	86.049273 
742.606831  	86.701744 
743.571256  	87.146961 
744.535680  	87.356292 
745.500104  	87.539114 
746.464529  	87.666625 
747.428953  	87.646751 
748.393378  	87.627076 
749.357802  	87.512234 
750.322227  	87.369536 
751.286651  	87.214115 
752.251076  	87.182354 
753.215500  	87.130089 
754.179925  	86.998585 
755.144349  	86.858550 
756.108774  	86.862940 
757.073198  	86.780592 
758.037622  	86.562195 
759.002047  	86.364785 
759.966471  	86.282661 
760.930896  	86.160776 
761.895320  	86.064818 
762.859745  	86.006619 
763.824169  	85.933993 
764.788594  	85.790960 
765.753018  	85.577064 
766.717443  	85.377963 
767.681867  	85.275316 
768.646291  	85.063020 
769.610716  	84.924933 
770.575140  	84.817597 
771.539565  	84.701828 
772.503989  	84.426612 
773.468414  	84.217751 
774.432838  	84.103311 
775.397263  	84.052680 
776.361687  	84.041485 
777.326112  	83.835216 
778.290536  	83.628861 
779.254960  	83.577614 
780.219385  	83.413950 
781.183809  	83.307932 
782.148234  	82.769596 
783.112658  	82.615880 
784.077083  	82.474494 
785.041507  	82.292847 
786.005932  	82.211008 
786.970356  	81.883095 
787.934781  	81.420845 
788.899205  	81.149435 
789.863629  	80.885651 
790.828054  	80.627473 
791.792478  	80.337185 
792.756903  	80.202738 
793.721327  	80.462634 
794.685752  	80.889821 
795.650176  	81.411341 
796.614601  	81.904653 
797.579025  	82.336421 
798.543450  	82.481244 
799.507874  	82.511231 
800.472298  	82.548295 
801.436723  	82.488169 
802.401147  	82.383389 
803.365572  	82.345441 
804.329996  	82.287390 
805.294421  	82.266886 
806.258845  	82.219972 
807.223270  	82.222268 
808.187694  	82.230593 
809.152119  	82.166236 
810.116543  	82.122144 
811.080967  	82.078117 
812.045392  	82.016796 
813.009816  	82.008091 
813.974241  	82.023533 
814.938665  	82.072784 
815.903090  	82.089026 
816.867514  	81.964223 
817.831939  	81.882642 
818.796363  	81.892883 
819.760788  	81.911115 
820.725212  	81.880383 
821.689637  	81.736626 
822.654061  	81.541380 
823.618485  	81.360567 
824.582910  	81.238123 
825.547334  	81.088159 
826.511759  	80.920234 
827.476183  	80.850229 
828.440608  	80.810169 
829.405032  	80.562863 
830.369457  	80.304504 
831.333881  	80.204194 
832.298306  	80.087177 
833.262730  	79.821988 
834.227154  	79.510226 
835.191579  	79.239677 
836.156003  	78.997097 
837.120428  	78.685415 
838.084852  	78.333518 
839.049277  	78.099767 
840.013701  	77.846055 
840.978126  	77.464804 
841.942550  	77.169148 
842.906975  	76.800990 
843.871399  	76.369337 
844.835823  	76.066896 
845.800248  	75.951245 
846.764672  	75.946560 
847.729097  	76.073920 
848.693521  	76.298431 
849.657946  	76.694389 
850.622370  	77.147706 
851.586795  	77.452912 
852.551219  	77.599474 
853.515644  	77.808957 
854.480068  	78.022276 
855.444492  	78.089065 
856.408917  	78.206587 
857.373341  	78.355351 
858.337766  	78.435116 
859.302190  	78.529194 
860.266615  	78.544829 
861.231039  	78.423753 
862.195464  	78.212822 
863.159888  	77.961071 
864.124313  	77.664899 
865.088737  	77.199747 
866.053161  	76.600455 
867.017586  	75.761960 
867.982010  	74.631273 
868.946435  	73.223639 
869.910859  	71.440513 
870.875284  	69.606473 
871.839708  	68.701337 
872.804133  	69.402290 
873.768557  	71.325104 
874.732982  	73.303253 
875.697406  	74.804243 
876.661831  	75.938778 
877.626255  	76.940720 
878.590679  	77.865219 
879.555104  	78.650130 
880.519528  	79.267079 
881.483953  	79.775862 
882.448377  	80.250495 
883.412802  	80.747005 
884.377226  	81.183162 
885.341651  	81.460752 
886.306075  	81.534001 
887.270500  	81.602892 
888.234924  	81.761624 
889.199348  	81.773193 
890.163773  	81.644636 
891.128197  	81.593582 
892.092622  	81.588032 
893.057046  	81.440135 
894.021471  	81.248554 
894.985895  	81.240857 
895.950320  	81.176855 
896.914744  	81.087871 
897.879169  	81.062619 
898.843593  	81.096259 
899.808017  	81.119814 
900.772442  	81.127189 
901.736866  	81.164818 
902.701291  	81.324754 
903.665715  	81.506979 
904.630140  	81.603756 
905.594564  	81.665249 
906.558989  	81.761783 
907.523413  	81.903025 
908.487838  	81.968196 
909.452262  	81.995365 
910.416686  	82.125050 
911.381111  	82.230612 
912.345535  	82.209826 
913.309960  	82.131279 
914.274384  	82.148217 
915.238809  	82.176813 
916.203233  	82.109219 
917.167658  	82.070451 
918.132082  	82.037732 
919.096507  	82.036748 
920.060931  	81.989279 
921.025355  	81.899956 
921.989780  	81.834326 
922.954204  	81.716980 
923.918629  	81.557633 
924.883053  	81.483917 
925.847478  	81.429559 
926.811902  	81.314461 
927.776327  	81.215722 
928.740751  	81.144096 
929.705176  	81.076914 
930.669600  	81.008602 
931.634024  	80.912258 
932.598449  	80.838260 
933.562873  	80.755004 
934.527298  	80.644700 
935.491722  	80.465465 
936.456147  	80.333670 
937.420571  	80.278282 
938.384996  	80.166556 
939.349420  	80.012314 
940.313845  	79.908626 
941.278269  	79.812544 
942.242694  	79.665373 
943.207118  	79.520040 
944.171542  	79.421456 
945.135967  	79.303042 
946.100391  	79.132426 
947.064816  	78.940129 
948.029240  	78.804709 
948.993665  	78.658477 
949.958089  	78.443678 
950.922514  	78.258936 
951.886938  	78.143880 
952.851363  	77.968650 
953.815787  	77.743088 
954.780211  	77.557921 
955.744636  	77.389579 
956.709060  	77.149762 
957.673485  	76.873553 
958.637909  	76.597488 
959.602334  	76.297434 
960.566758  	76.018800 
961.531183  	75.761234 
962.495607  	75.460363 
963.460032  	75.178961 
964.424456  	74.921614 
965.388880  	74.620079 
966.353305  	74.361163 
967.317729  	74.162669 
968.282154  	73.986417 
969.246578  	73.886123 
970.211003  	73.851755 
971.175427  	73.905834 
972.139852  	74.023174 
973.104276  	74.232215 
974.068701  	74.531583 
975.033125  	74.831797 
975.997549  	75.084482 
976.961974  	75.326789 
977.926398  	75.562645 
978.890823  	75.728039 
979.855247  	75.857785 
980.819672  	75.942999 
981.784096  	75.970129 
982.748521  	75.994507 
983.712945  	75.979228 
984.677370  	75.876185 
985.641794  	75.802964 
986.606218  	75.762578 
987.570643  	75.705742 
988.535067  	75.648986 
989.499492  	75.596051 
990.463916  	75.506875 
991.428341  	75.418383 
992.392765  	75.290210 
993.357190  	75.106332 
994.321614  	74.931867 
995.286039  	74.765432 
996.250463  	74.551137 
997.214888  	74.307542 
998.179312  	74.075254 
999.143736  	73.811684 
1000.108161  	73.503014 
1001.072585  	73.227037 
1002.037010  	72.957350 
1003.001434  	72.610295 
1003.965859  	72.240754 
1004.930283  	71.876309 
1005.894708  	71.401630 
1006.859132  	70.813030 
1007.823557  	70.136738 
1008.787981  	69.406088 
1009.752405  	68.598471 
1010.716830  	67.614824 
1011.681254  	66.433989 
1012.645679  	65.155777 
1013.610103  	63.763743 
1014.574528  	62.324373 
1015.538952  	61.162225 
1016.503377  	60.643371 
1017.467801  	60.862569 
1018.432226  	61.679700 
1019.396650  	62.949938 
1020.361074  	64.462775 
1021.325499  	65.975464 
1022.289923  	67.395274 
1023.254348  	68.839323 
1024.218772  	70.451924 
1025.183197  	72.159910 
1026.147621  	73.662023 
1027.112046  	74.724414 
1028.076470  	75.244986 
1029.040895  	75.342285 
1030.005319  	75.175941 
1030.969743  	74.882691 
1031.934168  	74.618199 
1032.898592  	74.333815 
1033.863017  	73.993932 
1034.827441  	73.679666 
1035.791866  	73.412130 
1036.756290  	73.176455 
1037.720715  	72.961641 
1038.685139  	72.761084 
1039.649564  	72.598916 
1040.613988  	72.430134 
1041.578412  	72.217158 
1042.542837  	72.057694 
1043.507261  	71.963425 
1044.471686  	71.857063 
1045.436110  	71.748842 
1046.400535  	71.687279 
1047.364959  	71.646100 
1048.329384  	71.582902 
1049.293808  	71.521055 
1050.258233  	71.485412 
1051.222657  	71.456466 
1052.187081  	71.363595 
1053.151506  	71.220133 
1054.115930  	71.130642 
1055.080355  	71.006711 
1056.044779  	70.779953 
1057.009204  	70.589343 
1057.973628  	70.387123 
1058.938053  	70.131436 
1059.902477  	69.843581 
1060.866902  	69.554711 
1061.831326  	69.298197 
1062.795751  	68.992109 
1063.760175  	68.638269 
1064.724599  	68.288424 
1065.689024  	67.928393 
1066.653448  	67.496384 
1067.617873  	67.034652 
1068.582297  	66.549325 
1069.546722  	66.050031 
1070.511146  	65.495453 
1071.475571  	64.919018 
1072.439995  	64.305307 
1073.404420  	63.685934 
1074.368844  	62.996879 
1075.333268  	62.211124 
1076.297693  	61.438938 
1077.262117  	60.675795 
1078.226542  	59.896787 
1079.190966  	59.198297 
1080.155391  	58.568065 
1081.119815  	57.953191 
1082.084240  	57.400739 
1083.048664  	56.919605 
1084.013089  	56.533142 
1084.977513  	56.196675 
1085.941937  	55.851308 
1086.906362  	55.524702 
1087.870786  	55.231059 
1088.835211  	54.963063 
1089.799635  	54.730916 
1090.764060  	54.537379 
1091.728484  	54.341918 
1092.692909  	54.175538 
1093.657333  	54.061997 
1094.621758  	53.988799 
1095.586182  	54.014338 
1096.550606  	54.111899 
1097.515031  	54.274749 
1098.479455  	54.591883 
1099.443880  	54.964838 
1100.408304  	55.356647 
1101.372729  	55.822009 
1102.337153  	56.400749 
1103.301578  	57.064767 
1104.266002  	57.764241 
1105.230427  	58.488286 
1106.194851  	59.212871 
1107.159275  	59.913448 
1108.123700  	60.588909 
1109.088124  	61.189386 
1110.052549  	61.697298 
1111.016973  	62.075932 
1111.981398  	62.332241 
1112.945822  	62.521446 
1113.910247  	62.613555 
1114.874671  	62.580889 
1115.839096  	62.512536 
1116.803520  	62.522225 
1117.767945  	62.575279 
1118.732369  	62.675534 
1119.696793  	62.946444 
1120.661218  	63.288122 
1121.625642  	63.664799 
1122.590067  	64.176240 
1123.554491  	64.774830 
1124.518916  	65.429789 
1125.483340  	66.166930 
1126.447765  	66.954401 
1127.412189  	67.796673 
1128.376614  	68.710259 
1129.341038  	69.672001 
1130.305462  	70.677673 
1131.269887  	71.711172 
1132.234311  	72.704460 
1133.198736  	73.711626 
1134.163160  	74.766004 
1135.127585  	75.767387 
1136.092009  	76.693997 
1137.056434  	77.598440 
1138.020858  	78.467357 
1138.985283  	79.227000 
1139.949707  	79.867584 
1140.914131  	80.506409 
1141.878556  	81.102464 
1142.842980  	81.589163 
1143.807405  	82.078081 
1144.771829  	82.525105 
1145.736254  	82.907101 
1146.700678  	83.227215 
1147.665103  	83.513903 
1148.629527  	83.820534 
1149.593952  	84.097618 
1150.558376  	84.298075 
1151.522800  	84.462062 
1152.487225  	84.619537 
1153.451649  	84.748840 
1154.416074  	84.833942 
1155.380498  	84.892216 
1156.344923  	84.958202 
1157.309347  	84.993020 
1158.273772  	84.983100 
1159.238196  	84.923335 
1160.202621  	84.928718 
1161.167045  	84.943230 
1162.131469  	84.901458 
1163.095894  	84.824661 
1164.060318  	84.755558 
1165.024743  	84.681714 
1165.989167  	84.555797 
1166.953592  	84.393706 
1167.918016  	84.201431 
1168.882441  	83.936466 
1169.846865  	83.616985 
1170.811290  	83.302295 
1171.775714  	83.043019 
1172.740138  	82.840741 
1173.704563  	82.632805 
1174.668987  	82.471605 
1175.633412  	82.494333 
1176.597836  	82.546823 
1177.562261  	82.561385 
1178.526685  	82.608985 
1179.491110  	82.685544 
1180.455534  	82.724201 
1181.419959  	82.749654 
1182.384383  	82.741539 
1183.348808  	82.675769 
1184.313232  	82.599598 
1185.277656  	82.461695 
1186.242081  	82.257419 
1187.206505  	82.051903 
1188.170930  	81.849331 
1189.135354  	81.593016 
1190.099779  	81.279345 
1191.064203  	80.972075 
1192.028628  	80.660344 
1192.993052  	80.262895 
1193.957477  	79.863323 
1194.921901  	79.468216 
1195.886325  	79.036489 
1196.850750  	78.591931 
1197.815174  	78.171456 
1198.779599  	77.762399 
1199.744023  	77.359149 
1200.708448  	76.916879 
1201.672872  	76.482103 
1202.637297  	76.052191 
1203.601721  	75.615673 
1204.566146  	75.156601 
1205.530570  	74.721295 
1206.494994  	74.306141 
1207.459419  	73.900701 
1208.423843  	73.464167 
1209.388268  	73.019747 
1210.352692  	72.578699 
1211.317117  	72.083538 
1212.281541  	71.554911 
1213.245966  	71.079176 
1214.210390  	70.563161 
1215.174815  	69.976193 
1216.139239  	69.366423 
1217.103663  	68.725420 
1218.068088  	68.057412 
1219.032512  	67.420465 
1219.996937  	66.815104 
1220.961361  	66.223186 
1221.925786  	65.640591 
1222.890210  	65.061752 
1223.854635  	64.493817 
1224.819059  	63.908335 
1225.783484  	63.343953 
1226.747908  	62.775970 
1227.712332  	62.145365 
1228.676757  	61.424565 
1229.641181  	60.650218 
1230.605606  	59.848144 
1231.570030  	58.988644 
1232.534455  	58.120944 
1233.498879  	57.319955 
1234.463304  	56.573476 
1235.427728  	55.839301 
1236.392153  	55.169438 
1237.356577  	54.632290 
1238.321002  	54.209056 
1239.285426  	53.872935 
1240.249850  	53.686666 
1241.214275  	53.631699 
1242.178699  	53.648325 
1243.143124  	53.768722 
1244.107548  	54.001580 
1245.071973  	54.385325 
1246.036397  	54.799853 
1247.000822  	55.203333 
1247.965246  	55.671376 
1248.929671  	56.197213 
1249.894095  	56.670390 
1250.858519  	57.136334 
1251.822944  	57.588301 
1252.787368  	58.009716 
1253.751793  	58.419326 
1254.716217  	58.755613 
1255.680642  	59.066059 
1256.645066  	59.355385 
1257.609491  	59.580120 
1258.573915  	59.788482 
1259.538340  	60.014930 
1260.502764  	60.292988 
1261.467188  	60.749699 
1262.431613  	61.256837 
1263.396037  	61.813844 
1264.360462  	62.408192 
1265.324886  	63.056654 
1266.289311  	63.768681 
1267.253735  	64.542490 
1268.218160  	65.312812 
1269.182584  	66.064160 
1270.147009  	66.792810 
1271.111433  	67.565254 
1272.075857  	68.301898 
1273.040282  	69.082611 
1274.004706  	69.759174 
1274.969131  	70.364236 
1275.933555  	70.954948 
1276.897980  	71.518694 
1277.862404  	72.071279 
1278.826829  	72.579499 
1279.791253  	73.006494 
1280.755678  	73.481841 
1281.720102  	74.031988 
1282.684526  	74.548368 
1283.648951  	74.999511 
1284.613375  	75.457034 
1285.577800  	75.974433 
1286.542224  	76.420059 
1287.506649  	76.710656 
1288.471073  	77.180037 
1289.435498  	77.842440 
1290.399922  	78.392996 
1291.364347  	78.913250 
1292.328771  	79.501703 
1293.293195  	80.092539 
1294.257620  	80.671605 
1295.222044  	81.207846 
1296.186469  	81.680799 
1297.150893  	82.219653 
1298.115318  	82.891336 
1299.079742  	83.439053 
1300.044167  	83.950961 
1301.008591  	84.416984 
1301.973016  	84.824119 
1302.937440  	85.173344 
1303.901865  	85.497434 
1304.866289  	85.763341 
1305.830713  	85.968229 
1306.795138  	86.169709 
1307.759562  	86.329434 
1308.723987  	86.530300 
1309.688411  	86.850484 
1310.652836  	87.043875 
1311.617260  	87.085730 
1312.581685  	86.871962 
1313.546109  	87.040517 
1314.510534  	87.324832 
1315.474958  	87.622430 
1316.439382  	87.635091 
1317.403807  	87.564666 
1318.368231  	87.631241 
1319.332656  	87.587874 
1320.297080  	87.967797 
1321.261505  	88.271759 
1322.225929  	88.469997 
1323.190354  	88.503950 
1324.154778  	88.551504 
1325.119203  	88.528169 
1326.083627  	88.398653 
1327.048051  	88.216889 
1328.012476  	87.930998 
1328.976900  	87.472198 
1329.941325  	86.840960 
1330.905749  	86.116609 
1331.870174  	85.174357 
1332.834598  	83.970735 
1333.799023  	82.667458 
1334.763447  	81.347430 
1335.727872  	79.895925 
1336.692296  	78.323374 
1337.656720  	77.447290 
1338.621145  	76.460586 
1339.585569  	75.736985 
1340.549994  	76.396152 
1341.514418  	78.303703 
1342.478843  	79.895054 
1343.443267  	81.152855 
1344.407692  	82.495472 
1345.372116  	83.827521 
1346.336541  	85.034080 
1347.300965  	86.049020 
1348.265389  	86.820029 
1349.229814  	87.337641 
1350.194238  	87.911155 
1351.158663  	88.380461 
1352.123087  	88.656939 
1353.087512  	88.873844 
1354.051936  	88.867801 
1355.016361  	88.694377 
1355.980785  	88.983903 
1356.945210  	89.136276 
1357.909634  	88.993848 
1358.874059  	88.988627 
1359.838483  	88.948048 
1360.802907  	88.243626 
1361.767332  	87.662339 
1362.731756  	86.694011 
1363.696181  	86.570583 
1364.660605  	87.779877 
1365.625030  	87.932564 
1366.589454  	87.767109 
1367.553879  	87.348415 
1368.518303  	86.676844 
1369.482728  	86.631379 
1370.447152  	87.028039 
1371.411576  	87.016123 
1372.376001  	86.828959 
1373.340425  	86.104549 
1374.304850  	85.538660 
1375.269274  	86.024528 
1376.233699  	86.903514 
1377.198123  	87.086039 
1378.162548  	86.836720 
1379.126972  	86.944134 
1380.091397  	87.152313 
1381.055821  	87.355634 
1382.020245  	87.403595 
1382.984670  	87.420453 
1383.949094  	87.453688 
1384.913519  	87.437685 
1385.877943  	86.987298 
1386.842368  	85.932210 
1387.806792  	85.748088 
1388.771217  	86.865343 
1389.735641  	87.302039 
1390.700066  	87.192457 
1391.664490  	87.197226 
1392.628914  	87.168947 
1393.593339  	86.489100 
1394.557763  	85.061567 
1395.522188  	84.716301 
1396.486612  	85.309015 
1397.451037  	85.081205 
1398.415461  	84.151504 
1399.379886  	83.583546 
1400.344310  	83.958976 
1401.308735  	83.970774 
1402.273159  	83.274761 
1403.237583  	82.402806 
1404.202008  	81.031190 
1405.166432  	79.333603 
1406.130857  	78.934031 
1407.095281  	78.770891 
1408.059706  	78.336879 
1409.024130  	78.273892 
1409.988555  	78.539326 
1410.952979  	79.368438 
1411.917404  	80.514298 
1412.881828  	82.281474 
1413.846252  	83.925688 
1414.810677  	85.212272 
1415.775101  	85.875418 
1416.739526  	86.114468 
1417.703950  	86.224958 
1418.668375  	86.129331 
1419.632799  	86.032553 
1420.597224  	88.196045 
1421.561648  	89.091337 
1422.526073  	89.249877 
1423.490497  	88.363755 
1424.454922  	88.024761 
1425.419346  	89.171567 
1426.383770  	89.570564 
1427.348195  	89.481569 
1428.312619  	89.149201 
1429.277044  	88.593378 
1430.241468  	88.125449 
1431.205893  	88.579766 
1432.170317  	88.552133 
1433.134742  	88.206229 
1434.099166  	88.317620 
1435.063591  	88.065956 
1436.028015  	86.668723 
1436.992439  	85.592705 
1437.956864  	87.157848 
1438.921288  	87.910478 
1439.885713  	87.997826 
1440.850137  	87.985859 
1441.814562  	87.971801 
1442.778986  	87.959737 
1443.743411  	87.874047 
1444.707835  	87.758144 
1445.672260  	87.602650 
1446.636684  	87.346967 
1447.601108  	86.458509 
1448.565533  	86.301846 
1449.529957  	87.137768 
1450.494382  	87.285936 
1451.458806  	86.773896 
1452.423231  	86.330225 
1453.387655  	86.717616 
1454.352080  	86.313098 
1455.316504  	85.175460 
1456.280929  	84.238371 
1457.245353  	83.389109 
1458.209777  	83.661170 
1459.174202  	84.739258 
1460.138626  	86.371801 
1461.103051  	87.274256 
1462.067475  	87.456072 
1463.031900  	87.463435 
1463.996324  	87.014465 
1464.960749  	86.122965 
1465.925173  	86.757559 
1466.889598  	87.368773 
1467.854022  	87.385419 
1468.818446  	87.374700 
1469.782871  	87.089672 
1470.747295  	86.332188 
1471.711720  	84.611485 
1472.676144  	83.517210 
1473.640569  	84.319465 
1474.604993  	86.106678 
1475.569418  	86.433427 
1476.533842  	86.047826 
1477.498267  	87.549557 
1478.462691  	88.472148 
1479.427116  	88.700172 
1480.391540  	88.571839 
1481.355964  	88.153443 
1482.320389  	88.785597 
1483.284813  	89.409674 
1484.249238  	89.623932 
1485.213662  	89.525055 
1486.178087  	88.995061 
1487.142511  	88.390959 
1488.106936  	88.513251 
1489.071360  	87.604765 
1490.035785  	86.129638 
1491.000209  	87.502073 
1491.964633  	89.349817 
1492.929058  	90.070685 
1493.893482  	90.090349 
1494.857907  	89.698841 
1495.822331  	88.545763 
1496.786756  	87.877159 
1497.751180  	88.418006 
1498.715605  	87.743140 
1499.680029  	87.673712 
1500.644454  	87.878257 
1501.608878  	87.061698 
1502.573302  	86.496025 
1503.537727  	86.173522 
1504.502151  	85.258860 
1505.466576  	83.542418 
1506.431000  	80.522082 
1507.395425  	80.234115 
1508.359849  	82.814319 
1509.324274  	84.877417 
1510.288698  	86.505803 
1511.253123  	87.982050 
1512.217547  	87.959428 
1513.181971  	88.736077 
1514.146396  	89.203845 
1515.110820  	88.221991 
1516.075245  	87.062073 
1517.039669  	85.641460 
1518.004094  	87.416974 
1518.968518  	88.784681 
1519.932943  	87.788883 
1520.897367  	85.240866 
1521.861792  	85.562789 
1522.826216  	86.982864 
1523.790640  	88.098232 
1524.755065  	87.708326 
1525.719489  	87.186877 
1526.683914  	87.821115 
1527.648338  	87.495772 
1528.612763  	87.936384 
1529.577187  	89.082306 
1530.541612  	89.433836 
1531.506036  	88.608283 
1532.470461  	88.041358 
1533.434885  	87.079116 
1534.399309  	87.390802 
1535.363734  	88.421301 
1536.328158  	88.971161 
1537.292583  	89.106480 
1538.257007  	88.047273 
1539.221432  	85.366176 
1540.185856  	85.008011 
1541.150281  	86.408357 
1542.114705  	86.473703 
1543.079130  	86.563522 
1544.043554  	86.650907 
1545.007979  	86.268948 
1545.972403  	87.530363 
1546.936827  	89.108379 
1547.901252  	89.417202 
1548.865676  	88.827246 
1549.830101  	86.987812 
1550.794525  	87.489032 
1551.758950  	88.991231 
1552.723374  	89.034110 
1553.687799  	88.137831 
1554.652223  	87.115493 
1555.616648  	88.122903 
1556.581072  	88.317496 
1557.545496  	87.046403 
1558.509921  	83.136943 
1559.474345  	82.480632 
1560.438770  	85.379060 
1561.403194  	87.963202 
1562.367619  	88.837585 
1563.332043  	89.051123 
1564.296468  	88.637455 
1565.260892  	88.260666 
1566.225317  	88.832374 
1567.189741  	89.035439 
1568.154165  	88.549473 
1569.118590  	87.067690 
1570.083014  	86.693023 
1571.047439  	88.102497 
1572.011863  	88.449171 
1572.976288  	88.335385 
1573.940712  	88.145373 
1574.905137  	87.637737 
1575.869561  	86.435752 
1576.833986  	85.696011 
1577.798410  	86.683423 
1578.762834  	87.445426 
1579.727259  	87.831546 
1580.691683  	88.108282 
1581.656108  	88.326474 
1582.620532  	88.516579 
1583.584957  	88.688944 
1584.549381  	88.871655 
1585.513806  	88.984890 
1586.478230  	89.084418 
1587.442655  	89.136973 
1588.407079  	89.137112 
1589.371503  	88.989065 
1590.335928  	88.907597 
1591.300352  	88.963131 
1592.264777  	88.973210 
1593.229201  	88.958354 
1594.193626  	88.664474 
1595.158050  	88.543888 
1596.122475  	88.667498 
1597.086899  	88.764853 
1598.051324  	88.874907 
1599.015748  	88.820548 
1599.980173  	88.754861 
1600.944597  	88.495690 
1601.909021  	88.340770 
1602.873446  	88.125855 
1603.837870  	88.127131 
1604.802295  	88.329733 
1605.766719  	88.283650 
1606.731144  	87.888969 
1607.695568  	87.675275 
1608.659993  	87.661634 
1609.624417  	87.288716 
1610.588842  	87.500769 
1611.553266  	87.655303 
1612.517690  	87.558722 
1613.482115  	87.521914 
1614.446539  	87.456966 
1615.410964  	87.048407 
1616.375388  	85.983703 
1617.339813  	85.778037 
1618.304237  	86.881844 
1619.268662  	87.281538 
1620.233086  	87.336960 
1621.197511  	87.304111 
1622.161935  	86.868296 
1623.126359  	85.880359 
1624.090784  	85.998478 
1625.055208  	86.883168 
1626.019633  	87.066322 
1626.984057  	86.773666 
1627.948482  	86.166453 
1628.912906  	86.588821 
1629.877331  	86.965468 
1630.841755  	86.947721 
1631.806180  	86.883669 
1632.770604  	86.827841 
1633.735028  	86.485407 
1634.699453  	85.508890 
1635.663877  	83.773684 
1636.628302  	84.603223 
1637.592726  	84.825403 
1638.557151  	85.575071 
1639.521575  	86.067199 
1640.486000  	86.034263 
1641.450424  	86.029727 
1642.414849  	85.935826 
1643.379273  	85.930110 
1644.343697  	85.792125 
1645.308122  	84.946801 
1646.272546  	83.415759 
1647.236971  	82.780335 
1648.201395  	83.098501 
1649.165820  	84.491858 
1650.130244  	85.086579 
1651.094669  	84.798048 
1652.059093  	83.781896 
1653.023518  	80.633220 
1653.987942  	80.109807 
1654.952366  	82.517015 
1655.916791  	83.981068 
1656.881215  	84.311877 
1657.845640  	84.469422 
1658.810064  	84.570046 
1659.774489  	84.512716 
1660.738913  	84.082094 
1661.703338  	83.410060 
1662.667762  	82.595317 
1663.632187  	82.812844 
1664.596611  	83.250212 
1665.561036  	83.213678 
1666.525460  	83.043240 
1667.489884  	82.463114 
1668.454309  	81.065044 
1669.418733  	80.112554 
1670.383158  	80.823490 
1671.347582  	80.495066 
1672.312007  	80.606742 
1673.276431  	81.054411 
1674.240856  	80.609843 
1675.205280  	79.290495 
1676.169705  	79.319432 
1677.134129  	79.948271 
1678.098553  	79.820083 
1679.062978  	79.136657 
1680.027402  	77.618131 
1680.991827  	77.395761 
1681.956251  	77.844732 
1682.920676  	76.698527 
1683.885100  	73.271337 
1684.849525  	73.060754 
1685.813949  	76.097682 
1686.778374  	76.693856 
1687.742798  	76.047720 
1688.707222  	75.274349 
1689.671647  	75.124630 
1690.636071  	74.870434 
1691.600496  	74.858356 
1692.564920  	74.397286 
1693.529345  	73.557178 
1694.493769  	72.437493 
1695.458194  	70.620849 
1696.422618  	68.618661 
1697.387043  	68.588539 
1698.351467  	68.090271 
1699.315891  	66.891530 
1700.280316  	63.680722 
1701.244740  	63.263216 
1702.209165  	63.591331 
1703.173589  	62.832045 
1704.138014  	61.256299 
1705.102438  	59.688168 
1706.066863  	58.603671 
1707.031287  	57.321774 
1707.995712  	56.898457 
1708.960136  	56.337004 
1709.924560  	55.301974 
1710.888985  	54.686845 
1711.853409  	54.712037 
1712.817834  	54.488489 
1713.782258  	54.071304 
1714.746683  	53.758177 
1715.711107  	54.627328 
1716.675532  	55.381647 
1717.639956  	55.131206 
1718.604381  	56.530780 
1719.568805  	59.321833 
1720.533230  	60.981091 
1721.497654  	62.123489 
1722.462078  	63.136702 
1723.426503  	63.959891 
1724.390927  	65.295171 
1725.355352  	66.644539 
1726.319776  	67.749173 
1727.284201  	68.866559 
1728.248625  	69.973017 
1729.213050  	70.401376 
1730.177474  	70.660303 
1731.141899  	72.608003 
1732.106323  	73.763438 
1733.070747  	73.541926 
1734.035172  	72.743963 
1734.999596  	75.897645 
1735.964021  	78.589377 
1736.928445  	79.886144 
1737.892870  	80.969487 
1738.857294  	81.653692 
1739.821719  	82.064146 
1740.786143  	84.083008 
1741.750568  	85.523311 
1742.714992  	85.597821 
1743.679416  	85.601392 
1744.643841  	87.185504 
1745.608265  	88.372577 
1746.572690  	88.677812 
1747.537114  	88.745002 
1748.501539  	88.772234 
1749.465963  	89.267002 
1750.430388  	89.834033 
1751.394812  	89.280352 
1752.359237  	90.657817 
1753.323661  	91.969812 
1754.288085  	92.513019 
1755.252510  	92.604773 
1756.216934  	92.002819 
1757.181359  	91.376262 
1758.145783  	92.006108 
1759.110208  	92.472553 
1760.074632  	92.726348 
1761.039057  	92.173010 
1762.003481  	91.174091 
1762.967906  	92.176240 
1763.932330  	92.907694 
1764.896754  	93.059801 
1765.861179  	93.099232 
1766.825603  	92.879849 
1767.790028  	91.900260 
1768.754452  	91.664764 
1769.718877  	92.643642 
1770.683301  	92.301558 
1771.647726  	91.107958 
1772.612150  	90.645807 
1773.576575  	91.777200 
1774.540999  	92.455651 
1775.505423  	92.072104 
1776.469848  	92.358464 
1777.434272  	93.014370 
1778.398697  	92.811889 
1779.363121  	92.492509 
1780.327546  	92.035548 
1781.291970  	91.933335 
1782.256395  	92.636922 
1783.220819  	92.938069 
1784.185244  	92.571390 
1785.149668  	91.990183 
1786.114093  	92.551273 
1787.078517  	92.954259 
1788.042941  	92.934500 
1789.007366  	92.838417 
1789.971790  	92.467691 
1790.936215  	91.488219 
1791.900639  	91.055620 
1792.865064  	90.998455 
1793.829488  	91.911219 
1794.793913  	92.324789 
1795.758337  	91.686402 
1796.722762  	91.759209 
1797.687186  	92.527157 
1798.651610  	92.507768 
1799.616035  	91.884178 
1800.580459  	91.836944 
1801.544884  	91.633240 
1802.509308  	91.446551 
1803.473733  	92.242101 
1804.438157  	92.726297 
1805.402582  	92.697452 
1806.367006  	92.612400 
1807.331431  	92.305495 
1808.295855  	92.209169 
1809.260279  	92.520131 
1810.224704  	92.048172 
1811.189128  	91.632800 
1812.153553  	91.953734 
1813.117977  	92.314439 
1814.082402  	92.661092 
1815.046826  	92.726761 
1816.011251  	92.755747 
1816.975675  	92.476864 
1817.940100  	92.280520 
1818.904524  	92.543752 
1819.868948  	92.639117 
1820.833373  	92.540438 
1821.797797  	92.442377 
1822.762222  	92.285391 
1823.726646  	92.306477 
1824.691071  	91.730338 
1825.655495  	91.028625 
1826.619920  	92.027788 
1827.584344  	92.457299 
1828.548769  	91.999263 
1829.513193  	90.803792 
1830.477617  	90.879083 
1831.442042  	92.130071 
1832.406466  	92.496292 
1833.370891  	92.354433 
1834.335315  	92.563365 
1835.299740  	92.753855 
1836.264164  	92.586481 
1837.228589  	92.111570 
1838.193013  	92.262986 
1839.157438  	92.631878 
1840.121862  	92.752360 
1841.086287  	92.721839 
1842.050711  	92.335939 
1843.015135  	91.966578 
1843.979560  	91.170590 
1844.943984  	91.026891 
1845.908409  	91.904504 
1846.872833  	92.161178 
1847.837258  	91.722692 
1848.801682  	92.047785 
1849.766107  	92.680473 
1850.730531  	92.895042 
1851.694956  	92.914842 
1852.659380  	92.892341 
1853.623804  	92.898096 
1854.588229  	92.851795 
1855.552653  	92.812584 
1856.517078  	92.752466 
1857.481502  	92.792486 
1858.445927  	92.681256 
1859.410351  	92.627753 
1860.374776  	92.704260 
1861.339200  	92.613168 
1862.303625  	92.659831 
1863.268049  	92.828268 
1864.232473  	92.834625 
1865.196898  	92.807675 
1866.161322  	92.463322 
1867.125747  	92.041647 
1868.090171  	91.454516 
1869.054596  	91.013593 
1870.019020  	91.484640 
1870.983445  	92.199326 
1871.947869  	92.696126 
1872.912294  	92.981495 
1873.876718  	92.955772 
1874.841142  	92.853762 
1875.805567  	92.781596 
1876.769991  	92.829826 
1877.734416  	92.838678 
1878.698840  	92.687516 
1879.663265  	92.581978 
1880.627689  	92.717976 
1881.592114  	92.760662 
1882.556538  	92.802278 
1883.520963  	92.840021 
1884.485387  	92.662998 
1885.449811  	92.557913 
1886.414236  	92.793880 
1887.378660  	92.883537 
1888.343085  	92.645724 
1889.307509  	91.850072 
1890.271934  	91.789704 
1891.236358  	92.452005 
1892.200783  	92.680580 
1893.165207  	92.745699 
1894.129632  	92.606721 
1895.094056  	92.084894 
1896.058480  	92.204365 
1897.022905  	92.648383 
1897.987329  	92.694625 
1898.951754  	92.676972 
1899.916178  	92.673479 
1900.880603  	92.668368 
1901.845027  	92.646851 
1902.809452  	92.734181 
1903.773876  	92.691154 
1904.738301  	92.610687 
1905.702725  	92.638014 
1906.667150  	92.620187 
1907.631574  	92.346739 
1908.595998  	92.253878 
1909.560423  	92.114183 
1910.524847  	92.005894 
1911.489272  	92.503536 
1912.453696  	92.616753 
1913.418121  	92.551904 
1914.382545  	92.499463 
1915.346970  	92.577824 
1916.311394  	92.599879 
1917.275819  	92.067144 
1918.240243  	91.340743 
1919.204667  	92.001153 
1920.169092  	92.404391 
1921.133516  	92.328165 
1922.097941  	91.845875 
1923.062365  	91.269444 
1924.026790  	91.970077 
1924.991214  	92.501289 
1925.955639  	92.542825 
1926.920063  	92.576372 
1927.884488  	92.514465 
1928.848912  	92.533639 
1929.813336  	92.594282 
1930.777761  	92.540413 
1931.742185  	92.432430 
1932.706610  	92.433654 
1933.671034  	92.474571 
1934.635459  	92.580979 
1935.599883  	92.583793 
1936.564308  	92.619489 
1937.528732  	92.546761 
1938.493157  	92.554635 
1939.457581  	92.800791 
1940.422005  	92.655171 
1941.386430  	92.040216 
1942.350854  	91.148535 
1943.315279  	91.397477 
1944.279703  	92.290652 
1945.244128  	92.250334 
1946.208552  	92.115053 
1947.172977  	92.151264 
1948.137401  	92.207480 
1949.101826  	92.040806 
1950.066250  	92.233808 
1951.030674  	92.472271 
1951.995099  	92.420089 
1952.959523  	92.367515 
1953.923948  	92.247739 
1954.888372  	92.093846 
1955.852797  	92.193241 
1956.817221  	92.439156 
1957.781646  	92.588403 
1958.746070  	92.548783 
1959.710495  	92.629454 
1960.674919  	92.473870 
1961.639344  	92.601248 
1962.603768  	92.602896 
1963.568192  	92.401163 
1964.532617  	92.600802 
1965.497041  	92.704723 
1966.461466  	92.122197 
1967.425890  	91.642240 
1968.390315  	92.180216 
1969.354739  	92.781595 
1970.319164  	92.786395 
1971.283588  	92.610072 
1972.248013  	92.491836 
1973.212437  	92.501825 
1974.176861  	92.531885 
1975.141286  	92.522809 
1976.105710  	92.842399 
1977.070135  	93.119572 
1978.034559  	92.776515 
1978.998984  	92.072596 
1979.963408  	91.850803 
1980.927833  	92.022419 
1981.892257  	92.241197 
1982.856682  	92.136754 
1983.821106  	92.256099 
1984.785530  	92.695412 
1985.749955  	92.616337 
1986.714379  	92.595772 
1987.678804  	92.361484 
1988.643228  	92.006107 
1989.607653  	92.421569 
1990.572077  	92.626119 
1991.536502  	91.992019 
1992.500926  	91.516091 
1993.465351  	91.919695 
1994.429775  	92.269888 
1995.394199  	92.462222 
1996.358624  	92.451791 
1997.323048  	92.300447 
1998.287473  	92.432361 
1999.251897  	92.734131 
2000.216322  	93.024038 
2001.180746  	93.215345 
2002.145171  	93.155535 
2003.109595  	93.106901 
2004.074020  	93.283289 
2005.038444  	93.377028 
2006.002868  	93.134627 
2006.967293  	93.083035 
2007.931717  	92.907838 
2008.896142  	92.602269 
2009.860566  	92.621317 
2010.824991  	93.010807 
2011.789415  	93.154066 
2012.753840  	92.834730 
2013.718264  	92.341175 
2014.682689  	92.453393 
2015.647113  	92.847748 
2016.611537  	92.735423 
2017.575962  	92.998724 
2018.540386  	93.123129 
2019.504811  	92.940938 
2020.469235  	93.068345 
2021.433660  	93.327108 
2022.398084  	93.460621 
2023.362509  	93.319331 
2024.326933  	92.843376 
2025.291358  	92.627352 
2026.255782  	92.913262 
2027.220207  	92.934772 
2028.184631  	92.793309 
2029.149055  	93.072430 
2030.113480  	93.403633 
2031.077904  	93.382078 
2032.042329  	92.827363 
2033.006753  	92.708301 
2033.971178  	92.762692 
2034.935602  	92.866392 
2035.900027  	93.157976 
2036.864451  	93.117029 
2037.828876  	92.885450 
2038.793300  	92.777691 
2039.757724  	92.487804 
2040.722149  	92.249891 
2041.686573  	92.273767 
2042.650998  	92.465061 
2043.615422  	92.301384 
2044.579847  	92.343067 
2045.544271  	92.626975 
2046.508696  	92.706323 
2047.473120  	92.468004 
2048.437545  	92.452069 
2049.401969  	92.610052 
2050.366393  	92.212050 
2051.330818  	92.030376 
2052.295242  	92.383797 
2053.259667  	92.650111 
2054.224091  	92.517677 
2055.188516  	92.129191 
2056.152940  	92.146594 
2057.117365  	92.224757 
2058.081789  	92.363433 
2059.046214  	92.515302 
2060.010638  	92.416530 
2060.975062  	92.220278 
2061.939487  	92.351140 
2062.903911  	92.411599 
2063.868336  	92.254223 
2064.832760  	91.954976 
2065.797185  	92.051430 
2066.761609  	92.180245 
2067.726034  	92.217577 
2068.690458  	92.363853 
2069.654883  	92.426001 
2070.619307  	92.299235 
2071.583731  	92.186213 
2072.548156  	92.236120 
2073.512580  	92.242003 
2074.477005  	92.211962 
2075.441429  	92.336269 
2076.405854  	92.301724 
2077.370278  	92.189483 
2078.334703  	92.135698 
2079.299127  	92.156506 
2080.263552  	92.055108 
2081.227976  	92.056506 
2082.192401  	92.040536 
2083.156825  	91.997376 
2084.121249  	92.020593 
2085.085674  	92.127524 
2086.050098  	92.188803 
2087.014523  	92.198120 
2087.978947  	92.265748 
2088.943372  	92.146364 
2089.907796  	91.935057 
2090.872221  	91.997158 
2091.836645  	92.364853 
2092.801070  	92.426680 
2093.765494  	92.294152 
2094.729918  	92.213244 
2095.694343  	92.172301 
2096.658767  	92.097778 
2097.623192  	92.151339 
2098.587616  	92.164517 
2099.552041  	92.155689 
2100.516465  	92.140925 
2101.480890  	92.128140 
2102.445314  	92.108012 
2103.409739  	92.119387 
2104.374163  	92.198641 
2105.338587  	92.123206 
2106.303012  	92.059510 
2107.267436  	92.043167 
2108.231861  	91.937606 
2109.196285  	92.047580 
2110.160710  	92.296549 
2111.125134  	92.276183 
2112.089559  	92.180152 
2113.053983  	92.067997 
2114.018408  	92.011837 
2114.982832  	91.979432 
2115.947256  	91.980614 
2116.911681  	92.110228 
2117.876105  	92.233299 
2118.840530  	92.257058 
2119.804954  	92.299563 
2120.769379  	92.275397 
2121.733803  	92.289368 
2122.698228  	92.427946 
2123.662652  	92.490219 
2124.627077  	92.408352 
2125.591501  	92.426288 
2126.555925  	92.573631 
2127.520350  	92.599260 
2128.484774  	92.548820 
2129.449199  	92.661130 
2130.413623  	92.728230 
2131.378048  	92.727337 
2132.342472  	92.880704 
2133.306897  	92.895643 
2134.271321  	92.682920 
2135.235746  	92.497509 
2136.200170  	92.505555 
2137.164594  	92.695428 
2138.129019  	92.847313 
2139.093443  	92.876591 
2140.057868  	92.829864 
2141.022292  	92.939252 
2141.986717  	92.830951 
2142.951141  	92.785978 
2143.915566  	93.068519 
2144.879990  	93.072580 
2145.844415  	92.933279 
2146.808839  	92.846026 
2147.773264  	92.867553 
2148.737688  	93.037186 
2149.702112  	93.062636 
2150.666537  	92.968310 
2151.630961  	92.953221 
2152.595386  	93.159124 
2153.559810  	93.228998 
2154.524235  	93.534972 
2155.488659  	93.949395 
2156.453084  	94.365232 
2157.417508  	94.212115 
2158.381933  	93.753281 
2159.346357  	93.252979 
2160.310781  	92.792668 
2161.275206  	92.451145 
2162.239630  	92.510723 
2163.204055  	92.779563 
2164.168479  	92.853523 
2165.132904  	92.646713 
2166.097328  	92.505930 
2167.061753  	92.537015 
2168.026177  	92.620398 
2168.990602  	92.651012 
2169.955026  	92.487180 
2170.919450  	92.943701 
2171.883875  	93.021961 
2172.848299  	92.737814 
2173.812724  	92.729466 
2174.777148  	92.749371 
2175.741573  	92.556719 
2176.705997  	92.283798 
2177.670422  	92.452678 
2178.634846  	92.789332 
2179.599271  	92.917838 
2180.563695  	92.880459 
2181.528119  	92.860653 
2182.492544  	92.625598 
2183.456968  	92.390801 
2184.421393  	92.361139 
2185.385817  	92.702424 
2186.350242  	92.702214 
2187.314666  	92.396057 
2188.279091  	92.348470 
2189.243515  	92.426259 
2190.207940  	92.436395 
2191.172364  	92.621380 
2192.136788  	92.663759 
2193.101213  	92.668897 
2194.065637  	92.553905 
2195.030062  	92.260724 
2195.994486  	92.164877 
2196.958911  	92.357276 
2197.923335  	92.509207 
2198.887760  	92.484353 
2199.852184  	92.600490 
2200.816609  	92.732917 
2201.781033  	92.679947 
2202.745458  	92.549531 
2203.709882  	92.492181 
2204.674306  	92.431064 
2205.638731  	92.316624 
2206.603155  	92.308887 
2207.567580  	92.378482 
2208.532004  	92.326491 
2209.496429  	92.340721 
2210.460853  	92.304380 
2211.425278  	92.322703 
2212.389702  	92.315644 
2213.354127  	92.157607 
2214.318551  	92.136557 
2215.282975  	92.150452 
2216.247400  	92.195073 
2217.211824  	92.360467 
2218.176249  	92.465732 
2219.140673  	92.508972 
2220.105098  	92.336922 
2221.069522  	92.120943 
2222.033947  	92.189186 
2222.998371  	92.224147 
2223.962796  	92.180823 
2224.927220  	92.300341 
2225.891644  	92.349970 
2226.856069  	92.310771 
2227.820493  	92.304798 
2228.784918  	92.314690 
2229.749342  	92.317749 
2230.713767  	92.319301 
2231.678191  	92.255197 
2232.642616  	92.245430 
2233.607040  	92.406290 
2234.571465  	92.339091 
2235.535889  	92.155856 
2236.500313  	92.124419 
2237.464738  	92.086409 
2238.429162  	92.038691 
2239.393587  	92.103205 
2240.358011  	92.204720 
2241.322436  	92.340020 
2242.286860  	92.201918 
2243.251285  	92.036248 
2244.215709  	92.002663 
2245.180134  	91.938172 
2246.144558  	91.861382 
2247.108982  	92.057315 
2248.073407  	92.183636 
2249.037831  	92.098601 
2250.002256  	92.071487 
2250.966680  	92.120535 
2251.931105  	92.119389 
2252.895529  	92.091749 
2253.859954  	92.162083 
2254.824378  	92.129838 
2255.788803  	91.984676 
2256.753227  	91.933124 
2257.717651  	91.963827 
2258.682076  	91.988800 
2259.646500  	92.104709 
2260.610925  	91.991382 
2261.575349  	91.895838 
2262.539774  	91.999823 
2263.504198  	92.102591 
2264.468623  	92.060356 
2265.433047  	92.006357 
2266.397472  	92.058443 
2267.361896  	92.044522 
2268.326321  	91.994402 
2269.290745  	91.951045 
2270.255169  	91.982101 
2271.219594  	92.080159 
2272.184018  	92.053785 
2273.148443  	91.924750 
2274.112867  	91.876825 
2275.077292  	91.899308 
2276.041716  	91.878623 
2277.006141  	91.880166 
2277.970565  	91.884887 
2278.934990  	91.816075 
2279.899414  	91.693436 
2280.863838  	91.769145 
2281.828263  	91.851954 
2282.792687  	91.731348 
2283.757112  	91.719070 
2284.721536  	91.719591 
2285.685961  	91.621264 
2286.650385  	91.668625 
2287.614810  	91.679295 
2288.579234  	91.628058 
2289.543659  	91.579330 
2290.508083  	91.670280 
2291.472507  	91.673965 
2292.436932  	91.680303 
2293.401356  	91.668967 
2294.365781  	91.556415 
2295.330205  	91.586192 
2296.294630  	91.625171 
2297.259054  	91.630987 
2298.223479  	91.509069 
2299.187903  	91.562778 
2300.152328  	91.684411 
2301.116752  	91.640706 
2302.081176  	91.625586 
2303.045601  	91.523932 
2304.010025  	91.574318 
2304.974450  	91.382731 
2305.938874  	91.379778 
2306.903299  	91.367729 
2307.867723  	91.436910 
2308.832148  	91.286667 
2309.796572  	91.290888 
2310.760997  	91.301128 
2311.725421  	91.276835 
2312.689845  	91.386175 
2313.654270  	91.392257 
2314.618694  	91.471541 
2315.583119  	91.513253 
2316.547543  	91.519667 
2317.511968  	91.558862 
2318.476392  	91.620779 
2319.440817  	91.625171 
2320.405241  	91.556199 
2321.369666  	91.629732 
2322.334090  	91.716555 
2323.298515  	91.616035 
2324.262939  	91.535048 
2325.227363  	91.872653 
2326.191788  	92.301999 
2327.156212  	92.575221 
2328.120637  	92.577531 
2329.085061  	92.572520 
2330.049486  	92.690092 
2331.013910  	92.733370 
2331.978335  	92.808748 
2332.942759  	92.983805 
2333.907184  	93.122516 
2334.871608  	93.251923 
2335.836032  	93.370794 
2336.800457  	93.431184 
2337.764881  	93.396675 
2338.729306  	93.305152 
2339.693730  	93.210772 
2340.658155  	93.302842 
2341.622579  	93.529026 
2342.587004  	93.512742 
2343.551428  	93.278157 
2344.515853  	92.977137 
2345.480277  	92.762338 
2346.444701  	92.541774 
2347.409126  	92.405939 
2348.373550  	92.116003 
2349.337975  	91.953628 
2350.302399  	92.144417 
2351.266824  	92.483732 
2352.231248  	92.862137 
2353.195673  	93.009380 
2354.160097  	93.103166 
2355.124522  	93.332233 
2356.088946  	93.579865 
2357.053370  	93.642305 
2358.017795  	93.684521 
2358.982219  	93.698311 
2359.946644  	93.962660 
2360.911068  	94.034364 
2361.875493  	93.804605 
2362.839917  	93.680706 
2363.804342  	93.581602 
2364.768766  	93.467666 
2365.733191  	93.554114 
2366.697615  	93.497026 
2367.662039  	93.272118 
2368.626464  	92.934581 
2369.590888  	92.684240 
2370.555313  	92.577890 
2371.519737  	92.439616 
2372.484162  	92.270823 
2373.448586  	92.144934 
2374.413011  	91.975704 
2375.377435  	91.768770 
2376.341860  	91.673209 
2377.306284  	91.629915 
2378.270708  	91.560725 
2379.235133  	91.466378 
2380.199557  	91.482281 
2381.163982  	91.553120 
2382.128406  	91.621919 
2383.092831  	91.669923 
2384.057255  	91.732905 
2385.021680  	91.811582 
2385.986104  	91.844868 
2386.950529  	91.889595 
2387.914953  	91.953843 
2388.879378  	91.989416 
2389.843802  	92.046921 
2390.808226  	92.046934 
2391.772651  	92.037193 
2392.737075  	92.041422 
2393.701500  	92.055349 
2394.665924  	92.078475 
2395.630349  	92.085226 
2396.594773  	92.041592 
2397.559198  	92.038784 
2398.523622  	92.096915 
2399.488047  	92.138036 
2400.452471  	92.123648 
2401.416895  	92.088559 
2402.381320  	92.065513 
2403.345744  	92.101054 
2404.310169  	92.098880 
2405.274593  	92.045792 
2406.239018  	92.016111 
2407.203442  	92.032217 
2408.167867  	92.037343 
2409.132291  	92.032917 
2410.096716  	92.034429 
2411.061140  	92.025009 
2412.025564  	92.020728 
2412.989989  	92.011360 
2413.954413  	92.026249 
2414.918838  	92.086559 
2415.883262  	92.098241 
2416.847687  	92.063146 
2417.812111  	92.073670 
2418.776536  	92.120973 
2419.740960  	92.164915 
2420.705385  	92.163313 
2421.669809  	92.054024 
2422.634233  	92.046663 
2423.598658  	92.058784 
2424.563082  	92.077159 
2425.527507  	92.136701 
2426.491931  	92.118948 
2427.456356  	92.091837 
2428.420780  	92.127708 
2429.385205  	92.104119 
2430.349629  	92.099230 
2431.314054  	92.104334 
2432.278478  	92.122557 
2433.242902  	92.123413 
2434.207327  	92.087698 
2435.171751  	92.096006 
2436.136176  	92.159798 
2437.100600  	92.168484 
2438.065025  	92.130365 
2439.029449  	92.167101 
2439.993874  	92.180113 
2440.958298  	92.163401 
2441.922723  	92.151300 
2442.887147  	92.071472 
2443.851572  	92.081903 
2444.815996  	92.114377 
2445.780420  	92.102383 
2446.744845  	92.039514 
2447.709269  	91.997832 
2448.673694  	92.040330 
2449.638118  	92.085012 
2450.602543  	92.093454 
2451.566967  	92.056505 
2452.531392  	92.030719 
2453.495816  	92.024200 
2454.460241  	92.071969 
2455.424665  	92.075248 
2456.389089  	92.017106 
2457.353514  	92.038762 
2458.317938  	92.078423 
2459.282363  	92.049581 
2460.246787  	92.046661 
2461.211212  	92.045278 
2462.175636  	92.062777 
2463.140061  	92.125868 
2464.104485  	92.170558 
2465.068910  	92.184227 
2466.033334  	92.146948 
2466.997758  	92.098562 
2467.962183  	92.085751 
2468.926607  	92.044435 
2469.891032  	92.038053 
2470.855456  	92.048364 
2471.819881  	92.045448 
2472.784305  	92.088529 
2473.748730  	92.113389 
2474.713154  	92.122285 
2475.677579  	92.113755 
2476.642003  	92.109844 
2477.606427  	92.082246 
2478.570852  	92.095438 
2479.535276  	92.095832 
2480.499701  	92.087743 
2481.464125  	92.067858 
2482.428550  	92.120978 
2483.392974  	92.134982 
2484.357399  	92.137062 
2485.321823  	92.067046 
2486.286248  	91.973657 
2487.250672  	91.968656 
2488.215096  	92.037470 
2489.179521  	92.019759 
2490.143945  	91.968432 
2491.108370  	91.937172 
2492.072794  	91.999092 
2493.037219  	92.069657 
2494.001643  	92.063190 
2494.966068  	92.089023 
2495.930492  	92.083978 
2496.894917  	92.050967 
2497.859341  	92.008049 
2498.823765  	91.981067 
2499.788190  	91.987925 
2500.752614  	91.990184 
2501.717039  	91.963570 
2502.681463  	91.943735 
2503.645888  	91.957130 
2504.610312  	91.924586 
2505.574737  	91.935634 
2506.539161  	92.026456 
2507.503586  	92.113802 
2508.468010  	92.090278 
2509.432435  	92.033891 
2510.396859  	92.016899 
2511.361283  	92.026376 
2512.325708  	91.971085 
2513.290132  	91.986619 
2514.254557  	92.048474 
2515.218981  	92.018489 
2516.183406  	91.958786 
2517.147830  	91.992784 
2518.112255  	91.971872 
2519.076679  	91.986001 
2520.041104  	91.976366 
2521.005528  	91.938185 
2521.969952  	91.870063 
2522.934377  	91.865152 
2523.898801  	91.943477 
2524.863226  	91.982135 
2525.827650  	91.960803 
2526.792075  	91.969053 
2527.756499  	91.947512 
2528.720924  	91.932732 
2529.685348  	91.884776 
2530.649773  	91.908045 
2531.614197  	91.919282 
2532.578621  	91.935857 
2533.543046  	91.981793 
2534.507470  	92.007490 
2535.471895  	91.980015 
2536.436319  	91.904414 
2537.400744  	91.857318 
2538.365168  	91.874070 
2539.329593  	91.898466 
2540.294017  	91.930082 
2541.258442  	91.959432 
2542.222866  	91.979896 
2543.187290  	91.978910 
2544.151715  	91.956051 
2545.116139  	91.901477 
2546.080564  	91.914258 
2547.044988  	91.896601 
2548.009413  	91.856388 
2548.973837  	91.929354 
2549.938262  	91.967089 
2550.902686  	91.900465 
2551.867111  	91.874123 
2552.831535  	91.919989 
2553.795959  	91.925336 
2554.760384  	91.933972 
2555.724808  	91.869760 
2556.689233  	91.853702 
2557.653657  	91.941879 
2558.618082  	91.924684 
2559.582506  	91.922538 
2560.546931  	91.921443 
2561.511355  	91.912240 
2562.475780  	91.905832 
2563.440204  	91.922312 
2564.404629  	91.931602 
2565.369053  	91.944628 
2566.333477  	91.945851 
2567.297902  	91.951198 
2568.262326  	91.954386 
2569.226751  	91.867492 
2570.191175  	91.841174 
2571.155600  	91.951812 
2572.120024  	91.967152 
2573.084449  	91.942682 
2574.048873  	91.858093 
2575.013298  	91.755948 
2575.977722  	91.808607 
2576.942146  	91.894438 
2577.906571  	91.873347 
2578.870995  	91.849956 
2579.835420  	91.842450 
2580.799844  	91.871324 
2581.764269  	91.849905 
2582.728693  	91.865556 
2583.693118  	91.860987 
2584.657542  	91.797866 
2585.621967  	91.830370 
2586.586391  	91.860717 
2587.550815  	91.881965 
2588.515240  	91.842233 
2589.479664  	91.798471 
2590.444089  	91.835046 
2591.408513  	91.872004 
2592.372938  	91.861766 
2593.337362  	91.805931 
2594.301787  	91.769628 
2595.266211  	91.762950 
2596.230636  	91.773922 
2597.195060  	91.851475 
2598.159484  	91.898504 
2599.123909  	91.892061 
2600.088333  	91.893979 
2601.052758  	91.852247 
2602.017182  	91.843407 
2602.981607  	91.853465 
2603.946031  	91.832821 
2604.910456  	91.836847 
2605.874880  	91.882200 
2606.839305  	91.898232 
2607.803729  	91.890512 
2608.768153  	91.861011 
2609.732578  	91.824463 
2610.697002  	91.789805 
2611.661427  	91.802959 
2612.625851  	91.839941 
2613.590276  	91.878423 
2614.554700  	91.854911 
2615.519125  	91.794035 
2616.483549  	91.786931 
2617.447974  	91.777132 
2618.412398  	91.791734 
2619.376822  	91.811886 
2620.341247  	91.800031 
2621.305671  	91.769631 
2622.270096  	91.768191 
2623.234520  	91.790982 
2624.198945  	91.815166 
2625.163369  	91.817912 
2626.127794  	91.775962 
2627.092218  	91.775082 
2628.056643  	91.767828 
2629.021067  	91.752130 
2629.985492  	91.777492 
2630.949916  	91.825694 
2631.914340  	91.809129 
2632.878765  	91.756515 
2633.843189  	91.764010 
2634.807614  	91.768680 
2635.772038  	91.771301 
2636.736463  	91.756804 
2637.700887  	91.789730 
2638.665312  	91.813204 
2639.629736  	91.800747 
2640.594161  	91.820503 
2641.558585  	91.831861 
2642.523009  	91.789477 
2643.487434  	91.799871 
2644.451858  	91.824095 
2645.416283  	91.790421 
2646.380707  	91.768825 
2647.345132  	91.787431 
2648.309556  	91.806236 
2649.273981  	91.810488 
2650.238405  	91.843412 
2651.202830  	91.855543 
2652.167254  	91.845294 
2653.131678  	91.826652 
2654.096103  	91.821103 
2655.060527  	91.808108 
2656.024952  	91.823981 
2656.989376  	91.818912 
2657.953801  	91.794925 
2658.918225  	91.813445 
2659.882650  	91.820404 
2660.847074  	91.829207 
2661.811499  	91.855384 
2662.775923  	91.883413 
2663.740347  	91.917121 
2664.704772  	91.910599 
2665.669196  	91.912908 
2666.633621  	91.920541 
2667.598045  	91.929026 
2668.562470  	91.900003 
2669.526894  	91.880264 
2670.491319  	91.885206 
2671.455743  	91.935735 
2672.420168  	91.958468 
2673.384592  	91.940754 
2674.349016  	91.928574 
2675.313441  	91.925553 
2676.277865  	91.939202 
2677.242290  	91.953630 
2678.206714  	91.934985 
2679.171139  	91.900349 
2680.135563  	91.904467 
2681.099988  	91.934216 
2682.064412  	91.948574 
2683.028837  	91.934415 
2683.993261  	91.914680 
2684.957686  	91.929059 
2685.922110  	91.922306 
2686.886534  	91.909006 
2687.850959  	91.913952 
2688.815383  	91.927353 
2689.779808  	91.919357 
2690.744232  	91.911928 
2691.708657  	91.926316 
2692.673081  	91.944133 
2693.637506  	91.944900 
2694.601930  	91.956345 
2695.566355  	91.954058 
2696.530779  	91.930904 
2697.495203  	91.926491 
2698.459628  	91.930427 
2699.424052  	91.918143 
2700.388477  	91.887426 
2701.352901  	91.877195 
2702.317326  	91.893609 
2703.281750  	91.894616 
2704.246175  	91.899468 
2705.210599  	91.897791 
2706.175024  	91.896137 
2707.139448  	91.890411 
2708.103872  	91.877236 
2709.068297  	91.892142 
2710.032721  	91.892730 
2710.997146  	91.871760 
2711.961570  	91.875363 
2712.925995  	91.902247 
2713.890419  	91.920460 
2714.854844  	91.903858 
2715.819268  	91.901475 
2716.783693  	91.915225 
2717.748117  	91.912655 
2718.712541  	91.910138 
2719.676966  	91.914684 
2720.641390  	91.903881 
2721.605815  	91.887325 
2722.570239  	91.894024 
2723.534664  	91.896120 
2724.499088  	91.861413 
2725.463513  	91.861346 
2726.427937  	91.871282 
2727.392362  	91.860810 
2728.356786  	91.838620 
2729.321210  	91.820510 
2730.285635  	91.808629 
2731.250059  	91.786930 
2732.214484  	91.810526 
2733.178908  	91.845998 
2734.143333  	91.850778 
2735.107757  	91.840094 
2736.072182  	91.847970 
2737.036606  	91.858317 
2738.001031  	91.832644 
2738.965455  	91.807827 
2739.929879  	91.803324 
2740.894304  	91.807080 
2741.858728  	91.815380 
2742.823153  	91.817577 
2743.787577  	91.820683 
2744.752002  	91.822097 
2745.716426  	91.801618 
2746.680851  	91.792038 
2747.645275  	91.801863 
2748.609700  	91.802843 
2749.574124  	91.795859 
2750.538549  	91.789915 
2751.502973  	91.774562 
2752.467397  	91.814126 
2753.431822  	91.820332 
2754.396246  	91.797390 
2755.360671  	91.815742 
2756.325095  	91.819568 
2757.289520  	91.785107 
2758.253944  	91.792963 
2759.218369  	91.792375 
2760.182793  	91.774000 
2761.147218  	91.767523 
2762.111642  	91.771547 
2763.076066  	91.786058 
2764.040491  	91.793960 
2765.004915  	91.779123 
2765.969340  	91.776013 
2766.933764  	91.765288 
2767.898189  	91.754231 
2768.862613  	91.770803 
2769.827038  	91.790808 
2770.791462  	91.799319 
2771.755887  	91.747169 
2772.720311  	91.726987 
2773.684735  	91.737925 
2774.649160  	91.709664 
2775.613584  	91.716188 
2776.578009  	91.759139 
2777.542433  	91.786962 
2778.506858  	91.781684 
2779.471282  	91.769176 
2780.435707  	91.754300 
2781.400131  	91.719707 
2782.364556  	91.690673 
2783.328980  	91.717749 
2784.293404  	91.759309 
2785.257829  	91.761232 
2786.222253  	91.745199 
2787.186678  	91.708503 
2788.151102  	91.677758 
2789.115527  	91.710467 
2790.079951  	91.696650 
2791.044376  	91.693713 
2792.008800  	91.693335 
2792.973225  	91.665810 
2793.937649  	91.645934 
2794.902073  	91.644469 
2795.866498  	91.653657 
2796.830922  	91.639296 
2797.795347  	91.615454 
2798.759771  	91.624351 
2799.724196  	91.611770 
2800.688620  	91.584377 
2801.653045  	91.582379 
2802.617469  	91.586755 
2803.581894  	91.624146 
2804.546318  	91.626016 
2805.510743  	91.583539 
2806.475167  	91.566496 
2807.439591  	91.572137 
2808.404016  	91.554185 
2809.368440  	91.557316 
2810.332865  	91.595498 
2811.297289  	91.570940 
2812.261714  	91.541506 
2813.226138  	91.549229 
2814.190563  	91.550820 
2815.154987  	91.537376 
2816.119412  	91.542841 
2817.083836  	91.535976 
2818.048260  	91.522839 
2819.012685  	91.510785 
2819.977109  	91.539588 
2820.941534  	91.516006 
2821.905958  	91.499900 
2822.870383  	91.480682 
2823.834807  	91.466556 
2824.799232  	91.439527 
2825.763656  	91.445162 
2826.728081  	91.443546 
2827.692505  	91.410193 
2828.656929  	91.416379 
2829.621354  	91.430636 
2830.585778  	91.408908 
2831.550203  	91.353978 
2832.514627  	91.311125 
2833.479052  	91.302563 
2834.443476  	91.279141 
2835.407901  	91.237411 
2836.372325  	91.200908 
2837.336750  	91.171128 
2838.301174  	91.109921 
2839.265598  	91.051636 
2840.230023  	91.008218 
2841.194447  	90.952526 
2842.158872  	90.843934 
2843.123296  	90.723253 
2844.087721  	90.588736 
2845.052145  	90.398082 
2846.016570  	90.172636 
2846.980994  	89.946899 
2847.945419  	89.687904 
2848.909843  	89.471060 
2849.874267  	89.401098 
2850.838692  	89.489217 
2851.803116  	89.623933 
2852.767541  	89.755768 
2853.731965  	89.897929 
2854.696390  	90.056846 
2855.660814  	90.163269 
2856.625239  	90.232729 
2857.589663  	90.314430 
2858.554088  	90.385814 
2859.518512  	90.443886 
2860.482936  	90.473749 
2861.447361  	90.475739 
2862.411785  	90.531784 
2863.376210  	90.615712 
2864.340634  	90.624515 
2865.305059  	90.610986 
2866.269483  	90.630208 
2867.233908  	90.618893 
2868.198332  	90.615117 
2869.162757  	90.600968 
2870.127181  	90.593910 
2871.091606  	90.579949 
2872.056030  	90.591768 
2873.020454  	90.622108 
2873.984879  	90.605696 
2874.949303  	90.555254 
2875.913728  	90.576468 
2876.878152  	90.596045 
2877.842577  	90.545554 
2878.807001  	90.540803 
2879.771426  	90.578147 
2880.735850  	90.548570 
2881.700275  	90.524827 
2882.664699  	90.504569 
2883.629123  	90.459756 
2884.593548  	90.450840 
2885.557972  	90.439131 
2886.522397  	90.391776 
2887.486821  	90.351508 
2888.451246  	90.299519 
2889.415670  	90.264409 
2890.380095  	90.240441 
2891.344519  	90.211631 
2892.308944  	90.208883 
2893.273368  	90.170504 
2894.237792  	90.144104 
2895.202217  	90.068851 
2896.166641  	90.030929 
2897.131066  	90.024767 
2898.095490  	89.985159 
2899.059915  	89.935608 
2900.024339  	89.858435 
2900.988764  	89.807490 
2901.953188  	89.776879 
2902.917613  	89.691185 
2903.882037  	89.593880 
2904.846461  	89.529374 
2905.810886  	89.452863 
2906.775310  	89.381345 
2907.739735  	89.300489 
2908.704159  	89.218379 
2909.668584  	89.174574 
2910.633008  	89.117005 
2911.597433  	89.064449 
2912.561857  	89.001384 
2913.526282  	88.832979 
2914.490706  	88.600887 
2915.455130  	88.418109 
2916.419555  	88.319312 
2917.383979  	88.304129 
2918.348404  	88.346669 
2919.312828  	88.429573 
2920.277253  	88.512150 
2921.241677  	88.609478 
2922.206102  	88.748268 
2923.170526  	88.872407 
2924.134951  	89.012352 
2925.099375  	89.137338 
2926.063800  	89.227144 
2927.028224  	89.312564 
2927.992648  	89.389051 
2928.957073  	89.515815 
2929.921497  	89.604844 
2930.885922  	89.674767 
2931.850346  	89.765752 
2932.814771  	89.851264 
2933.779195  	89.924144 
2934.743620  	89.997491 
2935.708044  	90.028747 
2936.672469  	90.067694 
2937.636893  	90.137237 
2938.601317  	90.203349 
2939.565742  	90.258666 
2940.530166  	90.281157 
2941.494591  	90.274323 
2942.459015  	90.257063 
2943.423440  	90.232806 
2944.387864  	90.224141 
2945.352289  	90.220128 
2946.316713  	90.218391 
2947.281138  	90.195947 
2948.245562  	90.163885 
2949.209986  	90.095297 
2950.174411  	90.013127 
2951.138835  	90.023643 
2952.103260  	89.988766 
2953.067684  	89.895378 
2954.032109  	89.856469 
2954.996533  	89.826757 
2955.960958  	89.776396 
2956.925382  	89.741306 
2957.889807  	89.739158 
2958.854231  	89.704475 
2959.818655  	89.645719 
2960.783080  	89.643786 
2961.747504  	89.647581 
2962.711929  	89.675901 
2963.676353  	89.680067 
2964.640778  	89.646852 
2965.605202  	89.625376 
2966.569627  	89.605811 
2967.534051  	89.686752 
2968.498476  	89.808536 
2969.462900  	89.833422 
2970.427324  	89.819674 
2971.391749  	89.846660 
2972.356173  	89.937458 
2973.320598  	90.018086 
2974.285022  	90.098548 
2975.249447  	90.154027 
2976.213871  	90.243131 
2977.178296  	90.335950 
2978.142720  	90.393594 
2979.107145  	90.467818 
2980.071569  	90.542714 
2981.035993  	90.589492 
2982.000418  	90.688097 
2982.964842  	90.781111 
2983.929267  	90.820317 
2984.893691  	90.876462 
2985.858116  	90.911164 
2986.822540  	90.929832 
2987.786965  	90.948033 
2988.751389  	90.983051 
2989.715814  	91.021675 
2990.680238  	91.050200 
2991.644663  	91.071671 
2992.609087  	91.077550 
2993.573511  	91.070286 
2994.537936  	91.093523 
2995.502360  	91.163802 
2996.466785  	91.164006 
2997.431209  	91.194029 
2998.395634  	91.231256 
2999.360058  	91.243942 
3000.324483  	91.250716 
3001.288907  	91.242407 
3002.253332  	91.239063 
3003.217756  	91.241228 
3004.182180  	91.192830 
3005.146605  	91.189583 
3006.111029  	91.265609 
3007.075454  	91.316982 
3008.039878  	91.343028 
3009.004303  	91.398564 
3009.968727  	91.390684 
3010.933152  	91.355848 
3011.897576  	91.336322 
3012.862001  	91.248503 
3013.826425  	91.327076 
3014.790849  	91.474325 
3015.755274  	91.486031 
3016.719698  	91.492350 
3017.684123  	91.562525 
3018.648547  	91.587044 
3019.612972  	91.590959 
3020.577396  	91.628914 
3021.541821  	91.681626 
3022.506245  	91.678644 
3023.470670  	91.658119 
3024.435094  	91.666836 
3025.399518  	91.659565 
3026.363943  	91.727601 
3027.328367  	91.772894 
3028.292792  	91.744291 
3029.257216  	91.737603 
3030.221641  	91.674550 
3031.186065  	91.567179 
3032.150490  	91.556018 
3033.114914  	91.672244 
3034.079339  	91.663211 
3035.043763  	91.623251 
3036.008187  	91.668621 
3036.972612  	91.723339 
3037.937036  	91.722307 
3038.901461  	91.697719 
3039.865885  	91.705678 
3040.830310  	91.714241 
3041.794734  	91.679195 
3042.759159  	91.680269 
3043.723583  	91.702428 
3044.688008  	91.687959 
3045.652432  	91.686958 
3046.616857  	91.655742 
3047.581281  	91.591122 
3048.545705  	91.512775 
3049.510130  	91.454130 
3050.474554  	91.425749 
3051.438979  	91.440255 
3052.403403  	91.463522 
3053.367828  	91.410833 
3054.332252  	91.360888 
3055.296677  	91.373651 
3056.261101  	91.303513 
3057.225526  	91.318212 
3058.189950  	91.458500 
3059.154374  	91.503960 
3060.118799  	91.509181 
3061.083223  	91.524857 
3062.047648  	91.525362 
3063.012072  	91.489270 
3063.976497  	91.373861 
3064.940921  	91.330367 
3065.905346  	91.410650 
3066.869770  	91.360803 
3067.834195  	91.347298 
3068.798619  	91.413366 
3069.763043  	91.410738 
3070.727468  	91.432772 
3071.691892  	91.474659 
3072.656317  	91.439864 
3073.620741  	91.437828 
3074.585166  	91.480063 
3075.549590  	91.487126 
3076.514015  	91.459643 
3077.478439  	91.427393 
3078.442864  	91.428959 
3079.407288  	91.400520 
3080.371712  	91.392063 
3081.336137  	91.438204 
3082.300561  	91.462648 
3083.264986  	91.513070 
3084.229410  	91.536090 
3085.193835  	91.488700 
3086.158259  	91.471081 
3087.122684  	91.449522 
3088.087108  	91.455643 
3089.051533  	91.536722 
3090.015957  	91.520342 
3090.980381  	91.536939 
3091.944806  	91.603608 
3092.909230  	91.618316 
3093.873655  	91.588394 
3094.838079  	91.527481 
3095.802504  	91.484546 
3096.766928  	91.510999 
3097.731353  	91.534317 
3098.695777  	91.529322 
3099.660202  	91.512845 
3100.624626  	91.476112 
3101.589050  	91.416167 
3102.553475  	91.397482 
3103.517899  	91.427097 
3104.482324  	91.496578 
3105.446748  	91.502926 
3106.411173  	91.467261 
3107.375597  	91.473451 
3108.340022  	91.503668 
3109.304446  	91.540826 
3110.268871  	91.508767 
3111.233295  	91.467671 
3112.197720  	91.462969 
3113.162144  	91.498769 
3114.126568  	91.564273 
3115.090993  	91.544415 
3116.055417  	91.513560 
3117.019842  	91.576020 
3117.984266  	91.568237 
3118.948691  	91.509339 
3119.913115  	91.543372 
3120.877540  	91.586689 
3121.841964  	91.540233 
3122.806389  	91.485738 
3123.770813  	91.513398 
3124.735237  	91.555169 
3125.699662  	91.549458 
3126.664086  	91.489479 
3127.628511  	91.478918 
3128.592935  	91.556136 
3129.557360  	91.607954 
3130.521784  	91.613706 
3131.486209  	91.579042 
3132.450633  	91.500270 
3133.415058  	91.413114 
3134.379482  	91.538262 
3135.343906  	91.620150 
3136.308331  	91.598057 
3137.272755  	91.567139 
3138.237180  	91.589423 
3139.201604  	91.657483 
3140.166029  	91.665844 
3141.130453  	91.633018 
3142.094878  	91.581247 
3143.059302  	91.536491 
3144.023727  	91.555227 
3144.988151  	91.621174 
3145.952575  	91.586074 
3146.917000  	91.506688 
3147.881424  	91.536734 
3148.845849  	91.616541 
3149.810273  	91.622428 
3150.774698  	91.634484 
3151.739122  	91.594842 
3152.703547  	91.547630 
3153.667971  	91.537933 
3154.632396  	91.573646 
3155.596820  	91.596304 
3156.561244  	91.513700 
3157.525669  	91.499078 
3158.490093  	91.522140 
3159.454518  	91.539332 
3160.418942  	91.532540 
3161.383367  	91.554759 
3162.347791  	91.521572 
3163.312216  	91.451663 
3164.276640  	91.487308 
3165.241065  	91.525917 
3166.205489  	91.562739 
3167.169914  	91.542921 
3168.134338  	91.503219 
3169.098762  	91.507024 
3170.063187  	91.444617 
3171.027611  	91.421937 
3171.992036  	91.478297 
3172.956460  	91.501156 
3173.920885  	91.455317 
3174.885309  	91.437910 
3175.849734  	91.428029 
3176.814158  	91.419106 
3177.778583  	91.375517 
3178.743007  	91.368898 
3179.707431  	91.374689 
3180.671856  	91.402556 
3181.636280  	91.462489 
3182.600705  	91.494473 
3183.565129  	91.413754 
3184.529554  	91.389693 
3185.493978  	91.459354 
3186.458403  	91.476435 
3187.422827  	91.412370 
3188.387252  	91.378660 
3189.351676  	91.435931 
3190.316100  	91.456930 
3191.280525  	91.443401 
3192.244949  	91.434324 
3193.209374  	91.436903 
3194.173798  	91.362169 
3195.138223  	91.334217 
3196.102647  	91.316814 
3197.067072  	91.251860 
3198.031496  	91.217219 
3198.995921  	91.323955 
3199.960345  	91.418428 
3200.924769  	91.425814 
3201.889194  	91.415830 
3202.853618  	91.390570 
3203.818043  	91.334181 
3204.782467  	91.310187 
3205.746892  	91.325100 
3206.711316  	91.298559 
3207.675741  	91.249265 
3208.640165  	91.287229 
3209.604590  	91.294270 
3210.569014  	91.266228 
3211.533438  	91.297390 
3212.497863  	91.289445 
3213.462287  	91.252094 
3214.426712  	91.194812 
3215.391136  	91.213202 
3216.355561  	91.262349 
3217.319985  	91.265736 
3218.284410  	91.230586 
3219.248834  	91.172657 
3220.213259  	91.215384 
3221.177683  	91.266064 
3222.142107  	91.235724 
3223.106532  	91.229356 
3224.070956  	91.247310 
3225.035381  	91.210070 
3225.999805  	91.164669 
3226.964230  	91.170467 
3227.928654  	91.178886 
3228.893079  	91.242819 
3229.857503  	91.215683 
3230.821928  	91.134187 
3231.786352  	91.146759 
3232.750777  	91.163133 
3233.715201  	91.201353 
3234.679625  	91.174677 
3235.644050  	91.143625 
3236.608474  	91.134610 
3237.572899  	91.105757 
3238.537323  	91.126026 
3239.501748  	91.086997 
3240.466172  	91.073343 
3241.430597  	91.167561 
3242.395021  	91.190372 
3243.359446  	91.129200 
3244.323870  	91.063492 
3245.288294  	90.934358 
3246.252719  	91.004744 
3247.217143  	91.102633 
3248.181568  	91.076165 
3249.145992  	91.028861 
3250.110417  	91.014512 
3251.074841  	91.030979 
3252.039266  	91.072649 
3253.003690  	91.057383 
3253.968115  	90.928785 
3254.932539  	90.883771 
3255.896963  	90.953325 
3256.861388  	90.940354 
3257.825812  	90.997190 
3258.790237  	90.979003 
3259.754661  	90.886355 
3260.719086  	90.858841 
3261.683510  	90.951706 
3262.647935  	90.978492 
3263.612359  	90.990990 
3264.576784  	90.976993 
3265.541208  	90.912565 
3266.505632  	90.882073 
3267.470057  	90.927994 
3268.434481  	90.925501 
3269.398906  	90.847240 
3270.363330  	90.812626 
3271.327755  	90.839986 
3272.292179  	90.808329 
3273.256604  	90.761969 
3274.221028  	90.781125 
3275.185453  	90.843423 
3276.149877  	90.826821 
3277.114301  	90.795685 
3278.078726  	90.813433 
3279.043150  	90.759710 
3280.007575  	90.729310 
3280.971999  	90.755962 
3281.936424  	90.837680 
3282.900848  	90.831190 
3283.865273  	90.779586 
3284.829697  	90.788228 
3285.794122  	90.814876 
3286.758546  	90.815366 
3287.722971  	90.751359 
3288.687395  	90.726314 
3289.651819  	90.794458 
3290.616244  	90.802929 
3291.580668  	90.748699 
3292.545093  	90.726094 
3293.509517  	90.750513 
3294.473942  	90.831044 
3295.438366  	90.832976 
3296.402791  	90.845842 
3297.367215  	90.815827 
3298.331640  	90.750678 
3299.296064  	90.794234 
3300.260488  	90.813316 
3301.224913  	90.829384 
3302.189337  	90.865387 
3303.153762  	90.798235 
3304.118186  	90.776629 
3305.082611  	90.844186 
3306.047035  	90.919954 
3307.011460  	90.985847 
3307.975884  	90.891492 
3308.940309  	90.741357 
3309.904733  	90.783310 
3310.869157  	90.794902 
3311.833582  	90.772731 
3312.798006  	90.824244 
3313.762431  	90.842017 
3314.726855  	90.861166 
3315.691280  	90.810685 
3316.655704  	90.787726 
3317.620129  	90.812671 
3318.584553  	90.827273 
3319.548978  	90.842438 
3320.513402  	90.867956 
3321.477826  	90.887009 
3322.442251  	90.870672 
3323.406675  	90.887254 
3324.371100  	90.891024 
3325.335524  	90.833372 
3326.299949  	90.799916 
3327.264373  	90.744322 
3328.228798  	90.744765 
3329.193222  	90.736144 
3330.157647  	90.707511 
3331.122071  	90.750703 
3332.086495  	90.864087 
3333.050920  	90.838806 
3334.015344  	90.709734 
3334.979769  	90.627162 
3335.944193  	90.687711 
3336.908618  	90.648842 
3337.873042  	90.690589 
3338.837467  	90.811958 
3339.801891  	90.766686 
3340.766316  	90.773039 
3341.730740  	90.765881 
3342.695164  	90.715607 
3343.659589  	90.799624 
3344.624013  	90.932328 
3345.588438  	90.933587 
3346.552862  	90.900627 
3347.517287  	90.890028 
3348.481711  	90.867994 
3349.446136  	90.858284 
3350.410560  	90.895556 
3351.374985  	90.973292 
3352.339409  	90.983782 
3353.303834  	90.940848 
3354.268258  	90.940682 
3355.232682  	90.906989 
3356.197107  	90.791640 
3357.161531  	90.857827 
3358.125956  	90.987142 
3359.090380  	90.985597 
3360.054805  	90.855892 
3361.019229  	90.835393 
3361.983654  	90.819594 
3362.948078  	90.904237 
3363.912503  	91.015533 
3364.876927  	90.951657 
3365.841351  	90.914332 
3366.805776  	90.923477 
3367.770200  	90.873955 
3368.734625  	90.895378 
3369.699049  	90.971499 
3370.663474  	91.062690 
3371.627898  	91.086016 
3372.592323  	91.032604 
3373.556747  	91.020146 
3374.521172  	91.068071 
3375.485596  	91.097229 
3376.450020  	91.051240 
3377.414445  	91.025676 
3378.378869  	90.997608 
3379.343294  	91.044881 
3380.307718  	91.101166 
3381.272143  	91.173105 
3382.236567  	91.121381 
3383.200992  	91.050924 
3384.165416  	90.994679 
3385.129841  	90.965910 
3386.094265  	91.021528 
3387.058689  	91.091839 
3388.023114  	91.145206 
3388.987538  	91.161769 
3389.951963  	91.140500 
3390.916387  	91.095555 
3391.880812  	91.019357 
3392.845236  	90.822201 
3393.809661  	90.839926 
3394.774085  	91.068950 
3395.738510  	91.120665 
3396.702934  	91.050030 
3397.667358  	90.926054 
3398.631783  	91.050669 
3399.596207  	91.220089 
3400.560632  	91.174956 
3401.525056  	91.125091 
3402.489481  	91.196108 
3403.453905  	91.151309 
3404.418330  	91.101049 
3405.382754  	91.120648 
3406.347179  	91.108341 
3407.311603  	91.066133 
3408.276028  	91.034281 
3409.240452  	91.000655 
3410.204876  	90.984402 
3411.169301  	91.043425 
3412.133725  	91.110832 
3413.098150  	91.122135 
3414.062574  	91.073695 
3415.026999  	91.049928 
3415.991423  	90.990363 
3416.955848  	90.999503 
3417.920272  	90.998053 
3418.884697  	90.991196 
3419.849121  	90.794711 
3420.813545  	90.516689 
3421.777970  	90.588856 
3422.742394  	90.731376 
3423.706819  	90.817663 
3424.671243  	90.946107 
3425.635668  	91.040992 
3426.600092  	90.963717 
3427.564517  	90.907588 
3428.528941  	90.950226 
3429.493366  	90.975393 
3430.457790  	90.922485 
3431.422214  	90.856370 
3432.386639  	90.911969 
3433.351063  	91.039828 
3434.315488  	91.136725 
3435.279912  	91.126373 
3436.244337  	91.070492 
3437.208761  	91.054924 
3438.173186  	91.100874 
3439.137610  	91.107774 
3440.102035  	91.155700 
3441.066459  	91.235839 
3442.030883  	91.105392 
3442.995308  	90.867245 
3443.959732  	90.998354 
3444.924157  	91.106616 
3445.888581  	91.103135 
3446.853006  	90.707080 
3447.817430  	90.331631 
3448.781855  	90.879512 
3449.746279  	91.227394 
3450.710704  	91.307179 
3451.675128  	91.337160 
3452.639552  	91.360446 
3453.603977  	91.349692 
3454.568401  	91.384019 
3455.532826  	91.376075 
3456.497250  	91.361178 
3457.461675  	91.334777 
3458.426099  	91.312958 
3459.390524  	91.362629 
3460.354948  	91.434055 
3461.319373  	91.283158 
3462.283797  	91.122436 
3463.248221  	91.111533 
3464.212646  	91.357029 
3465.177070  	91.454650 
3466.141495  	91.398078 
3467.105919  	91.236314 
3468.070344  	91.383594 
3469.034768  	91.595486 
3469.999193  	91.527502 
3470.963617  	91.399772 
3471.928042  	91.409685 
3472.892466  	91.518548 
3473.856891  	91.596409 
3474.821315  	91.500091 
3475.785739  	91.515695 
3476.750164  	91.624850 
3477.714588  	91.663342 
3478.679013  	91.638432 
3479.643437  	91.529560 
3480.607862  	91.201263 
3481.572286  	91.064604 
3482.536711  	91.023041 
3483.501135  	91.268566 
3484.465560  	91.472302 
3485.429984  	91.466461 
3486.394408  	91.497241 
3487.358833  	91.495852 
3488.323257  	91.243457 
3489.287682  	91.300517 
3490.252106  	91.549952 
3491.216531  	91.565129 
3492.180955  	91.576349 
3493.145380  	91.614438 
3494.109804  	91.670817 
3495.074229  	91.522396 
3496.038653  	91.277881 
3497.003077  	91.220002 
3497.967502  	91.444928 
3498.931926  	91.608899 
3499.896351  	91.548890 
3500.860775  	91.467154 
3501.825200  	91.113332 
3502.789624  	90.602251 
3503.754049  	90.505283 
3504.718473  	90.889892 
3505.682898  	91.252980 
3506.647322  	91.538825 
3507.611746  	91.661308 
3508.576171  	91.410698 
3509.540595  	90.776545 
3510.505020  	90.897760 
3511.469444  	91.312291 
3512.433869  	91.435180 
3513.398293  	91.569049 
3514.362718  	91.668418 
3515.327142  	91.736932 
3516.291567  	91.688066 
3517.255991  	91.546692 
3518.220415  	91.489727 
3519.184840  	91.503564 
3520.149264  	91.576437 
3521.113689  	91.707786 
3522.078113  	91.511669 
3523.042538  	90.772682 
3524.006962  	90.360283 
3524.971387  	90.703802 
3525.935811  	90.885948 
3526.900236  	90.780752 
3527.864660  	90.614863 
3528.829085  	90.756318 
3529.793509  	90.995838 
3530.757933  	91.254884 
3531.722358  	91.221904 
3532.686782  	91.478934 
3533.651207  	91.694347 
3534.615631  	91.719614 
3535.580056  	91.452183 
3536.544480  	90.825924 
3537.508905  	91.022769 
3538.473329  	91.576027 
3539.437754  	91.537325 
3540.402178  	91.553956 
3541.366602  	91.614703 
3542.331027  	91.650833 
3543.295451  	91.377441 
3544.259876  	90.959661 
3545.224300  	90.174743 
3546.188725  	89.897021 
3547.153149  	89.944931 
3548.117574  	90.447635 
3549.081998  	91.259020 
3550.046423  	91.504496 
3551.010847  	91.426506 
3551.975271  	90.860869 
3552.939696  	90.560946 
3553.904120  	90.958732 
3554.868545  	91.404976 
3555.832969  	91.766967 
3556.797394  	91.698888 
3557.761818  	91.696351 
3558.726243  	91.774967 
3559.690667  	91.323926 
3560.655092  	90.803345 
3561.619516  	91.209050 
3562.583940  	91.282626 
3563.548365  	91.149607 
3564.512789  	91.037156 
3565.477214  	90.262871 
3566.441638  	88.166375 
3567.406063  	87.958067 
3568.370487  	88.416570 
3569.334912  	89.824189 
3570.299336  	90.998759 
3571.263761  	91.257992 
3572.228185  	91.594951 
3573.192609  	91.613486 
3574.157034  	91.500971 
3575.121458  	91.446461 
3576.085883  	91.521234 
3577.050307  	91.454828 
3578.014732  	91.519151 
3578.979156  	91.628956 
3579.943581  	91.233477 
3580.908005  	91.190396 
3581.872430  	91.639687 
3582.836854  	91.713493 
3583.801278  	91.555427 
3584.765703  	91.514670 
3585.730127  	91.135539 
3586.694552  	89.552805 
3587.658976  	88.621806 
3588.623401  	89.018804 
3589.587825  	90.004379 
3590.552250  	91.301131 
3591.516674  	91.725137 
3592.481099  	91.646050 
3593.445523  	90.900664 
3594.409948  	90.891740 
3595.374372  	90.501268 
3596.338796  	90.274488 
3597.303221  	91.132633 
3598.267645  	91.214536 
3599.232070  	90.896575 
3600.196494  	91.008419 
3601.160919  	90.704211 
3602.125343  	90.965601 
3603.089768  	91.257429 
3604.054192  	91.596774 
3605.018617  	91.861969 
3605.983041  	91.712853 
3606.947465  	90.618465 
3607.911890  	89.985281 
3608.876314  	90.245525 
3609.840739  	89.985279 
3610.805163  	91.036151 
3611.769588  	91.121506 
3612.734012  	89.848035 
3613.698437  	89.819118 
3614.662861  	90.069416 
3615.627286  	90.182091 
3616.591710  	91.172777 
3617.556134  	90.605175 
3618.520559  	89.683429 
3619.484983  	89.596686 
3620.449408  	89.562033 
3621.413832  	90.356345 
3622.378257  	91.153060 
3623.342681  	91.601065 
3624.307106  	91.838398 
3625.271530  	91.830907 
3626.235955  	91.305625 
3627.200379  	91.040268 
3628.164803  	90.162925 
3629.129228  	87.433560 
3630.093652  	87.914860 
3631.058077  	90.279419 
3632.022501  	91.285409 
3632.986926  	91.363651 
3633.951350  	90.694738 
3634.915775  	90.990440 
3635.880199  	91.688418 
3636.844624  	91.827638 
3637.809048  	91.660427 
3638.773472  	91.564995 
3639.737897  	91.835248 
3640.702321  	91.894836 
3641.666746  	91.636952 
3642.631170  	91.191963 
3643.595595  	91.432746 
3644.560019  	91.810652 
3645.524444  	91.530175 
3646.488868  	90.497952 
3647.453293  	88.685869 
3648.417717  	88.717591 
3649.382142  	88.613563 
3650.346566  	87.716853 
3651.310990  	87.942035 
3652.275415  	90.009433 
3653.239839  	91.386972 
3654.204264  	91.836186 
3655.168688  	91.783326 
3656.133113  	90.852469 
3657.097537  	90.371361 
3658.061962  	91.451739 
3659.026386  	91.809068 
3659.990811  	91.733714 
3660.955235  	91.884221 
3661.919659  	92.163688 
3662.884084  	92.236540 
3663.848508  	92.240773 
3664.812933  	92.184645 
3665.777357  	92.155642 
3666.741782  	92.170891 
3667.706206  	92.090815 
3668.670631  	91.191846 
3669.635055  	89.960590 
3670.599480  	89.300253 
3671.563904  	89.771147 
3672.528328  	91.323429 
3673.492753  	91.692855 
3674.457177  	90.556918 
3675.421602  	87.788450 
3676.386026  	88.146695 
3677.350451  	89.986837 
3678.314875  	90.867360 
3679.279300  	90.950137 
3680.243724  	90.946491 
3681.208149  	91.713990 
3682.172573  	92.142220 
3683.136997  	92.212509 
3684.101422  	92.125246 
3685.065846  	91.971210 
3686.030271  	92.054506 
3686.994695  	91.895914 
3687.959120  	91.132160 
3688.923544  	89.982681 
3689.887969  	90.447309 
3690.852393  	90.060715 
3691.816818  	89.894208 
3692.781242  	91.383346 
3693.745666  	91.874958 
3694.710091  	92.063656 
3695.674515  	92.179335 
3696.638940  	92.017332 
3697.603364  	92.124311 
3698.567789  	92.369515 
3699.532213  	92.304133 
3700.496638  	92.245633 
3701.461062  	91.515159 
3702.425487  	90.820132 
3703.389911  	91.764218 
3704.354335  	92.287597 
3705.318760  	92.176251 
3706.283184  	92.140472 
3707.247609  	92.240870 
3708.212033  	92.185617 
3709.176458  	91.533176 
3710.140882  	90.823922 
3711.105307  	90.522400 
3712.069731  	89.581827 
3713.034156  	89.749250 
3713.998580  	91.166564 
3714.963005  	91.267258 
3715.927429  	91.608410 
3716.891853  	92.264931 
3717.856278  	92.282854 
3718.820702  	91.551464 
3719.785127  	91.233940 
3720.749551  	91.929019 
3721.713976  	91.543923 
3722.678400  	90.234478 
3723.642825  	90.815207 
3724.607249  	91.178283 
3725.571674  	90.488233 
3726.536098  	90.252982 
3727.500522  	90.517460 
3728.464947  	91.506422 
3729.429371  	92.111637 
3730.393796  	92.066582 
3731.358220  	91.665433 
3732.322645  	90.822770 
3733.287069  	90.825349 
3734.251494  	90.344912 
3735.215918  	87.243225 
3736.180343  	87.376377 
3737.144767  	89.083975 
3738.109191  	90.120947 
3739.073616  	90.566983 
3740.038040  	91.211915 
3741.002465  	90.937198 
3741.966889  	91.023902 
3742.931314  	91.607020 
3743.895738  	90.768504 
3744.860163  	87.377951 
3745.824587  	89.228897 
3746.789012  	90.539235 
3747.753436  	90.713955 
3748.717860  	90.603034 
3749.682285  	90.010614 
3750.646709  	89.687043 
3751.611134  	89.473136 
3752.575558  	88.294966 
3753.539983  	89.868224 
3754.504407  	90.993647 
3755.468832  	91.570516 
3756.433256  	91.348083 
3757.397681  	91.278354 
3758.362105  	91.508317 
3759.326529  	90.632586 
3760.290954  	90.112029 
3761.255378  	91.519468 
3762.219803  	91.960678 
3763.184227  	92.026743 
3764.148652  	92.061618 
3765.113076  	91.685959 
3766.077501  	90.787514 
3767.041925  	91.443983 
3768.006350  	92.089161 
3768.970774  	91.832122 
3769.935199  	90.854319 
3770.899623  	90.877103 
3771.864047  	91.735130 
3772.828472  	92.145275 
3773.792896  	92.255748 
3774.757321  	92.353512 
3775.721745  	92.485127 
3776.686170  	92.590908 
3777.650594  	92.447061 
3778.615019  	91.991281 
3779.579443  	91.122393 
3780.543868  	91.216388 
3781.508292  	92.085914 
3782.472716  	92.225091 
3783.437141  	92.266001 
3784.401565  	91.922557 
3785.365990  	91.436442 
3786.330414  	91.772247 
3787.294839  	92.130062 
3788.259263  	92.335422 
3789.223688  	92.422015 
3790.188112  	92.447181 
3791.152537  	92.507040 
3792.116961  	92.483021 
3793.081385  	92.484513 
3794.045810  	92.531143 
3795.010234  	92.410948 
3795.974659  	91.849562 
3796.939083  	90.979236 
3797.903508  	91.207061 
3798.867932  	91.808339 
3799.832357  	91.937772 
3800.796781  	91.018187 
3801.761206  	89.547743 
3802.725630  	89.942890 
3803.690054  	91.017128 
3804.654479  	91.916579 
3805.618903  	92.064779 
3806.583328  	91.424844 
3807.547752  	90.664874 
3808.512177  	91.648723 
3809.476601  	92.115842 
3810.441026  	92.163359 
3811.405450  	92.322942 
3812.369875  	92.420115 
3813.334299  	92.472946 
3814.298723  	92.378552 
3815.263148  	91.790464 
3816.227572  	90.368155 
3817.191997  	90.698225 
3818.156421  	91.645473 
3819.120846  	91.604611 
3820.085270  	90.929003 
3821.049695  	89.362858 
3822.014119  	89.144819 
3822.978544  	90.823335 
3823.942968  	91.507560 
3824.907392  	91.807515 
3825.871817  	91.826462 
3826.836241  	91.288495 
3827.800666  	91.237738 
3828.765090  	91.874180 
3829.729515  	92.258026 
3830.693939  	92.161170 
3831.658364  	91.362253 
3832.622788  	91.353574 
3833.587213  	92.044599 
3834.551637  	91.687609 
3835.516062  	90.968251 
3836.480486  	91.496345 
3837.444910  	91.203186 
3838.409335  	89.995726 
3839.373759  	90.408291 
3840.338184  	89.944098 
3841.302608  	89.934462 
3842.267033  	91.306456 
3843.231457  	91.458261 
3844.195882  	90.692287 
3845.160306  	91.475979 
3846.124731  	92.100364 
3847.089155  	92.234579 
3848.053579  	92.286507 
3849.018004  	92.073255 
3849.982428  	91.536650 
3850.946853  	91.529987 
3851.911277  	90.858361 
3852.875702  	89.175631 
3853.840126  	88.423666 
3854.804551  	88.660767 
3855.768975  	90.687635 
3856.733400  	90.963089 
3857.697824  	90.611558 
3858.662248  	91.654979 
3859.626673  	92.322972 
3860.591097  	92.271895 
3861.555522  	91.606922 
3862.519946  	90.981846 
3863.484371  	91.317756 
3864.448795  	90.620660 
3865.413220  	89.467162 
3866.377644  	90.808917 
3867.342069  	91.942919 
3868.306493  	91.912833 
3869.270917  	90.652438 
3870.235342  	88.604921 
3871.199766  	89.890668 
3872.164191  	91.287284 
3873.128615  	91.656517 
3874.093040  	90.420504 
3875.057464  	90.313006 
3876.021889  	91.910612 
3876.986313  	92.338735 
3877.950738  	92.421605 
3878.915162  	92.361571 
3879.879586  	91.407085 
3880.844011  	89.507332 
3881.808435  	90.597926 
3882.772860  	91.674775 
3883.737284  	91.447316 
3884.701709  	91.416462 
3885.666133  	90.648918 
3886.630558  	90.136874 
3887.594982  	91.678569 
3888.559407  	92.297447 
3889.523831  	92.340542 
3890.488256  	91.874648 
3891.452680  	90.592321 
3892.417104  	90.496621 
3893.381529  	91.525616 
3894.345953  	91.532940 
3895.310378  	91.833947 
3896.274802  	92.333016 
3897.239227  	92.351239 
3898.203651  	91.681824 
3899.168076  	90.652907 
3900.132500  	90.447838 
3901.096925  	91.128928 
3902.061349  	89.974922 
3903.025773  	89.940835 
3903.990198  	90.407755 
3904.954622  	89.910625 
3905.919047  	90.243898 
3906.883471  	91.108370 
3907.847896  	92.142908 
3908.812320  	92.457419 
3909.776745  	92.478901 
3910.741169  	92.481117 
3911.705594  	92.466023 
3912.670018  	92.452471 
3913.634442  	92.446228 
3914.598867  	92.471314 
3915.563291  	92.362652 
3916.527716  	91.463358 
3917.492140  	90.637011 
3918.456565  	91.474923 
3919.420989  	91.848410 
3920.385414  	91.195993 
3921.349838  	91.680472 
3922.314263  	92.395740 
3923.278687  	92.092734 
3924.243111  	91.233744 
3925.207536  	90.724485 
3926.171960  	91.463219 
3927.136385  	92.321863 
3928.100809  	92.394799 
3929.065234  	92.174474 
3930.029658  	91.814017 
3930.994083  	91.578628 
3931.958507  	91.185899 
3932.922932  	90.781180 
3933.887356  	91.578120 
3934.851780  	92.064332 
3935.816205  	92.401686 
3936.780629  	92.564497 
3937.745054  	92.460061 
3938.709478  	92.248977 
3939.673903  	92.394939 
3940.638327  	92.492768 
3941.602752  	92.327405 
3942.567176  	91.434035 
3943.531601  	90.943783 
3944.496025  	91.760508 
3945.460449  	92.233307 
3946.424874  	92.345562 
3947.389298  	91.733137 
3948.353723  	91.329413 
3949.318147  	91.640880 
3950.282572  	91.353542 
3951.246996  	91.727462 
3952.211421  	92.323941 
3953.175845  	92.244844 
3954.140270  	92.304758 
3955.104694  	92.432380 
3956.069119  	92.386239 
3957.033543  	92.207077 
3957.997967  	92.196732 
3958.962392  	92.308091 
3959.926816  	92.353565 
3960.891241  	92.311512 
3961.855665  	91.932171 
3962.820090  	91.913889 
3963.784514  	92.391790 
3964.748939  	92.442087 
3965.713363  	92.486874 
3966.677788  	92.512750 
3967.642212  	92.504364 
3968.606636  	92.371399 
3969.571061  	92.201315 
3970.535485  	92.317150 
3971.499910  	92.407899 
3972.464334  	92.237257 
3973.428759  	92.327686 
3974.393183  	92.383707 
3975.357608  	92.197293 
3976.322032  	92.066981 
3977.286457  	92.248531 
3978.250881  	92.484397 
3979.215305  	92.531965 
3980.179730  	92.508236 
3981.144154  	92.468427 
3982.108579  	92.385970 
3983.073003  	92.414380 
3984.037428  	92.581364 
3985.001852  	92.607545 
3985.966277  	92.562338 
3986.930701  	92.596514 
3987.895126  	92.612454 
3988.859550  	92.554362 
3989.823974  	92.443073 
3990.788399  	92.222234 
3991.752823  	92.310895 
3992.717248  	92.484310 
3993.681672  	92.440277 
3994.646097  	92.359191 
3995.610521  	92.270396 
3996.574946  	92.425600 
3997.539370  	92.550723 
3998.503795  	92.619113 
3999.468219  	92.583932 
4000.432643  	92.586442 
4001.397068  	92.576652 
4002.361492  	92.536126 
4003.325917  	92.524808 
4004.290341  	92.567388 
4005.254766  	92.597696 
4006.219190  	92.587967 
4007.183615  	92.533205 
4008.148039  	92.391488 
4009.112464  	92.275714 
4010.076888  	92.422549 
4011.041313  	92.513779 
4012.005737  	92.577893 
4012.970161  	92.543325 
4013.934586  	92.528869 
4014.899010  	92.543432 
4015.863435  	92.495417 
4016.827859  	92.497416 
4017.792284  	92.532971 
4018.756708  	92.549494 
4019.721133  	92.469504 
4020.685557  	92.473433 
4021.649982  	92.562695 
4022.614406  	92.625734 
4023.578830  	92.591008 
4024.543255  	92.511447 
4025.507679  	92.440980 
4026.472104  	92.485680 
4027.436528  	92.594649 
4028.400953  	92.595268 
4029.365377  	92.532863 
4030.329802  	92.506930 
4031.294226  	92.530715 
4032.258651  	92.534937 
4033.223075  	92.578052 
4034.187499  	92.606029 
4035.151924  	92.552527 
4036.116348  	92.537611 
4037.080773  	92.598941 
4038.045197  	92.630433 
4039.009622  	92.593768 
4039.974046  	92.571665 
4040.938471  	92.584075 
4041.902895  	92.586523 
4042.867320  	92.620045 
4043.831744  	92.533150 
4044.796168  	92.418297 
4045.760593  	92.401129 
4046.725017  	92.495076 
4047.689442  	92.541408 
4048.653866  	92.544056 
4049.618291  	92.540961 
4050.582715  	92.554958 
4051.547140  	92.579538 
4052.511564  	92.608607 
4053.475989  	92.593343 
4054.440413  	92.578974 
4055.404837  	92.539496 
4056.369262  	92.561533 
4057.333686  	92.616355 
4058.298111  	92.615402 
4059.262535  	92.580393 
4060.226960  	92.543351 
4061.191384  	92.518300 
4062.155809  	92.576972 
4063.120233  	92.624073 
4064.084658  	92.631417 
4065.049082  	92.613518 
4066.013506  	92.598992 
4066.977931  	92.545658 
4067.942355  	92.533890 
4068.906780  	92.565210 
4069.871204  	92.579115 
4070.835629  	92.586571 
4071.800053  	92.574741 
4072.764478  	92.528743 
4073.728902  	92.499836 
4074.693327  	92.494422 
4075.657751  	92.540926 
4076.622176  	92.544892 
4077.586600  	92.556987 
4078.551024  	92.563655 
4079.515449  	92.527570 
4080.479873  	92.533576 
4081.444298  	92.574746 
4082.408722  	92.511439 
4083.373147  	92.468840 
4084.337571  	92.455050 
4085.301996  	92.458176 
4086.266420  	92.449552 
4087.230845  	92.439411 
4088.195269  	92.418082 
4089.159693  	92.454355 
4090.124118  	92.504858 
4091.088542  	92.497406 
4092.052967  	92.534388 
4093.017391  	92.556455 
4093.981816  	92.543248 
4094.946240  	92.562828 
4095.910665  	92.605448 
4096.875089  	92.660882 
4097.839514  	92.638562 
4098.803938  	92.552686 
4099.768362  	92.554250 
4100.732787  	92.564184 
4101.697211  	92.548603 
4102.661636  	92.567511 
4103.626060  	92.589318 
4104.590485  	92.555594 
4105.554909  	92.470440 
4106.519334  	92.456569 
4107.483758  	92.490492 
4108.448183  	92.552331 
4109.412607  	92.583355 
4110.377031  	92.547209 
4111.341456  	92.586788 
4112.305880  	92.663747 
4113.270305  	92.659822 
4114.234729  	92.627750 
4115.199154  	92.640428 
4116.163578  	92.628922 
4117.128003  	92.609188 
4118.092427  	92.569025 
4119.056852  	92.537845 
4120.021276  	92.517181 
4120.985700  	92.522614 
4121.950125  	92.581555 
4122.914549  	92.584353 
4123.878974  	92.617730 
4124.843398  	92.604859 
4125.807823  	92.566741 
4126.772247  	92.584453 
4127.736672  	92.589451 
4128.701096  	92.597536 
4129.665521  	92.599172 
4130.629945  	92.570892 
4131.594370  	92.580819 
4132.558794  	92.594231 
4133.523218  	92.578133 
4134.487643  	92.605043 
4135.452067  	92.622463 
4136.416492  	92.611192 
4137.380916  	92.600146 
4138.345341  	92.552884 
4139.309765  	92.544456 
4140.274190  	92.593151 
4141.238614  	92.608649 
4142.203039  	92.598506 
4143.167463  	92.639694 
4144.131887  	92.608477 
4145.096312  	92.590943 
4146.060736  	92.604625 
4147.025161  	92.623596 
4147.989585  	92.650904 
4148.954010  	92.586866 
4149.918434  	92.547941 
4150.882859  	92.585491 
4151.847283  	92.630221 
4152.811708  	92.624517 
4153.776132  	92.652923 
4154.740556  	92.651819 
4155.704981  	92.614620 
4156.669405  	92.606691 
4157.633830  	92.602623 
4158.598254  	92.578727 
4159.562679  	92.542968 
4160.527103  	92.527750 
4161.491528  	92.578193 
4162.455952  	92.650048 
4163.420377  	92.660215 
4164.384801  	92.629866 
4165.349225  	92.609961 
4166.313650  	92.600970 
4167.278074  	92.592643 
4168.242499  	92.650839 
4169.206923  	92.689700 
4170.171348  	92.653482 
4171.135772  	92.605287 
4172.100197  	92.593884 
4173.064621  	92.595690 
4174.029046  	92.619986 
4174.993470  	92.646782 
4175.957894  	92.660118 
4176.922319  	92.675516 
4177.886743  	92.649040 
4178.851168  	92.609889 
4179.815592  	92.593766 
4180.780017  	92.574369 
4181.744441  	92.667835 
4182.708866  	92.685600 
4183.673290  	92.617226 
4184.637715  	92.638961 
4185.602139  	92.664097 
4186.566563  	92.603099 
4187.530988  	92.569444 
4188.495412  	92.575639 
4189.459837  	92.611825 
4190.424261  	92.613616 
4191.388686  	92.650452 
4192.353110  	92.702988 
4193.317535  	92.705437 
4194.281959  	92.643620 
4195.246384  	92.624136 
4196.210808  	92.642577 
4197.175233  	92.651947 
4198.139657  	92.657124 
4199.104081  	92.647003 
4200.068506  	92.650119 
4201.032930  	92.664361 
4201.997355  	92.686652 
4202.961779  	92.698517 
4203.926204  	92.644733 
4204.890628  	92.626627 
4205.855053  	92.642205 
4206.819477  	92.645301 
4207.783902  	92.638413 
4208.748326  	92.648582 
4209.712750  	92.678668 
4210.677175  	92.711011 
4211.641599  	92.707273 
4212.606024  	92.700601 
4213.570448  	92.704948 
4214.534873  	92.710502 
4215.499297  	92.629523 
4216.463722  	92.588144 
4217.428146  	92.558671 
4218.392571  	92.577779 
4219.356995  	92.648509 
4220.321419  	92.673812 
4221.285844  	92.684769 
4222.250268  	92.693291 
4223.214693  	92.628795 
4224.179117  	92.608344 
4225.143542  	92.605017 
4226.107966  	92.646473 
4227.072391  	92.686884 
4228.036815  	92.628737 
4229.001240  	92.572466 
4229.965664  	92.522969 
4230.930088  	92.526937 
4231.894513  	92.627498 
4232.858937  	92.700698 
4233.823362  	92.731479 
4234.787786  	92.709275 
4235.752211  	92.647235 
4236.716635  	92.630471 
4237.681060  	92.670160 
4238.645484  	92.676102 
4239.609909  	92.634687 
4240.574333  	92.615295 
4241.538757  	92.640271 
4242.503182  	92.655631 
4243.467606  	92.628270 
4244.432031  	92.576151 
4245.396455  	92.592403 
4246.360880  	92.619590 
4247.325304  	92.614613 
4248.289729  	92.654304 
4249.254153  	92.681830 
4250.218578  	92.662959 
4251.183002  	92.679145 
4252.147427  	92.679625 
4253.111851  	92.656012 
4254.076275  	92.600826 
4255.040700  	92.580105 
4256.005124  	92.566957 
4256.969549  	92.642262 
4257.933973  	92.690293 
4258.898398  	92.626630 
4259.862822  	92.554640 
4260.827247  	92.580210 
4261.791671  	92.633372 
4262.756096  	92.691451 
4263.720520  	92.684940 
4264.684944  	92.637863 
4265.649369  	92.611954 
4266.613793  	92.681273 
4267.578218  	92.676970 
4268.542642  	92.620859 
4269.507067  	92.601235 
4270.471491  	92.596959 
4271.435916  	92.609053 
4272.400340  	92.603108 
4273.364765  	92.594030 
4274.329189  	92.588800 
4275.293613  	92.604219 
4276.258038  	92.624847 
4277.222462  	92.632358 
4278.186887  	92.585691 
4279.151311  	92.526131 
4280.115736  	92.546953 
4281.080160  	92.649531 
4282.044585  	92.671248 
4283.009009  	92.625131 
4283.973434  	92.610732 
4284.937858  	92.560804 
4285.902282  	92.568523 
4286.866707  	92.621220 
4287.831131  	92.656920 
4288.795556  	92.679434 
4289.759980  	92.610799 
4290.724405  	92.535979 
4291.688829  	92.587680 
4292.653254  	92.666413 
4293.617678  	92.712171 
4294.582103  	92.720778 
4295.546527  	92.662136 
4296.510951  	92.595827 
4297.475376  	92.628381 
4298.439800  	92.638576 
4299.404225  	92.623479 
4300.368649  	92.630443 
4301.333074  	92.640778 
4302.297498  	92.550059 
4303.261923  	92.517860 
4304.226347  	92.681364 
4305.190772  	92.822500 
4306.155196  	92.765043 
4307.119620  	92.693278 
4308.084045  	92.658246 
4309.048469  	92.643208 
4310.012894  	92.650043 
4310.977318  	92.671047 
4311.941743  	92.686522 
4312.906167  	92.689844 
4313.870592  	92.621770 
4314.835016  	92.642760 
4315.799441  	92.673764 
4316.763865  	92.653595 
4317.728290  	92.641448 
4318.692714  	92.678095 
4319.657138  	92.700816 
4320.621563  	92.679234 
4321.585987  	92.670329 
4322.550412  	92.687627 
4323.514836  	92.643779 
4324.479261  	92.637539 
4325.443685  	92.664316 
4326.408110  	92.722729 
4327.372534  	92.728265 
4328.336959  	92.688950 
4329.301383  	92.677273 
4330.265807  	92.676993 
4331.230232  	92.684532 
4332.194656  	92.702822 
4333.159081  	92.731245 
4334.123505  	92.683085 
4335.087930  	92.604515 
4336.052354  	92.623920 
4337.016779  	92.663404 
4337.981203  	92.685730 
4338.945628  	92.688972 
4339.910052  	92.646866 
4340.874476  	92.630623 
4341.838901  	92.677052 
4342.803325  	92.653703 
4343.767750  	92.634448 
4344.732174  	92.652124 
4345.696599  	92.668642 
4346.661023  	92.696202 
4347.625448  	92.652212 
4348.589872  	92.632121 
4349.554297  	92.698952 
4350.518721  	92.790471 
4351.483145  	92.823216 
4352.447570  	92.720085 
4353.411994  	92.637929 
4354.376419  	92.621306 
4355.340843  	92.697464 
4356.305268  	92.756249 
4357.269692  	92.755700 
4358.234117  	92.769557 
4359.198541  	92.749620 
4360.162966  	92.726870 
4361.127390  	92.634724 
4362.091814  	92.653270 
4363.056239  	92.706944 
4364.020663  	92.723715 
4364.985088  	92.711763 
4365.949512  	92.662326 
4366.913937  	92.662798 
4367.878361  	92.662326 
4368.842786  	92.632953 
4369.807210  	92.670339 
4370.771635  	92.696996 
4371.736059  	92.666805 
4372.700484  	92.656286 
4373.664908  	92.691662 
4374.629332  	92.723552 
4375.593757  	92.721676 
4376.558181  	92.737120 
4377.522606  	92.736150 
4378.487030  	92.702916 
4379.451455  	92.672387 
4380.415879  	92.668871 
4381.380304  	92.647357 
4382.344728  	92.664019 
4383.309153  	92.637580 
4384.273577  	92.676174 
4385.238001  	92.741242 
4386.202426  	92.776920 
4387.166850  	92.763265 
4388.131275  	92.710619 
4389.095699  	92.684629 
4390.060124  	92.710100 
4391.024548  	92.696725 
4391.988973  	92.722906 
4392.953397  	92.764230 
4393.917822  	92.763943 
4394.882246  	92.749538 
4395.846670  	92.684566 
4396.811095  	92.607873 
4397.775519  	92.634654 
4398.739944  	92.708377 
4399.704368  	92.725724 
4400.668793  	92.724960 
4401.633217  	92.647057 
4402.597642  	92.590778 
4403.562066  	92.684109 
4404.526491  	92.725312 
4405.490915  	92.716114 
4406.455339  	92.671482 
4407.419764  	92.672011 
4408.384188  	92.696627 
4409.348613  	92.750073 
4410.313037  	92.732654 
4411.277462  	92.673732 
4412.241886  	92.677392 
4413.206311  	92.688255 
4414.170735  	92.714305 
4415.135160  	92.712941 
4416.099584  	92.679531 
4417.064008  	92.641593 
4418.028433  	92.589981 
4418.992857  	92.596811 
4419.957282  	92.608824 
4420.921706  	92.605247 
4421.886131  	92.636045 
4422.850555  	92.655871 
4423.814980  	92.641460 
4424.779404  	92.649210 
4425.743829  	92.642742 
4426.708253  	92.633919 
4427.672677  	92.644444 
4428.637102  	92.683795 
4429.601526  	92.715508 
4430.565951  	92.697527 
4431.530375  	92.679005 
4432.494800  	92.643931 
4433.459224  	92.565316 
4434.423649  	92.543997 
4435.388073  	92.630434 
4436.352498  	92.753311 
4437.316922  	92.734555 
4438.281347  	92.692158 
4439.245771  	92.617657 
4440.210195  	92.640589 
4441.174620  	92.662162 
4442.139044  	92.615870 
4443.103469  	92.626772 
4444.067893  	92.664076 
4445.032318  	92.675652 
4445.996742  	92.751388 
4446.961167  	92.729376 
4447.925591  	92.642590 
4448.890016  	92.615225 
4449.854440  	92.644290 
4450.818864  	92.667040 
4451.783289  	92.658823 
4452.747713  	92.616645 
4453.712138  	92.619665 
4454.676562  	92.669421 
4455.640987  	92.695586 
4456.605411  	92.676078 
4457.569836  	92.649724 
4458.534260  	92.580316 
4459.498685  	92.582315 
4460.463109  	92.582341 
4461.427533  	92.589633 
4462.391958  	92.563683 
4463.356382  	92.559330 
4464.320807  	92.574290 
4465.285231  	92.616142 
4466.249656  	92.612182 
4467.214080  	92.667850 
4468.178505  	92.688577 
4469.142929  	92.658256 
4470.107354  	92.688404 
4471.071778  	92.728856 
4472.036202  	92.773109 
4473.000627  	92.788702 
4473.965051  	92.737367 
4474.929476  	92.658530 
4475.893900  	92.663966 
4476.858325  	92.690246 
4477.822749  	92.710951 
4478.787174  	92.741660 
4479.751598  	92.707740 
4480.716023  	92.662205 
4481.680447  	92.640847 
4482.644871  	92.674928 
4483.609296  	92.760948 
4484.573720  	92.789584 
4485.538145  	92.717750 
4486.502569  	92.699198 
4487.466994  	92.738695 
4488.431418  	92.780546 
4489.395843  	92.683059 
4490.360267  	92.630240 
4491.324692  	92.675696 
4492.289116  	92.691613 
4493.253541  	92.667274 
4494.217965  	92.717534 
4495.182389  	92.740208 
4496.146814  	92.712589 
4497.111238  	92.725841 
4498.075663  	92.732179 
4499.040087  	92.686001 
4500.004512  	92.633461 
4500.968936  	92.673144 
4501.933361  	92.714330 
4502.897785  	92.731758 
4503.862210  	92.736767 
4504.826634  	92.706916 
4505.791058  	92.687748 
4506.755483  	92.673226 
4507.719907  	92.686904 
4508.684332  	92.762120 
4509.648756  	92.749452 
4510.613181  	92.663509 
4511.577605  	92.707353 
4512.542030  	92.837917 
4513.506454  	92.884821 
4514.470879  	92.735690 
4515.435303  	92.671290 
4516.399727  	92.710672 
4517.364152  	92.686877 
4518.328576  	92.693937 
4519.293001  	92.741341 
4520.257425  	92.763715 
4521.221850  	92.714380 
4522.186274  	92.721033 
4523.150699  	92.702735 
4524.115123  	92.669219 
4525.079548  	92.723627 
4526.043972  	92.732244 
4527.008396  	92.719311 
4527.972821  	92.700968 
4528.937245  	92.686266 
4529.901670  	92.706383 
4530.866094  	92.774930 
4531.830519  	92.714960 
4532.794943  	92.683434 
4533.759368  	92.696346 
4534.723792  	92.751792 
4535.688217  	92.742694 
4536.652641  	92.727141 
4537.617065  	92.764043 
4538.581490  	92.847389 
4539.545914  	92.784910 
4540.510339  	92.798788 
4541.474763  	92.789645 
4542.439188  	92.706399 
4543.403612  	92.663280 
4544.368037  	92.651551 
4545.332461  	92.644212 
4546.296886  	92.661364 
4547.261310  	92.682665 
4548.225734  	92.742270 
4549.190159  	92.768469 
4550.154583  	92.766861 
4551.119008  	92.726499 
4552.083432  	92.718207 
4553.047857  	92.690045 
4554.012281  	92.710247 
4554.976706  	92.724883 
4555.941130  	92.705697 
4556.905555  	92.653651 
4557.869979  	92.716477 
4558.834404  	92.786303 
4559.798828  	92.709014 
4560.763252  	92.656726 
4561.727677  	92.677046 
4562.692101  	92.704428 
4563.656526  	92.776674 
4564.620950  	92.814517 
4565.585375  	92.745422 
4566.549799  	92.702504 
4567.514224  	92.757032 
4568.478648  	92.736010 
4569.443073  	92.650910 
4570.407497  	92.675861 
4571.371921  	92.733758 
4572.336346  	92.689657 
4573.300770  	92.758347 
4574.265195  	92.773006 
4575.229619  	92.732289 
4576.194044  	92.729192 
4577.158468  	92.711291 
4578.122893  	92.730789 
4579.087317  	92.757860 
4580.051742  	92.692517 
4581.016166  	92.752510 
4581.980590  	92.818516 
4582.945015  	92.817894 
4583.909439  	92.773215 
4584.873864  	92.698082 
4585.838288  	92.631855 
4586.802713  	92.709378 
4587.767137  	92.695837 
4588.731562  	92.650996 
4589.695986  	92.661840 
4590.660411  	92.662994 
4591.624835  	92.657416 
4592.589259  	92.742995 
4593.553684  	92.804167 
4594.518108  	92.698964 
4595.482533  	92.661348 
4596.446957  	92.727010 
4597.411382  	92.654519 
4598.375806  	92.654180 
4599.340231  	92.709380 
4600.304655  	92.697005 
4601.269080  	92.723028 
4602.233504  	92.747575 
4603.197928  	92.702218 
4604.162353  	92.688582 
4605.126777  	92.775011 
4606.091202  	92.863783 
4607.055626  	92.838037 
4608.020051  	92.775267 
4608.984475  	92.699862 
4609.948900  	92.705006 
4610.913324  	92.723885 
4611.877749  	92.713589 
4612.842173  	92.730129 
4613.806598  	92.770692 
4614.771022  	92.772966 
4615.735446  	92.755248 
4616.699871  	92.721920 
4617.664295  	92.665398 
4618.628720  	92.638464 
4619.593144  	92.659164 
4620.557569  	92.723689 
4621.521993  	92.723171 
4622.486418  	92.711271 
4623.450842  	92.750564 
4624.415267  	92.696384 
4625.379691  	92.728261 
4626.344115  	92.738262 
4627.308540  	92.679113 
4628.272964  	92.695705 
4629.237389  	92.723535 
4630.201813  	92.664972 
4631.166238  	92.701585 
4632.130662  	92.754662 
4633.095087  	92.694748 
4634.059511  	92.663173 
4635.023936  	92.739759 
4635.988360  	92.774767 
4636.952784  	92.729428 
4637.917209  	92.761890 
4638.881633  	92.700058 
4639.846058  	92.644245 
4640.810482  	92.718383 
4641.774907  	92.713770 
4642.739331  	92.665548 
4643.703756  	92.712233 
4644.668180  	92.745314 
4645.632605  	92.635473 
4646.597029  	92.602058 
4647.561453  	92.655607 
4648.525878  	92.685718 
4649.490302  	92.712722 
4650.454727  	92.750423 
4651.419151  	92.732005 
4652.383576  	92.691629 
4653.348000  	92.715577 
4654.312425  	92.709907 
4655.276849  	92.739957 
4656.241274  	92.772188 
4657.205698  	92.744696 
4658.170122  	92.725569 
4659.134547  	92.725848 
4660.098971  	92.677567 
4661.063396  	92.701830 
4662.027820  	92.813153 
4662.992245  	92.789311 
4663.956669  	92.787808 
4664.921094  	92.871867 
4665.885518  	92.865330 
4666.849943  	92.765140 
4667.814367  	92.692531 
4668.778791  	92.725057 
4669.743216  	92.731391 
4670.707640  	92.647425 
4671.672065  	92.612149 
4672.636489  	92.576674 
4673.600914  	92.635427 
4674.565338  	92.727139 
4675.529763  	92.751678 
4676.494187  	92.753282 
4677.458612  	92.748096 
4678.423036  	92.788975 
4679.387461  	92.838348 
4680.351885  	92.793983 
4681.316309  	92.692112 
4682.280734  	92.679503 
4683.245158  	92.691859 
4684.209583  	92.702204 
4685.174007  	92.739715 
4686.138432  	92.728682 
4687.102856  	92.740725 
4688.067281  	92.764142 
4689.031705  	92.730529 
4689.996130  	92.701966 
4690.960554  	92.690042 
4691.924978  	92.613881 
4692.889403  	92.575007 
4693.853827  	92.625300 
4694.818252  	92.649955 
4695.782676  	92.692907 
4696.747101  	92.738031 
4697.711525  	92.721489 
4698.675950  	92.660981 
4699.640374  	92.624471 