##TITLE=No Description
##DATA TYPE=INFRARED SPECTRUM
##XUNITS=1/CM
##YUNITS=%T
400.236149  	147.695198 
401.200574  	112.176395 
402.164998  	89.122084 
403.129423  	80.672513 
404.093847  	69.242699 
405.058272  	79.087318 
406.022696  	93.612446 
406.987120  	95.543471 
407.951545  	101.292042 
408.915969  	93.643294 
409.880394  	93.945886 
410.844818  	100.366612 
411.809243  	102.410760 
412.773667  	96.218589 
413.738092  	84.671129 
414.702516  	77.113095 
415.666941  	77.253184 
416.631365  	84.848814 
417.595789  	93.564672 
418.560214  	100.586851 
419.524638  	96.810322 
420.489063  	88.402500 
421.453487  	83.851819 
422.417912  	84.276660 
423.382336  	86.969067 
424.346761  	82.855386 
425.311185  	77.255338 
426.275610  	78.116617 
427.240034  	78.809789 
428.204458  	80.470998 
429.168883  	82.440091 
430.133307  	81.305570 
431.097732  	78.610225 
432.062156  	77.391011 
433.026581  	77.230897 
433.991005  	78.406823 
434.955430  	80.268555 
435.919854  	80.528883 
436.884279  	79.422730 
437.848703  	80.252260 
438.813127  	81.308487 
439.777552  	80.956411 
440.741976  	82.062586 
441.706401  	82.632877 
442.670825  	82.250077 
443.635250  	82.678541 
444.599674  	82.583170 
445.564099  	82.968327 
446.528523  	83.513979 
447.492948  	83.580818 
448.457372  	85.670028 
449.421796  	85.062988 
450.386221  	84.041250 
451.350645  	84.240380 
452.315070  	83.446584 
453.279494  	83.815583 
454.243919  	84.086764 
455.208343  	84.090087 
456.172768  	84.109905 
457.137192  	83.908469 
458.101617  	83.861191 
459.066041  	83.883880 
460.030466  	83.719255 
460.994890  	83.850456 
461.959314  	84.229736 
462.923739  	84.340498 
463.888163  	83.426344 
464.852588  	82.824963 
465.817012  	83.187303 
466.781437  	83.102658 
467.745861  	82.414520 
468.710286  	82.461588 
469.674710  	82.352833 
470.639135  	82.380391 
471.603559  	82.668568 
472.567983  	82.920322 
473.532408  	83.010401 
474.496832  	82.563004 
475.461257  	82.206176 
476.425681  	81.703133 
477.390106  	83.037426 
478.354530  	84.022742 
479.318955  	82.950185 
480.283379  	82.197771 
481.247804  	82.405383 
482.212228  	82.042525 
483.176652  	82.255536 
484.141077  	83.182924 
485.105501  	82.611670 
486.069926  	81.839084 
487.034350  	82.174303 
487.998775  	81.858847 
488.963199  	81.660795 
489.927624  	82.322592 
490.892048  	82.230034 
491.856473  	81.511793 
492.820897  	81.394915 
493.785321  	81.415949 
494.749746  	80.841245 
495.714170  	80.705672 
496.678595  	80.490183 
497.643019  	80.004809 
498.607444  	80.065361 
499.571868  	79.481624 
500.536293  	78.904703 
501.500717  	78.475081 
502.465142  	78.144003 
503.429566  	78.749210 
504.393990  	78.920454 
505.358415  	78.861193 
506.322839  	78.372382 
507.287264  	78.699105 
508.251688  	80.082626 
509.216113  	81.233273 
510.180537  	81.704809 
511.144962  	82.310068 
512.109386  	82.703157 
513.073811  	82.935534 
514.038235  	82.986022 
515.002660  	82.492315 
515.967084  	81.456636 
516.931508  	81.136386 
517.895933  	82.230103 
518.860357  	82.840974 
519.824782  	82.273209 
520.789206  	82.503712 
521.753631  	82.914154 
522.718055  	83.107216 
523.682480  	82.920405 
524.646904  	82.712796 
525.611329  	82.519062 
526.575753  	82.587792 
527.540177  	83.046564 
528.504602  	83.188566 
529.469026  	83.375407 
530.433451  	83.593454 
531.397875  	83.559898 
532.362300  	83.491016 
533.326724  	83.843588 
534.291149  	83.856710 
535.255573  	83.940484 
536.219998  	84.030024 
537.184422  	84.273213 
538.148846  	83.976955 
539.113271  	83.679173 
540.077695  	83.570301 
541.042120  	84.013254 
542.006544  	84.291949 
542.970969  	84.113230 
543.935393  	84.332077 
544.899818  	84.219575 
545.864242  	84.195603 
546.828667  	84.372426 
547.793091  	84.192716 
548.757515  	84.095574 
549.721940  	84.380943 
550.686364  	84.278805 
551.650789  	84.663715 
552.615213  	84.508522 
553.579638  	84.458971 
554.544062  	84.423220 
555.508487  	84.423504 
556.472911  	84.250830 
557.437336  	84.228402 
558.401760  	84.509315 
559.366184  	84.764853 
560.330609  	84.311159 
561.295033  	83.895111 
562.259458  	83.976313 
563.223882  	83.941137 
564.188307  	84.007512 
565.152731  	84.241633 
566.117156  	83.992307 
567.081580  	83.594666 
568.046005  	83.666191 
569.010429  	83.686466 
569.974853  	83.740253 
570.939278  	83.808413 
571.903702  	83.929232 
572.868127  	83.940994 
573.832551  	83.687996 
574.796976  	83.691936 
575.761400  	83.330104 
576.725825  	83.396202 
577.690249  	83.609871 
578.654674  	83.612515 
579.619098  	83.428437 
580.583523  	83.244691 
581.547947  	83.556574 
582.512371  	83.773459 
583.476796  	83.638948 
584.441220  	83.365461 
585.405645  	83.354138 
586.370069  	83.900726 
587.334494  	83.956076 
588.298918  	83.672447 
589.263343  	83.485407 
590.227767  	83.525903 
591.192192  	83.153985 
592.156616  	82.909610 
593.121040  	83.278662 
594.085465  	83.520910 
595.049889  	83.585814 
596.014314  	83.584428 
596.978738  	83.555841 
597.943163  	83.593893 
598.907587  	83.360729 
599.872012  	83.064068 
600.836436  	83.188555 
601.800861  	83.339653 
602.765285  	83.300990 
603.729709  	83.240571 
604.694134  	83.241882 
605.658558  	83.303179 
606.622983  	83.231149 
607.587407  	83.057228 
608.551832  	83.144650 
609.516256  	83.207633 
610.480681  	82.931769 
611.445105  	82.793425 
612.409530  	82.931650 
613.373954  	83.067249 
614.338378  	82.826114 
615.302803  	82.605669 
616.267227  	82.573151 
617.231652  	82.820740 
618.196076  	82.773338 
619.160501  	82.583741 
620.124925  	82.218372 
621.089350  	82.104163 
622.053774  	82.128806 
623.018199  	82.376156 
623.982623  	82.253808 
624.947047  	82.068491 
625.911472  	81.972827 
626.875896  	82.010502 
627.840321  	81.868714 
628.804745  	81.791095 
629.769170  	81.437869 
630.733594  	80.838347 
631.698019  	80.703702 
632.662443  	80.913148 
633.626868  	81.210368 
634.591292  	81.590374 
635.555717  	81.571925 
636.520141  	81.766526 
637.484565  	81.771867 
638.448990  	81.652638 
639.413414  	81.542502 
640.377839  	81.622133 
641.342263  	81.640420 
642.306688  	81.483938 
643.271112  	81.441684 
644.235537  	81.445352 
645.199961  	81.354187 
646.164386  	81.345197 
647.128810  	81.318558 
648.093234  	81.160888 
649.057659  	81.012214 
650.022083  	80.952179 
650.986508  	80.996149 
651.950932  	80.944320 
652.915357  	80.649856 
653.879781  	80.528561 
654.844206  	80.684908 
655.808630  	80.733210 
656.773055  	80.364413 
657.737479  	80.287432 
658.701903  	80.229878 
659.666328  	80.090742 
660.630752  	80.061271 
661.595177  	80.078757 
662.559601  	79.969224 
663.524026  	79.862217 
664.488450  	79.817637 
665.452875  	79.665140 
666.417299  	79.511457 
667.381724  	79.309744 
668.346148  	78.087568 
669.310572  	78.237179 
670.274997  	78.677657 
671.239421  	78.835194 
672.203846  	78.767493 
673.168270  	78.519504 
674.132695  	78.187382 
675.097119  	77.907067 
676.061544  	77.602606 
677.025968  	77.272702 
677.990393  	77.064784 
678.954817  	77.008626 
679.919241  	76.945926 
680.883666  	76.854266 
681.848090  	76.736000 
682.812515  	76.721530 
683.776939  	76.593604 
684.741364  	76.420926 
685.705788  	76.279761 
686.670213  	76.223290 
687.634637  	75.892287 
688.599062  	75.514521 
689.563486  	75.293377 
690.527910  	75.069599 
691.492335  	74.695885 
692.456759  	74.364421 
693.421184  	73.974584 
694.385608  	73.526854 
695.350033  	73.016676 
696.314457  	72.528626 
697.278882  	71.860423 
698.243306  	71.073972 
699.207731  	70.283531 
700.172155  	69.586860 
701.136580  	68.858366 
702.101004  	68.172039 
703.065428  	67.589823 
704.029853  	66.982819 
704.994277  	66.307580 
705.958702  	65.593229 
706.923126  	64.846385 
707.887551  	64.103990 
708.851975  	63.426906 
709.816400  	62.453692 
710.780824  	61.319438 
711.745249  	60.245235 
712.709673  	59.092941 
713.674097  	57.844152 
714.638522  	56.480609 
715.602946  	54.973311 
716.567371  	53.287981 
717.531795  	51.705090 
718.496220  	50.185151 
719.460644  	48.757646 
720.425069  	47.497851 
721.389493  	46.634765 
722.353918  	46.144504 
723.318342  	46.061202 
724.282766  	46.672963 
725.247191  	48.264444 
726.211615  	50.544404 
727.176040  	53.144002 
728.140464  	55.747425 
729.104889  	58.414168 
730.069313  	61.067460 
731.033738  	63.755032 
731.998162  	66.420786 
732.962587  	69.210442 
733.927011  	71.972673 
734.891435  	74.558375 
735.855860  	77.177653 
736.820284  	79.687913 
737.784709  	81.928260 
738.749133  	83.825913 
739.713558  	85.333665 
740.677982  	86.595073 
741.642407  	87.527546 
742.606831  	88.176974 
743.571256  	88.563932 
744.535680  	88.738167 
745.500104  	88.897407 
746.464529  	88.988070 
747.428953  	88.907985 
748.393378  	88.851231 
749.357802  	88.646869 
750.322227  	88.530942 
751.286651  	88.488850 
752.251076  	88.367644 
753.215500  	88.221770 
754.179925  	88.094266 
755.144349  	87.973062 
756.108774  	87.918972 
757.073198  	87.788745 
758.037622  	87.636266 
759.002047  	87.390773 
759.966471  	87.252614 
760.930896  	87.117948 
761.895320  	86.945027 
762.859745  	86.890213 
763.824169  	86.878704 
764.788594  	86.734395 
765.753018  	86.509050 
766.717443  	86.340777 
767.681867  	86.173717 
768.646291  	85.962062 
769.610716  	85.827646 
770.575140  	85.691383 
771.539565  	85.510085 
772.503989  	85.194055 
773.468414  	85.020450 
774.432838  	84.978149 
775.397263  	84.904627 
776.361687  	84.725513 
777.326112  	84.668081 
778.290536  	84.550568 
779.254960  	84.432271 
780.219385  	84.235918 
781.183809  	84.090403 
782.148234  	83.664801 
783.112658  	83.656689 
784.077083  	83.500732 
785.041507  	83.139018 
786.005932  	82.918801 
786.970356  	82.590826 
787.934781  	82.232333 
788.899205  	81.963051 
789.863629  	81.722484 
790.828054  	81.450540 
791.792478  	81.170937 
792.756903  	81.044832 
793.721327  	81.238018 
794.685752  	81.638844 
795.650176  	82.259096 
796.614601  	82.868912 
797.579025  	83.296195 
798.543450  	83.354444 
799.507874  	83.375327 
800.472298  	83.415009 
801.436723  	83.347942 
802.401147  	83.206246 
803.365572  	83.114984 
804.329996  	83.084029 
805.294421  	83.029730 
806.258845  	82.936100 
807.223270  	82.936545 
808.187694  	82.972895 
809.152119  	82.930701 
810.116543  	82.854194 
811.080967  	82.798591 
812.045392  	82.756349 
813.009816  	82.738453 
813.974241  	82.741172 
814.938665  	82.714922 
815.903090  	82.640999 
816.867514  	82.540396 
817.831939  	82.495776 
818.796363  	82.481983 
819.760788  	82.433425 
820.725212  	82.384068 
821.689637  	82.246112 
822.654061  	82.094212 
823.618485  	81.914186 
824.582910  	81.803874 
825.547334  	81.686999 
826.511759  	81.518313 
827.476183  	81.418729 
828.440608  	81.284746 
829.405032  	80.997821 
830.369457  	80.778222 
831.333881  	80.645840 
832.298306  	80.459133 
833.262730  	80.207163 
834.227154  	79.967579 
835.191579  	79.690557 
836.156003  	79.386614 
837.120428  	79.071197 
838.084852  	78.758207 
839.049277  	78.525060 
840.013701  	78.269058 
840.978126  	77.903637 
841.942550  	77.554252 
842.906975  	77.221309 
843.871399  	76.885813 
844.835823  	76.588011 
845.800248  	76.383165 
846.764672  	76.362635 
847.729097  	76.651987 
848.693521  	76.907478 
849.657946  	77.241600 
850.622370  	77.704824 
851.586795  	78.056388 
852.551219  	78.157589 
853.515644  	78.320148 
854.480068  	78.570167 
855.444492  	78.678464 
856.408917  	78.748802 
857.373341  	78.871857 
858.337766  	79.054466 
859.302190  	79.107370 
860.266615  	79.061316 
861.231039  	78.978884 
862.195464  	78.843669 
863.159888  	78.598994 
864.124313  	78.258663 
865.088737  	77.822572 
866.053161  	77.221429 
867.017586  	76.352632 
867.982010  	75.262294 
868.946435  	73.843608 
869.910859  	72.058342 
870.875284  	70.344533 
871.839708  	69.501295 
872.804133  	70.251148 
873.768557  	72.230980 
874.732982  	74.280334 
875.697406  	75.872257 
876.661831  	77.017908 
877.626255  	77.958813 
878.590679  	78.778868 
879.555104  	79.490330 
880.519528  	80.181778 
881.483953  	80.794466 
882.448377  	81.248391 
883.412802  	81.692914 
884.377226  	82.074279 
885.341651  	82.352503 
886.306075  	82.475777 
887.270500  	82.531103 
888.234924  	82.569338 
889.199348  	82.531996 
890.163773  	82.459049 
891.128197  	82.409457 
892.092622  	82.383825 
893.057046  	82.264280 
894.021471  	82.155790 
894.985895  	82.100699 
895.950320  	81.998553 
896.914744  	81.951867 
897.879169  	81.959976 
898.843593  	81.996255 
899.808017  	82.044280 
900.772442  	82.026491 
901.736866  	82.056530 
902.701291  	82.178716 
903.665715  	82.298748 
904.630140  	82.410485 
905.594564  	82.453667 
906.558989  	82.559399 
907.523413  	82.765981 
908.487838  	82.840361 
909.452262  	82.851502 
910.416686  	82.999023 
911.381111  	83.080135 
912.345535  	83.011545 
913.309960  	82.945719 
914.274384  	82.945968 
915.238809  	82.929169 
916.203233  	82.866110 
917.167658  	82.833480 
918.132082  	82.790720 
919.096507  	82.760432 
920.060931  	82.740781 
921.025355  	82.665761 
921.989780  	82.537626 
922.954204  	82.428987 
923.918629  	82.352992 
924.883053  	82.317438 
925.847478  	82.251685 
926.811902  	82.150370 
927.776327  	82.076677 
928.740751  	81.985445 
929.705176  	81.930661 
930.669600  	81.850261 
931.634024  	81.716039 
932.598449  	81.624260 
933.562873  	81.534013 
934.527298  	81.446758 
935.491722  	81.342010 
936.456147  	81.222564 
937.420571  	81.141385 
938.384996  	81.043450 
939.349420  	80.901702 
940.313845  	80.786788 
941.278269  	80.709745 
942.242694  	80.640650 
943.207118  	80.504458 
944.171542  	80.378171 
945.135967  	80.250358 
946.100391  	80.095379 
947.064816  	79.946771 
948.029240  	79.818881 
948.993665  	79.692808 
949.958089  	79.535491 
950.922514  	79.348470 
951.886938  	79.189688 
952.851363  	79.005479 
953.815787  	78.784065 
954.780211  	78.594941 
955.744636  	78.448528 
956.709060  	78.256044 
957.673485  	78.002092 
958.637909  	77.724920 
959.602334  	77.471758 
960.566758  	77.252450 
961.531183  	76.993482 
962.495607  	76.657473 
963.460032  	76.422982 
964.424456  	76.217291 
965.388880  	75.906570 
966.353305  	75.644614 
967.317729  	75.524727 
968.282154  	75.405953 
969.246578  	75.314534 
970.211003  	75.335868 
971.175427  	75.438894 
972.139852  	75.600104 
973.104276  	75.851423 
974.068701  	76.184558 
975.033125  	76.555346 
975.997549  	76.910344 
976.961974  	77.236220 
977.926398  	77.526013 
978.890823  	77.775940 
979.855247  	77.980107 
980.819672  	78.098216 
981.784096  	78.196107 
982.748521  	78.269919 
983.712945  	78.250013 
984.677370  	78.124073 
985.641794  	78.012761 
986.606218  	77.947590 
987.570643  	77.884942 
988.535067  	77.793975 
989.499492  	77.737090 
990.463916  	77.674784 
991.428341  	77.568985 
992.392765  	77.414042 
993.357190  	77.285364 
994.321614  	77.174754 
995.286039  	76.996717 
996.250463  	76.785856 
997.214888  	76.549941 
998.179312  	76.299936 
999.143736  	76.031238 
1000.108161  	75.761639 
1001.072585  	75.505298 
1002.037010  	75.218203 
1003.001434  	74.833404 
1003.965859  	74.409347 
1004.930283  	73.981552 
1005.894708  	73.500770 
1006.859132  	72.919480 
1007.823557  	72.203686 
1008.787981  	71.459080 
1009.752405  	70.620930 
1010.716830  	69.622099 
1011.681254  	68.471787 
1012.645679  	67.195745 
1013.610103  	65.781463 
1014.574528  	64.380074 
1015.538952  	63.355329 
1016.503377  	62.985954 
1017.467801  	63.297546 
1018.432226  	64.178520 
1019.396650  	65.534588 
1020.361074  	67.114211 
1021.325499  	68.692152 
1022.289923  	70.154181 
1023.254348  	71.668641 
1024.218772  	73.348084 
1025.183197  	75.133064 
1026.147621  	76.741080 
1027.112046  	77.838491 
1028.076470  	78.373662 
1029.040895  	78.435862 
1030.005319  	78.219414 
1030.969743  	77.906498 
1031.934168  	77.593396 
1032.898592  	77.297317 
1033.863017  	76.959796 
1034.827441  	76.566324 
1035.791866  	76.195204 
1036.756290  	75.838431 
1037.720715  	75.516472 
1038.685139  	75.270907 
1039.649564  	75.062914 
1040.613988  	74.846498 
1041.578412  	74.626591 
1042.542837  	74.457644 
1043.507261  	74.358726 
1044.471686  	74.262135 
1045.436110  	74.153646 
1046.400535  	74.095764 
1047.364959  	74.066446 
1048.329384  	73.994650 
1049.293808  	73.956380 
1050.258233  	73.953957 
1051.222657  	73.925637 
1052.187081  	73.825767 
1053.151506  	73.703737 
1054.115930  	73.593617 
1055.080355  	73.450593 
1056.044779  	73.232809 
1057.009204  	72.946762 
1057.973628  	72.703690 
1058.938053  	72.433366 
1059.902477  	72.033112 
1060.866902  	71.584683 
1061.831326  	71.226544 
1062.795751  	70.896137 
1063.760175  	70.453084 
1064.724599  	69.967420 
1065.689024  	69.522981 
1066.653448  	69.048685 
1067.617873  	68.527986 
1068.582297  	67.926946 
1069.546722  	67.328101 
1070.511146  	66.754090 
1071.475571  	66.148885 
1072.439995  	65.496330 
1073.404420  	64.821043 
1074.368844  	64.137016 
1075.333268  	63.404553 
1076.297693  	62.606619 
1077.262117  	61.827005 
1078.226542  	61.115743 
1079.190966  	60.401762 
1080.155391  	59.660144 
1081.119815  	58.982650 
1082.084240  	58.477572 
1083.048664  	58.065777 
1084.013089  	57.635806 
1084.977513  	57.284112 
1085.941937  	56.993453 
1086.906362  	56.694180 
1087.870786  	56.430902 
1088.835211  	56.178651 
1089.799635  	55.926530 
1090.764060  	55.693711 
1091.728484  	55.534610 
1092.692909  	55.443899 
1093.657333  	55.374659 
1094.621758  	55.305716 
1095.586182  	55.360473 
1096.550606  	55.544186 
1097.515031  	55.781335 
1098.479455  	56.056086 
1099.443880  	56.433407 
1100.408304  	56.937432 
1101.372729  	57.479730 
1102.337153  	58.067516 
1103.301578  	58.746513 
1104.266002  	59.530377 
1105.230427  	60.246474 
1106.194851  	60.918533 
1107.159275  	61.640513 
1108.123700  	62.387225 
1109.088124  	62.986606 
1110.052549  	63.437095 
1111.016973  	63.827413 
1111.981398  	64.124457 
1112.945822  	64.251401 
1113.910247  	64.249521 
1114.874671  	64.189092 
1115.839096  	64.053286 
1116.803520  	63.909276 
1117.767945  	63.836386 
1118.732369  	63.952473 
1119.696793  	64.247342 
1120.661218  	64.541982 
1121.625642  	64.889932 
1122.590067  	65.407618 
1123.554491  	66.001585 
1124.518916  	66.615181 
1125.483340  	67.339702 
1126.447765  	68.141720 
1127.412189  	68.985542 
1128.376614  	69.883910 
1129.341038  	70.838726 
1130.305462  	71.866976 
1131.269887  	72.930208 
1132.234311  	73.952696 
1133.198736  	74.967050 
1134.163160  	76.000757 
1135.127585  	76.997003 
1136.092009  	77.933738 
1137.056434  	78.850805 
1138.020858  	79.740506 
1138.985283  	80.520245 
1139.949707  	81.180592 
1140.914131  	81.824789 
1141.878556  	82.435039 
1142.842980  	82.954465 
1143.807405  	83.439067 
1144.771829  	83.909446 
1145.736254  	84.333475 
1146.700678  	84.708904 
1147.665103  	85.012875 
1148.629527  	85.296861 
1149.593952  	85.553872 
1150.558376  	85.774725 
1151.522800  	85.955953 
1152.487225  	86.110932 
1153.451649  	86.230034 
1154.416074  	86.329151 
1155.380498  	86.404235 
1156.344923  	86.455384 
1157.309347  	86.481135 
1158.273772  	86.475857 
1159.238196  	86.424242 
1160.202621  	86.409575 
1161.167045  	86.412307 
1162.131469  	86.327222 
1163.095894  	86.207990 
1164.060318  	86.105014 
1165.024743  	85.980107 
1165.989167  	85.795198 
1166.953592  	85.556112 
1167.918016  	85.259093 
1168.882441  	84.902473 
1169.846865  	84.506226 
1170.811290  	84.140674 
1171.775714  	83.841099 
1172.740138  	83.621143 
1173.704563  	83.402734 
1174.668987  	83.178326 
1175.633412  	83.129072 
1176.597836  	83.172737 
1177.562261  	83.188463 
1178.526685  	83.164945 
1179.491110  	83.170786 
1180.455534  	83.194089 
1181.419959  	83.209448 
1182.384383  	83.159652 
1183.348808  	83.062017 
1184.313232  	82.978051 
1185.277656  	82.829198 
1186.242081  	82.618438 
1187.206505  	82.379737 
1188.170930  	82.131609 
1189.135354  	81.827628 
1190.099779  	81.488360 
1191.064203  	81.186554 
1192.028628  	80.880240 
1192.993052  	80.491612 
1193.957477  	80.058895 
1194.921901  	79.636507 
1195.886325  	79.198800 
1196.850750  	78.743918 
1197.815174  	78.290584 
1198.779599  	77.890867 
1199.744023  	77.476302 
1200.708448  	76.997807 
1201.672872  	76.503738 
1202.637297  	76.069572 
1203.601721  	75.647011 
1204.566146  	75.190285 
1205.530570  	74.710911 
1206.494994  	74.276657 
1207.459419  	73.849856 
1208.423843  	73.368484 
1209.388268  	72.867657 
1210.352692  	72.389948 
1211.317117  	71.887771 
1212.281541  	71.322825 
1213.245966  	70.769342 
1214.210390  	70.227936 
1215.174815  	69.620117 
1216.139239  	68.958202 
1217.103663  	68.287354 
1218.068088  	67.664904 
1219.032512  	67.044269 
1219.996937  	66.377917 
1220.961361  	65.756812 
1221.925786  	65.219420 
1222.890210  	64.679469 
1223.854635  	64.111682 
1224.819059  	63.554844 
1225.783484  	63.028493 
1226.747908  	62.450059 
1227.712332  	61.756911 
1228.676757  	61.036998 
1229.641181  	60.297171 
1230.605606  	59.498826 
1231.570030  	58.660295 
1232.534455  	57.862494 
1233.498879  	57.081854 
1234.463304  	56.304510 
1235.427728  	55.564118 
1236.392153  	54.965590 
1237.356577  	54.487376 
1238.321002  	54.071615 
1239.285426  	53.776373 
1240.249850  	53.642694 
1241.214275  	53.625461 
1242.178699  	53.676917 
1243.143124  	53.844740 
1244.107548  	54.158043 
1245.071973  	54.577527 
1246.036397  	54.984688 
1247.000822  	55.414707 
1247.965246  	55.951405 
1248.929671  	56.488048 
1249.894095  	56.990549 
1250.858519  	57.513798 
1251.822944  	58.020992 
1252.787368  	58.456572 
1253.751793  	58.840638 
1254.716217  	59.210631 
1255.680642  	59.562844 
1256.645066  	59.865793 
1257.609491  	60.103223 
1258.573915  	60.339101 
1259.538340  	60.600100 
1260.502764  	60.900767 
1261.467188  	61.397301 
1262.431613  	61.941555 
1263.396037  	62.483085 
1264.360462  	63.084309 
1265.324886  	63.749920 
1266.289311  	64.478634 
1267.253735  	65.284983 
1268.218160  	66.092241 
1269.182584  	66.871448 
1270.147009  	67.645261 
1271.111433  	68.434711 
1272.075857  	69.166100 
1273.040282  	69.966826 
1274.004706  	70.670388 
1274.969131  	71.301383 
1275.933555  	71.906767 
1276.897980  	72.478458 
1277.862404  	73.025917 
1278.826829  	73.558923 
1279.791253  	74.039201 
1280.755678  	74.523547 
1281.720102  	75.027536 
1282.684526  	75.529409 
1283.648951  	75.994160 
1284.613375  	76.460320 
1285.577800  	76.964284 
1286.542224  	77.429310 
1287.506649  	77.748757 
1288.471073  	78.197744 
1289.435498  	78.830635 
1290.399922  	79.407082 
1291.364347  	79.977789 
1292.328771  	80.583502 
1293.293195  	81.147728 
1294.257620  	81.727337 
1295.222044  	82.288471 
1296.186469  	82.789705 
1297.150893  	83.345019 
1298.115318  	84.029052 
1299.079742  	84.579678 
1300.044167  	85.094277 
1301.008591  	85.604452 
1301.973016  	86.060342 
1302.937440  	86.401431 
1303.901865  	86.712309 
1304.866289  	87.012295 
1305.830713  	87.252694 
1306.795138  	87.449519 
1307.759562  	87.609932 
1308.723987  	87.849557 
1309.688411  	88.232585 
1310.652836  	88.454095 
1311.617260  	88.516950 
1312.581685  	88.390099 
1313.546109  	88.588252 
1314.510534  	88.846099 
1315.474958  	89.093453 
1316.439382  	89.111712 
1317.403807  	89.078707 
1318.368231  	89.094322 
1319.332656  	89.031424 
1320.297080  	89.374169 
1321.261505  	89.648133 
1322.225929  	89.820233 
1323.190354  	89.822899 
1324.154778  	89.823718 
1325.119203  	89.775405 
1326.083627  	89.625333 
1327.048051  	89.397534 
1328.012476  	89.091598 
1328.976900  	88.663047 
1329.941325  	88.027468 
1330.905749  	87.261132 
1331.870174  	86.295262 
1332.834598  	85.101182 
1333.799023  	83.754404 
1334.763447  	82.394982 
1335.727872  	80.958080 
1336.692296  	79.425720 
1337.656720  	78.471470 
1338.621145  	77.509514 
1339.585569  	76.876081 
1340.549994  	77.507549 
1341.514418  	79.289843 
1342.478843  	80.824208 
1343.443267  	82.135516 
1344.407692  	83.520925 
1345.372116  	84.875171 
1346.336541  	86.086769 
1347.300965  	87.135882 
1348.265389  	87.923743 
1349.229814  	88.428809 
1350.194238  	88.993335 
1351.158663  	89.484337 
1352.123087  	89.769412 
1353.087512  	90.004135 
1354.051936  	90.034202 
1355.016361  	89.904156 
1355.980785  	90.153695 
1356.945210  	90.273944 
1357.909634  	90.138827 
1358.874059  	90.136138 
1359.838483  	90.080184 
1360.802907  	89.430575 
1361.767332  	88.863442 
1362.731756  	88.000231 
1363.696181  	87.925296 
1364.660605  	88.945598 
1365.625030  	89.042871 
1366.589454  	88.850742 
1367.553879  	88.443860 
1368.518303  	87.853476 
1369.482728  	87.844399 
1370.447152  	88.201955 
1371.411576  	88.185278 
1372.376001  	88.024107 
1373.340425  	87.358266 
1374.304850  	86.841232 
1375.269274  	87.283019 
1376.233699  	88.065078 
1377.198123  	88.214187 
1378.162548  	87.981031 
1379.126972  	88.045407 
1380.091397  	88.207164 
1381.055821  	88.368908 
1382.020245  	88.378459 
1382.984670  	88.344922 
1383.949094  	88.339755 
1384.913519  	88.309342 
1385.877943  	87.926661 
1386.842368  	87.000182 
1387.806792  	86.796983 
1388.771217  	87.801624 
1389.735641  	88.194793 
1390.700066  	88.089983 
1391.664490  	88.063619 
1392.628914  	87.990406 
1393.593339  	87.366164 
1394.557763  	86.094743 
1395.522188  	85.792713 
1396.486612  	86.263028 
1397.451037  	86.034757 
1398.415461  	85.153790 
1399.379886  	84.582523 
1400.344310  	84.836755 
1401.308735  	84.793657 
1402.273159  	84.113764 
1403.237583  	83.221340 
1404.202008  	81.883147 
1405.166432  	80.287089 
1406.130857  	79.837935 
1407.095281  	79.603815 
1408.059706  	79.171899 
1409.024130  	79.139221 
1409.988555  	79.473361 
1410.952979  	80.338222 
1411.917404  	81.527421 
1412.881828  	83.312655 
1413.846252  	84.974010 
1414.810677  	86.308402 
1415.775101  	87.045842 
1416.739526  	87.368665 
1417.703950  	87.561438 
1418.668375  	87.523500 
1419.632799  	87.492903 
1420.597224  	89.453475 
1421.561648  	90.267217 
1422.526073  	90.430410 
1423.490497  	89.637281 
1424.454922  	89.356443 
1425.419346  	90.378700 
1426.383770  	90.699247 
1427.348195  	90.594167 
1428.312619  	90.300141 
1429.277044  	89.798665 
1430.241468  	89.358970 
1431.205893  	89.740090 
1432.170317  	89.694385 
1433.134742  	89.344146 
1434.099166  	89.399779 
1435.063591  	89.160210 
1436.028015  	87.907300 
1436.992439  	86.947947 
1437.956864  	88.305591 
1438.921288  	88.927036 
1439.885713  	88.990603 
1440.850137  	88.963893 
1441.814562  	88.917799 
1442.778986  	88.909032 
1443.743411  	88.822508 
1444.707835  	88.723502 
1445.672260  	88.576991 
1446.636684  	88.328909 
1447.601108  	87.530767 
1448.565533  	87.420719 
1449.529957  	88.161568 
1450.494382  	88.288022 
1451.458806  	87.851206 
1452.423231  	87.474637 
1453.387655  	87.842381 
1454.352080  	87.491685 
1455.316504  	86.408757 
1456.280929  	85.496675 
1457.245353  	84.827687 
1458.209777  	85.127229 
1459.174202  	86.072736 
1460.138626  	87.520625 
1461.103051  	88.355942 
1462.067475  	88.541721 
1463.031900  	88.562575 
1463.996324  	88.141077 
1464.960749  	87.288379 
1465.925173  	87.843580 
1466.889598  	88.360464 
1467.854022  	88.323457 
1468.818446  	88.256871 
1469.782871  	87.941133 
1470.747295  	87.201284 
1471.711720  	85.625788 
1472.676144  	84.783407 
1473.640569  	85.583000 
1474.604993  	87.082243 
1475.569418  	87.319521 
1476.533842  	86.998751 
1477.498267  	88.305287 
1478.462691  	89.115312 
1479.427116  	89.355582 
1480.391540  	89.251650 
1481.355964  	88.869803 
1482.320389  	89.431474 
1483.284813  	90.001195 
1484.249238  	90.210771 
1485.213662  	90.119039 
1486.178087  	89.663194 
1487.142511  	89.129113 
1488.106936  	89.259224 
1489.071360  	88.485777 
1490.035785  	87.183079 
1491.000209  	88.375090 
1491.964633  	89.978557 
1492.929058  	90.586434 
1493.893482  	90.600397 
1494.857907  	90.244453 
1495.822331  	89.186156 
1496.786756  	88.559458 
1497.751180  	89.019719 
1498.715605  	88.393114 
1499.680029  	88.317951 
1500.644454  	88.431557 
1501.608878  	87.639604 
1502.573302  	87.039605 
1503.537727  	86.645968 
1504.502151  	85.756109 
1505.466576  	84.122741 
1506.431000  	81.449995 
1507.395425  	81.593629 
1508.359849  	84.110327 
1509.324274  	86.015986 
1510.288698  	87.497170 
1511.253123  	88.758382 
1512.217547  	88.721646 
1513.181971  	89.452069 
1514.146396  	89.849827 
1515.110820  	88.975105 
1516.075245  	87.945985 
1517.039669  	86.651217 
1518.004094  	88.271066 
1518.968518  	89.502715 
1519.932943  	88.582149 
1520.897367  	86.250120 
1521.861792  	86.543455 
1522.826216  	87.831558 
1523.790640  	88.809653 
1524.755065  	88.417855 
1525.719489  	87.948350 
1526.683914  	88.539202 
1527.648338  	88.271365 
1528.612763  	88.669291 
1529.577187  	89.692811 
1530.541612  	89.983475 
1531.506036  	89.219472 
1532.470461  	88.711332 
1533.434885  	87.864052 
1534.399309  	88.274575 
1535.363734  	89.199954 
1536.328158  	89.615882 
1537.292583  	89.663510 
1538.257007  	88.650167 
1539.221432  	86.163191 
1540.185856  	85.993412 
1541.150281  	87.229458 
1542.114705  	87.238665 
1543.079130  	87.431480 
1544.043554  	87.566492 
1545.007979  	87.222296 
1545.972403  	88.330329 
1546.936827  	89.714766 
1547.901252  	89.973021 
1548.865676  	89.455178 
1549.830101  	87.828198 
1550.794525  	88.282833 
1551.758950  	89.613218 
1552.723374  	89.653929 
1553.687799  	88.818547 
1554.652223  	87.892353 
1555.616648  	88.805234 
1556.581072  	88.914171 
1557.545496  	87.607331 
1558.509921  	83.960241 
1559.474345  	83.539483 
1560.438770  	86.271250 
1561.403194  	88.584356 
1562.367619  	89.357585 
1563.332043  	89.550976 
1564.296468  	89.160860 
1565.260892  	88.834370 
1566.225317  	89.363092 
1567.189741  	89.531987 
1568.154165  	89.088353 
1569.118590  	87.733678 
1570.083014  	87.421553 
1571.047439  	88.679250 
1572.011863  	88.958609 
1572.976288  	88.836473 
1573.940712  	88.635629 
1574.905137  	88.136406 
1575.869561  	87.034294 
1576.833986  	86.418759 
1577.798410  	87.287714 
1578.762834  	87.968540 
1579.727259  	88.329531 
1580.691683  	88.607611 
1581.656108  	88.829092 
1582.620532  	89.039479 
1583.584957  	89.225140 
1584.549381  	89.401697 
1585.513806  	89.510698 
1586.478230  	89.610221 
1587.442655  	89.657933 
1588.407079  	89.650115 
1589.371503  	89.511225 
1590.335928  	89.455332 
1591.300352  	89.488379 
1592.264777  	89.518118 
1593.229201  	89.509656 
1594.193626  	89.257689 
1595.158050  	89.167017 
1596.122475  	89.247944 
1597.086899  	89.306907 
1598.051324  	89.382390 
1599.015748  	89.299254 
1599.980173  	89.226966 
1600.944597  	89.035284 
1601.909021  	88.929833 
1602.873446  	88.723952 
1603.837870  	88.713610 
1604.802295  	88.893767 
1605.766719  	88.824420 
1606.731144  	88.457688 
1607.695568  	88.268672 
1608.659993  	88.201282 
1609.624417  	87.874006 
1610.588842  	88.093379 
1611.553266  	88.201417 
1612.517690  	88.120012 
1613.482115  	88.104970 
1614.446539  	87.997783 
1615.410964  	87.573678 
1616.375388  	86.617459 
1617.339813  	86.599244 
1618.304237  	87.566109 
1619.268662  	87.911540 
1620.233086  	87.942503 
1621.197511  	87.906750 
1622.161935  	87.524812 
1623.126359  	86.569089 
1624.090784  	86.648548 
1625.055208  	87.474305 
1626.019633  	87.627981 
1626.984057  	87.360240 
1627.948482  	86.859707 
1628.912906  	87.278427 
1629.877331  	87.588279 
1630.841755  	87.560314 
1631.806180  	87.498955 
1632.770604  	87.407977 
1633.735028  	87.048600 
1634.699453  	86.066381 
1635.663877  	84.429451 
1636.628302  	85.341444 
1637.592726  	85.554195 
1638.557151  	86.278615 
1639.521575  	86.700592 
1640.486000  	86.658201 
1641.450424  	86.658105 
1642.414849  	86.575701 
1643.379273  	86.564777 
1644.343697  	86.423436 
1645.308122  	85.578172 
1646.272546  	84.137821 
1647.236971  	83.585203 
1648.201395  	83.962563 
1649.165820  	85.235639 
1650.130244  	85.686017 
1651.094669  	85.328806 
1652.059093  	84.277596 
1653.023518  	81.274623 
1653.987942  	81.013056 
1654.952366  	83.294211 
1655.916791  	84.594617 
1656.881215  	84.835304 
1657.845640  	84.962313 
1658.810064  	85.037912 
1659.774489  	84.943968 
1660.738913  	84.519246 
1661.703338  	83.911559 
1662.667762  	83.149777 
1663.632187  	83.350263 
1664.596611  	83.705071 
1665.561036  	83.628490 
1666.525460  	83.414298 
1667.489884  	82.830172 
1668.454309  	81.499708 
1669.418733  	80.623042 
1670.383158  	81.279861 
1671.347582  	80.983523 
1672.312007  	81.074022 
1673.276431  	81.403787 
1674.240856  	80.890182 
1675.205280  	79.644513 
1676.169705  	79.808054 
1677.134129  	80.302953 
1678.098553  	80.141938 
1679.062978  	79.487126 
1680.027402  	78.126107 
1680.991827  	77.948423 
1681.956251  	78.245267 
1682.920676  	77.109715 
1683.885100  	73.972980 
1684.849525  	73.862472 
1685.813949  	76.534597 
1686.778374  	77.007821 
1687.742798  	76.387073 
1688.707222  	75.698134 
1689.671647  	75.519901 
1690.636071  	75.186868 
1691.600496  	75.078123 
1692.564920  	74.586141 
1693.529345  	73.757506 
1694.493769  	72.635425 
1695.458194  	70.846018 
1696.422618  	69.148325 
1697.387043  	69.048808 
1698.351467  	68.447013 
1699.315891  	67.170412 
1700.280316  	64.033921 
1701.244740  	63.725831 
1702.209165  	63.927345 
1703.173589  	63.134941 
1704.138014  	61.603032 
1705.102438  	60.100469 
1706.066863  	58.987513 
1707.031287  	57.696421 
1707.995712  	57.198218 
1708.960136  	56.542849 
1709.924560  	55.503234 
1710.888985  	54.924180 
1711.853409  	54.901905 
1712.817834  	54.668841 
1713.782258  	54.316354 
1714.746683  	54.116797 
1715.711107  	54.978042 
1716.675532  	55.636339 
1717.639956  	55.458759 
1718.604381  	57.067840 
1719.568805  	59.704535 
1720.533230  	61.252435 
1721.497654  	62.420377 
1722.462078  	63.498479 
1723.426503  	64.381719 
1724.390927  	65.735004 
1725.355352  	67.079426 
1726.319776  	68.216926 
1727.284201  	69.361559 
1728.248625  	70.466812 
1729.213050  	70.949838 
1730.177474  	71.382387 
1731.141899  	73.305809 
1732.106323  	74.390715 
1733.070747  	74.237159 
1734.035172  	73.737362 
1734.999596  	76.883735 
1735.964021  	79.426150 
1736.928445  	80.654461 
1737.892870  	81.716727 
1738.857294  	82.464256 
1739.821719  	83.002759 
1740.786143  	84.969386 
1741.750568  	86.337775 
1742.714992  	86.483216 
1743.679416  	86.650855 
1744.643841  	88.181888 
1745.608265  	89.326163 
1746.572690  	89.630541 
1747.537114  	89.674067 
1748.501539  	89.751809 
1749.465963  	90.296223 
1750.430388  	90.786006 
1751.394812  	90.289718 
1752.359237  	91.553308 
1753.323661  	92.699336 
1754.288085  	93.190820 
1755.252510  	93.258197 
1756.216934  	92.655008 
1757.181359  	92.096868 
1758.145783  	92.761119 
1759.110208  	93.214774 
1760.074632  	93.381921 
1761.039057  	92.809783 
1762.003481  	91.925532 
1762.967906  	92.841571 
1763.932330  	93.496824 
1764.896754  	93.622003 
1765.861179  	93.636579 
1766.825603  	93.458596 
1767.790028  	92.599693 
1768.754452  	92.371045 
1769.718877  	93.218796 
1770.683301  	92.925235 
1771.647726  	91.837656 
1772.612150  	91.374584 
1773.576575  	92.399847 
1774.540999  	93.021836 
1775.505423  	92.707624 
1776.469848  	92.964981 
1777.434272  	93.542559 
1778.398697  	93.361984 
1779.363121  	93.050244 
1780.327546  	92.627762 
1781.291970  	92.560851 
1782.256395  	93.179339 
1783.220819  	93.435647 
1784.185244  	93.104905 
1785.149668  	92.604525 
1786.114093  	93.088567 
1787.078517  	93.384275 
1788.042941  	93.354214 
1789.007366  	93.295394 
1789.971790  	92.998333 
1790.936215  	92.120731 
1791.900639  	91.641869 
1792.865064  	91.581974 
1793.829488  	92.506821 
1794.793913  	92.870808 
1795.758337  	92.265108 
1796.722762  	92.289190 
1797.687186  	92.979114 
1798.651610  	92.959283 
1799.616035  	92.378756 
1800.580459  	92.352048 
1801.544884  	92.172792 
1802.509308  	91.997468 
1803.473733  	92.712185 
1804.438157  	93.137911 
1805.402582  	93.125990 
1806.367006  	93.082114 
1807.331431  	92.821787 
1808.295855  	92.708708 
1809.260279  	92.942998 
1810.224704  	92.510164 
1811.189128  	92.138490 
1812.153553  	92.437273 
1813.117977  	92.797637 
1814.082402  	93.133595 
1815.046826  	93.152024 
1816.011251  	93.140128 
1816.975675  	92.917725 
1817.940100  	92.746035 
1818.904524  	93.019225 
1819.868948  	93.145049 
1820.833373  	93.068732 
1821.797797  	92.932556 
1822.762222  	92.717803 
1823.726646  	92.751417 
1824.691071  	92.266843 
1825.655495  	91.723776 
1826.619920  	92.648967 
1827.584344  	92.964968 
1828.548769  	92.485373 
1829.513193  	91.486142 
1830.477617  	91.599029 
1831.442042  	92.621100 
1832.406466  	92.900916 
1833.370891  	92.767748 
1834.335315  	92.957147 
1835.299740  	93.105983 
1836.264164  	92.952943 
1837.228589  	92.525606 
1838.193013  	92.716875 
1839.157438  	93.057688 
1840.121862  	93.125851 
1841.086287  	93.052509 
1842.050711  	92.723235 
1843.015135  	92.452692 
1843.979560  	91.745601 
1844.943984  	91.650495 
1845.908409  	92.485629 
1846.872833  	92.676969 
1847.837258  	92.281887 
1848.801682  	92.517984 
1849.766107  	93.064524 
1850.730531  	93.281590 
1851.694956  	93.254324 
1852.659380  	93.191082 
1853.623804  	93.233447 
1854.588229  	93.219098 
1855.552653  	93.195748 
1856.517078  	93.177833 
1857.481502  	93.221731 
1858.445927  	93.085279 
1859.410351  	93.004186 
1860.374776  	93.088391 
1861.339200  	93.080041 
1862.303625  	93.129016 
1863.268049  	93.220898 
1864.232473  	93.204861 
1865.196898  	93.155358 
1866.161322  	92.811354 
1867.125747  	92.505117 
1868.090171  	92.011852 
1869.054596  	91.543792 
1870.019020  	91.914142 
1870.983445  	92.585691 
1871.947869  	93.046716 
1872.912294  	93.325244 
1873.876718  	93.337397 
1874.841142  	93.267566 
1875.805567  	93.209337 
1876.769991  	93.229623 
1877.734416  	93.239131 
1878.698840  	93.137025 
1879.663265  	93.021865 
1880.627689  	93.079272 
1881.592114  	93.149081 
1882.556538  	93.188486 
1883.520963  	93.178173 
1884.485387  	93.021932 
1885.449811  	92.930811 
1886.414236  	93.115268 
1887.378660  	93.153376 
1888.343085  	92.925658 
1889.307509  	92.207656 
1890.271934  	92.211069 
1891.236358  	92.834863 
1892.200783  	93.067364 
1893.165207  	93.155854 
1894.129632  	93.005128 
1895.094056  	92.536567 
1896.058480  	92.695690 
1897.022905  	93.082898 
1897.987329  	93.056176 
1898.951754  	92.992774 
1899.916178  	93.041712 
1900.880603  	93.069469 
1901.845027  	92.962608 
1902.809452  	92.990236 
1903.773876  	93.040972 
1904.738301  	93.058031 
1905.702725  	93.023740 
1906.667150  	93.024023 
1907.631574  	92.808473 
1908.595998  	92.619572 
1909.560423  	92.471408 
1910.524847  	92.487677 
1911.489272  	92.876478 
1912.453696  	92.981349 
1913.418121  	93.041527 
1914.382545  	93.036343 
1915.346970  	93.006457 
1916.311394  	92.937328 
1917.275819  	92.520334 
1918.240243  	91.897294 
1919.204667  	92.444635 
1920.169092  	92.823904 
1921.133516  	92.747735 
1922.097941  	92.260235 
1923.062365  	91.800943 
1924.026790  	92.459016 
1924.991214  	92.923841 
1925.955639  	92.859038 
1926.920063  	92.847382 
1927.884488  	92.853904 
1928.848912  	92.914309 
1929.813336  	92.947249 
1930.777761  	92.972069 
1931.742185  	92.830950 
1932.706610  	92.762459 
1933.671034  	92.893000 
1934.635459  	93.018893 
1935.599883  	92.938233 
1936.564308  	92.968566 
1937.528732  	92.868826 
1938.493157  	92.857637 
1939.457581  	92.967045 
1940.422005  	92.983381 
1941.386430  	92.645917 
1942.350854  	91.649621 
1943.315279  	91.646807 
1944.279703  	92.485100 
1945.244128  	92.474941 
1946.208552  	92.425438 
1947.172977  	92.424531 
1948.137401  	92.574822 
1949.101826  	92.637960 
1950.066250  	92.730659 
1951.030674  	92.934354 
1951.995099  	92.878331 
1952.959523  	92.718530 
1953.923948  	92.565715 
1954.888372  	92.516426 
1955.852797  	92.586797 
1956.817221  	92.800681 
1957.781646  	92.958780 
1958.746070  	92.847694 
1959.710495  	92.932773 
1960.674919  	92.847625 
1961.639344  	92.696695 
1962.603768  	92.427200 
1963.568192  	92.432620 
1964.532617  	92.917887 
1965.497041  	93.174138 
1966.461466  	92.808739 
1967.425890  	92.280064 
1968.390315  	92.875595 
1969.354739  	93.191192 
1970.319164  	92.994881 
1971.283588  	93.035168 
1972.248013  	92.829773 
1973.212437  	92.991874 
1974.176861  	93.045075 
1975.141286  	92.745936 
1976.105710  	92.954339 
1977.070135  	93.337424 
1978.034559  	93.267606 
1978.998984  	92.569030 
1979.963408  	92.225257 
1980.927833  	92.408402 
1981.892257  	92.720543 
1982.856682  	92.872335 
1983.821106  	92.750873 
1984.785530  	92.906742 
1985.749955  	92.939837 
1986.714379  	93.054502 
1987.678804  	92.845293 
1988.643228  	92.558210 
1989.607653  	92.835656 
1990.572077  	92.865532 
1991.536502  	92.218121 
1992.500926  	92.063152 
1993.465351  	92.445305 
1994.429775  	92.717744 
1995.394199  	92.977356 
1996.358624  	92.981423 
1997.323048  	92.729922 
1998.287473  	92.794576 
1999.251897  	92.884211 
2000.216322  	93.274059 
2001.180746  	93.520796 
2002.145171  	93.484088 
2003.109595  	93.517751 
2004.074020  	93.553667 
2005.038444  	93.691170 
2006.002868  	93.585002 
2006.967293  	93.361481 
2007.931717  	92.840782 
2008.896142  	92.666226 
2009.860566  	92.983233 
2010.824991  	93.215317 
2011.789415  	93.254291 
2012.753840  	93.129815 
2013.718264  	93.048706 
2014.682689  	93.056276 
2015.647113  	93.264597 
2016.611537  	93.211280 
2017.575962  	92.972567 
2018.540386  	93.133193 
2019.504811  	93.416566 
2020.469235  	93.679029 
2021.433660  	93.597051 
2022.398084  	93.303659 
2023.362509  	93.487329 
2024.326933  	93.544170 
2025.291358  	93.225991 
2026.255782  	93.023513 
2027.220207  	92.965901 
2028.184631  	93.157785 
2029.149055  	93.629644 
2030.113480  	93.725287 
2031.077904  	93.741338 
2032.042329  	93.582869 
2033.006753  	93.316602 
2033.971178  	93.100453 
2034.935602  	93.119423 
2035.900027  	93.292680 
2036.864451  	93.254930 
2037.828876  	93.247432 
2038.793300  	93.331855 
2039.757724  	93.111535 
2040.722149  	92.929353 
2041.686573  	92.554631 
2042.650998  	92.530852 
2043.615422  	92.602855 
2044.579847  	92.795793 
2045.544271  	93.118874 
2046.508696  	93.229318 
2047.473120  	93.066849 
2048.437545  	93.080026 
2049.401969  	93.233847 
2050.366393  	92.892924 
2051.330818  	92.536335 
2052.295242  	92.795470 
2053.259667  	92.965426 
2054.224091  	92.882084 
2055.188516  	92.709066 
2056.152940  	92.757251 
2057.117365  	92.601159 
2058.081789  	92.668875 
2059.046214  	92.813156 
2060.010638  	92.650945 
2060.975062  	92.516253 
2061.939487  	92.732714 
2062.903911  	92.825865 
2063.868336  	92.652906 
2064.832760  	92.314022 
2065.797185  	92.359351 
2066.761609  	92.621922 
2067.726034  	92.640615 
2068.690458  	92.686513 
2069.654883  	92.841445 
2070.619307  	92.764960 
2071.583731  	92.625489 
2072.548156  	92.554999 
2073.512580  	92.486945 
2074.477005  	92.406697 
2075.441429  	92.578566 
2076.405854  	92.642841 
2077.370278  	92.534552 
2078.334703  	92.544817 
2079.299127  	92.561903 
2080.263552  	92.564405 
2081.227976  	92.605828 
2082.192401  	92.594796 
2083.156825  	92.433497 
2084.121249  	92.510807 
2085.085674  	92.694255 
2086.050098  	92.671144 
2087.014523  	92.544796 
2087.978947  	92.535926 
2088.943372  	92.599068 
2089.907796  	92.413258 
2090.872221  	92.468870 
2091.836645  	92.730063 
2092.801070  	92.814555 
2093.765494  	92.839779 
2094.729918  	92.732304 
2095.694343  	92.646602 
2096.658767  	92.579844 
2097.623192  	92.446152 
2098.587616  	92.398421 
2099.552041  	92.496062 
2100.516465  	92.533389 
2101.480890  	92.545301 
2102.445314  	92.496202 
2103.409739  	92.440930 
2104.374163  	92.533471 
2105.338587  	92.583986 
2106.303012  	92.611745 
2107.267436  	92.543861 
2108.231861  	92.457635 
2109.196285  	92.426111 
2110.160710  	92.575963 
2111.125134  	92.672838 
2112.089559  	92.525527 
2113.053983  	92.453052 
2114.018408  	92.476545 
2114.982832  	92.483709 
2115.947256  	92.478861 
2116.911681  	92.568991 
2117.876105  	92.720476 
2118.840530  	92.660688 
2119.804954  	92.577282 
2120.769379  	92.552154 
2121.733803  	92.606587 
2122.698228  	92.811190 
2123.662652  	92.879554 
2124.627077  	92.720465 
2125.591501  	92.751042 
2126.555925  	92.911357 
2127.520350  	92.906009 
2128.484774  	92.963519 
2129.449199  	93.100194 
2130.413623  	93.170023 
2131.378048  	93.226722 
2132.342472  	93.300951 
2133.306897  	93.181275 
2134.271321  	93.020774 
2135.235746  	92.868462 
2136.200170  	92.870205 
2137.164594  	93.158347 
2138.129019  	93.225899 
2139.093443  	93.253271 
2140.057868  	93.158522 
2141.022292  	93.197114 
2141.986717  	93.187080 
2142.951141  	93.219043 
2143.915566  	93.446241 
2144.879990  	93.360073 
2145.844415  	93.385391 
2146.808839  	93.351853 
2147.773264  	93.273416 
2148.737688  	93.364523 
2149.702112  	93.405321 
2150.666537  	93.477258 
2151.630961  	93.268434 
2152.595386  	93.349649 
2153.559810  	93.560255 
2154.524235  	93.789390 
2155.488659  	94.129536 
2156.453084  	94.413497 
2157.417508  	94.448206 
2158.381933  	94.375305 
2159.346357  	93.634667 
2160.310781  	92.944121 
2161.275206  	92.884189 
2162.239630  	93.104092 
2163.204055  	93.279370 
2164.168479  	93.407760 
2165.132904  	93.164482 
2166.097328  	92.925118 
2167.061753  	93.034668 
2168.026177  	93.167265 
2168.990602  	93.045960 
2169.955026  	93.101942 
2170.919450  	93.354995 
2171.883875  	93.151181 
2172.848299  	93.178981 
2173.812724  	93.159981 
2174.777148  	93.186933 
2175.741573  	93.282595 
2176.705997  	93.329891 
2177.670422  	93.191365 
2178.634846  	93.332518 
2179.599271  	93.369931 
2180.563695  	93.211306 
2181.528119  	93.316705 
2182.492544  	93.153112 
2183.456968  	92.852067 
2184.421393  	92.783980 
2185.385817  	93.041718 
2186.350242  	93.074330 
2187.314666  	92.749388 
2188.279091  	92.836699 
2189.243515  	92.931505 
2190.207940  	92.807859 
2191.172364  	93.165972 
2192.136788  	93.244549 
2193.101213  	93.055150 
2194.065637  	93.038404 
2195.030062  	92.952209 
2195.994486  	92.645329 
2196.958911  	92.613133 
2197.923335  	92.698604 
2198.887760  	92.737771 
2199.852184  	92.972076 
2200.816609  	93.093360 
2201.781033  	92.877530 
2202.745458  	92.804065 
2203.709882  	92.944359 
2204.674306  	92.940256 
2205.638731  	92.804463 
2206.603155  	92.792662 
2207.567580  	92.757036 
2208.532004  	92.728042 
2209.496429  	92.827116 
2210.460853  	92.755751 
2211.425278  	92.644706 
2212.389702  	92.612830 
2213.354127  	92.564961 
2214.318551  	92.577406 
2215.282975  	92.598807 
2216.247400  	92.701318 
2217.211824  	92.832316 
2218.176249  	92.824282 
2219.140673  	92.843218 
2220.105098  	92.834132 
2221.069522  	92.758972 
2222.033947  	92.750567 
2222.998371  	92.846282 
2223.962796  	92.772687 
2224.927220  	92.762879 
2225.891644  	92.673031 
2226.856069  	92.606510 
2227.820493  	92.671788 
2228.784918  	92.722546 
2229.749342  	92.646926 
2230.713767  	92.644959 
2231.678191  	92.634385 
2232.642616  	92.619779 
2233.607040  	92.672284 
2234.571465  	92.545303 
2235.535889  	92.447891 
2236.500313  	92.459879 
2237.464738  	92.512283 
2238.429162  	92.566324 
2239.393587  	92.438318 
2240.358011  	92.479712 
2241.322436  	92.800087 
2242.286860  	92.727300 
2243.251285  	92.510341 
2244.215709  	92.501761 
2245.180134  	92.430731 
2246.144558  	92.324713 
2247.108982  	92.473916 
2248.073407  	92.651393 
2249.037831  	92.686373 
2250.002256  	92.486182 
2250.966680  	92.476850 
2251.931105  	92.598529 
2252.895529  	92.497441 
2253.859954  	92.389096 
2254.824378  	92.330160 
2255.788803  	92.334564 
2256.753227  	92.403025 
2257.717651  	92.458552 
2258.682076  	92.389802 
2259.646500  	92.424739 
2260.610925  	92.426989 
2261.575349  	92.334016 
2262.539774  	92.341805 
2263.504198  	92.441018 
2264.468623  	92.456483 
2265.433047  	92.449740 
2266.397472  	92.392121 
2267.361896  	92.334466 
2268.326321  	92.358752 
2269.290745  	92.346656 
2270.255169  	92.418661 
2271.219594  	92.492148 
2272.184018  	92.434832 
2273.148443  	92.363335 
2274.112867  	92.328155 
2275.077292  	92.323138 
2276.041716  	92.313468 
2277.006141  	92.275492 
2277.970565  	92.262725 
2278.934990  	92.251745 
2279.899414  	92.212600 
2280.863838  	92.254719 
2281.828263  	92.252965 
2282.792687  	92.206741 
2283.757112  	92.197878 
2284.721536  	92.128709 
2285.685961  	92.071909 
2286.650385  	92.060744 
2287.614810  	92.029971 
2288.579234  	92.000337 
2289.543659  	91.992370 
2290.508083  	92.113455 
2291.472507  	92.080452 
2292.436932  	92.015198 
2293.401356  	91.948904 
2294.365781  	91.907470 
2295.330205  	91.927216 
2296.294630  	91.841238 
2297.259054  	91.909784 
2298.223479  	91.840100 
2299.187903  	91.809562 
2300.152328  	91.842852 
2301.116752  	91.800470 
2302.081176  	91.799550 
2303.045601  	91.629179 
2304.010025  	91.722776 
2304.974450  	91.532427 
2305.938874  	91.556177 
2306.903299  	91.424270 
2307.867723  	91.473923 
2308.832148  	91.300233 
2309.796572  	91.320908 
2310.760997  	91.281695 
2311.725421  	91.246410 
2312.689845  	91.371698 
2313.654270  	91.278940 
2314.618694  	91.341311 
2315.583119  	91.283756 
2316.547543  	91.359944 
2317.511968  	91.309878 
2318.476392  	91.252426 
2319.440817  	91.070172 
2320.405241  	91.053287 
2321.369666  	91.028118 
2322.334090  	91.021528 
2323.298515  	90.824366 
2324.262939  	90.879701 
2325.227363  	91.189839 
2326.191788  	91.510447 
2327.156212  	91.595578 
2328.120637  	91.599463 
2329.085061  	91.523076 
2330.049486  	91.497711 
2331.013910  	91.448005 
2331.978335  	91.631035 
2332.942759  	91.812996 
2333.907184  	91.928505 
2334.871608  	91.923810 
2335.836032  	91.995001 
2336.800457  	92.007732 
2337.764881  	92.037360 
2338.729306  	91.993127 
2339.693730  	91.852889 
2340.658155  	91.860188 
2341.622579  	92.028875 
2342.587004  	91.948261 
2343.551428  	91.725737 
2344.515853  	91.514798 
2345.480277  	91.426545 
2346.444701  	91.448086 
2347.409126  	91.509050 
2348.373550  	91.510228 
2349.337975  	91.501189 
2350.302399  	91.471158 
2351.266824  	91.628213 
2352.231248  	91.815697 
2353.195673  	91.829911 
2354.160097  	91.633438 
2355.124522  	91.551319 
2356.088946  	91.519780 
2357.053370  	91.602962 
2358.017795  	91.546206 
2358.982219  	91.648105 
2359.946644  	91.911040 
2360.911068  	91.921755 
2361.875493  	91.650357 
2362.839917  	91.589731 
2363.804342  	91.651274 
2364.768766  	91.692925 
2365.733191  	91.738584 
2366.697615  	91.769690 
2367.662039  	91.718693 
2368.626464  	91.636799 
2369.590888  	91.552614 
2370.555313  	91.487890 
2371.519737  	91.441741 
2372.484162  	91.440970 
2373.448586  	91.434517 
2374.413011  	91.460097 
2375.377435  	91.414211 
2376.341860  	91.399356 
2377.306284  	91.448936 
2378.270708  	91.445271 
2379.235133  	91.418094 
2380.199557  	91.554555 
2381.163982  	91.710451 
2382.128406  	91.834346 
2383.092831  	91.960675 
2384.057255  	92.057086 
2385.021680  	92.167574 
2385.986104  	92.318124 
2386.950529  	92.396576 
2387.914953  	92.448157 
2388.879378  	92.441319 
2389.843802  	92.476921 
2390.808226  	92.516463 
2391.772651  	92.474295 
2392.737075  	92.427279 
2393.701500  	92.496071 
2394.665924  	92.575001 
2395.630349  	92.563700 
2396.594773  	92.488264 
2397.559198  	92.447983 
2398.523622  	92.518871 
2399.488047  	92.597862 
2400.452471  	92.581908 
2401.416895  	92.563559 
2402.381320  	92.535605 
2403.345744  	92.569583 
2404.310169  	92.569701 
2405.274593  	92.535062 
2406.239018  	92.494782 
2407.203442  	92.482798 
2408.167867  	92.514894 
2409.132291  	92.545645 
2410.096716  	92.525677 
2411.061140  	92.476050 
2412.025564  	92.459186 
2412.989989  	92.448613 
2413.954413  	92.471424 
2414.918838  	92.541972 
2415.883262  	92.524520 
2416.847687  	92.529290 
2417.812111  	92.583637 
2418.776536  	92.598769 
2419.740960  	92.594625 
2420.705385  	92.587000 
2421.669809  	92.502407 
2422.634233  	92.491542 
2423.598658  	92.507120 
2424.563082  	92.543698 
2425.527507  	92.619367 
2426.491931  	92.579895 
2427.456356  	92.489720 
2428.420780  	92.548915 
2429.385205  	92.556461 
2430.349629  	92.562734 
2431.314054  	92.548199 
2432.278478  	92.561055 
2433.242902  	92.565705 
2434.207327  	92.518110 
2435.171751  	92.575005 
2436.136176  	92.649965 
2437.100600  	92.657854 
2438.065025  	92.622827 
2439.029449  	92.640063 
2439.993874  	92.652371 
2440.958298  	92.622525 
2441.922723  	92.607270 
2442.887147  	92.555213 
2443.851572  	92.539311 
2444.815996  	92.610981 
2445.780420  	92.633831 
2446.744845  	92.552538 
2447.709269  	92.485597 
2448.673694  	92.527574 
2449.638118  	92.553658 
2450.602543  	92.530367 
2451.566967  	92.496604 
2452.531392  	92.512802 
2453.495816  	92.506828 
2454.460241  	92.512675 
2455.424665  	92.543238 
2456.389089  	92.546191 
2457.353514  	92.556698 
2458.317938  	92.585579 
2459.282363  	92.580443 
2460.246787  	92.568456 
2461.211212  	92.553617 
2462.175636  	92.567367 
2463.140061  	92.603243 
2464.104485  	92.617911 
2465.068910  	92.607297 
2466.033334  	92.556055 
2466.997758  	92.551956 
2467.962183  	92.563096 
2468.926607  	92.544671 
2469.891032  	92.521248 
2470.855456  	92.527223 
2471.819881  	92.525160 
2472.784305  	92.592436 
2473.748730  	92.623962 
2474.713154  	92.614480 
2475.677579  	92.573565 
2476.642003  	92.534857 
2477.606427  	92.576977 
2478.570852  	92.636159 
2479.535276  	92.589893 
2480.499701  	92.530507 
2481.464125  	92.567446 
2482.428550  	92.622894 
2483.392974  	92.621169 
2484.357399  	92.675185 
2485.321823  	92.603240 
2486.286248  	92.469282 
2487.250672  	92.505403 
2488.215096  	92.576818 
2489.179521  	92.505583 
2490.143945  	92.479843 
2491.108370  	92.436514 
2492.072794  	92.440471 
2493.037219  	92.501981 
2494.001643  	92.515809 
2494.966068  	92.581404 
2495.930492  	92.630675 
2496.894917  	92.587658 
2497.859341  	92.592833 
2498.823765  	92.590773 
2499.788190  	92.616761 
2500.752614  	92.598703 
2501.717039  	92.549499 
2502.681463  	92.492641 
2503.645888  	92.475529 
2504.610312  	92.482816 
2505.574737  	92.461425 
2506.539161  	92.485934 
2507.503586  	92.583782 
2508.468010  	92.599868 
2509.432435  	92.539297 
2510.396859  	92.510215 
2511.361283  	92.492596 
2512.325708  	92.451235 
2513.290132  	92.488666 
2514.254557  	92.542923 
2515.218981  	92.474938 
2516.183406  	92.415098 
2517.147830  	92.527857 
2518.112255  	92.546011 
2519.076679  	92.483398 
2520.041104  	92.474192 
2521.005528  	92.460891 
2521.969952  	92.377548 
2522.934377  	92.367375 
2523.898801  	92.448203 
2524.863226  	92.520415 
2525.827650  	92.494395 
2526.792075  	92.501742 
2527.756499  	92.508134 
2528.720924  	92.474011 
2529.685348  	92.403667 
2530.649773  	92.409641 
2531.614197  	92.449552 
2532.578621  	92.496766 
2533.543046  	92.547906 
2534.507470  	92.523620 
2535.471895  	92.444211 
2536.436319  	92.404575 
2537.400744  	92.466186 
2538.365168  	92.480760 
2539.329593  	92.503321 
2540.294017  	92.493018 
2541.258442  	92.455698 
2542.222866  	92.462423 
2543.187290  	92.452111 
2544.151715  	92.454351 
2545.116139  	92.492069 
2546.080564  	92.485832 
2547.044988  	92.392304 
2548.009413  	92.331863 
2548.973837  	92.370344 
2549.938262  	92.425401 
2550.902686  	92.461300 
2551.867111  	92.460721 
2552.831535  	92.421173 
2553.795959  	92.412821 
2554.760384  	92.401552 
2555.724808  	92.374796 
2556.689233  	92.343120 
2557.653657  	92.365993 
2558.618082  	92.343136 
2559.582506  	92.427326 
2560.546931  	92.486625 
2561.511355  	92.426546 
2562.475780  	92.382524 
2563.440204  	92.383075 
2564.404629  	92.446968 
2565.369053  	92.492248 
2566.333477  	92.452686 
2567.297902  	92.458904 
2568.262326  	92.430077 
2569.226751  	92.349211 
2570.191175  	92.341626 
2571.155600  	92.439875 
2572.120024  	92.475322 
2573.084449  	92.465331 
2574.048873  	92.396364 
2575.013298  	92.327022 
2575.977722  	92.396214 
2576.942146  	92.456321 
2577.906571  	92.447446 
2578.870995  	92.442935 
2579.835420  	92.441107 
2580.799844  	92.466482 
2581.764269  	92.421472 
2582.728693  	92.458380 
2583.693118  	92.448194 
2584.657542  	92.370369 
2585.621967  	92.393639 
2586.586391  	92.401085 
2587.550815  	92.408695 
2588.515240  	92.453811 
2589.479664  	92.416748 
2590.444089  	92.395695 
2591.408513  	92.426748 
2592.372938  	92.406125 
2593.337362  	92.380336 
2594.301787  	92.355687 
2595.266211  	92.340296 
2596.230636  	92.383247 
2597.195060  	92.434082 
2598.159484  	92.462236 
2599.123909  	92.470598 
2600.088333  	92.467594 
2601.052758  	92.438552 
2602.017182  	92.431734 
2602.981607  	92.408093 
2603.946031  	92.411852 
2604.910456  	92.454715 
2605.874880  	92.426602 
2606.839305  	92.389392 
2607.803729  	92.393308 
2608.768153  	92.407041 
2609.732578  	92.405199 
2610.697002  	92.406029 
2611.661427  	92.405586 
2612.625851  	92.401693 
2613.590276  	92.426302 
2614.554700  	92.414664 
2615.519125  	92.382023 
2616.483549  	92.387376 
2617.447974  	92.385096 
2618.412398  	92.375834 
2619.376822  	92.373208 
2620.341247  	92.360902 
2621.305671  	92.338380 
2622.270096  	92.331529 
2623.234520  	92.351456 
2624.198945  	92.358263 
2625.163369  	92.380102 
2626.127794  	92.377728 
2627.092218  	92.336749 
2628.056643  	92.331144 
2629.021067  	92.316513 
2629.985492  	92.332645 
2630.949916  	92.419045 
2631.914340  	92.392636 
2632.878765  	92.359504 
2633.843189  	92.388700 
2634.807614  	92.397248 
2635.772038  	92.402634 
2636.736463  	92.369353 
2637.700887  	92.372657 
2638.665312  	92.399815 
2639.629736  	92.385767 
2640.594161  	92.375498 
2641.558585  	92.397180 
2642.523009  	92.401612 
2643.487434  	92.404837 
2644.451858  	92.425353 
2645.416283  	92.416669 
2646.380707  	92.395754 
2647.345132  	92.398802 
2648.309556  	92.431099 
2649.273981  	92.434394 
2650.238405  	92.432716 
2651.202830  	92.449912 
2652.167254  	92.446070 
2653.131678  	92.407084 
2654.096103  	92.396512 
2655.060527  	92.394514 
2656.024952  	92.391297 
2656.989376  	92.416947 
2657.953801  	92.429659 
2658.918225  	92.457075 
2659.882650  	92.472366 
2660.847074  	92.454504 
2661.811499  	92.465382 
2662.775923  	92.480337 
2663.740347  	92.504992 
2664.704772  	92.499255 
2665.669196  	92.523491 
2666.633621  	92.544042 
2667.598045  	92.525606 
2668.562470  	92.518788 
2669.526894  	92.507572 
2670.491319  	92.489771 
2671.455743  	92.541208 
2672.420168  	92.558324 
2673.384592  	92.543181 
2674.349016  	92.543783 
2675.313441  	92.564556 
2676.277865  	92.560209 
2677.242290  	92.536988 
2678.206714  	92.528750 
2679.171139  	92.558356 
2680.135563  	92.552459 
2681.099988  	92.537987 
2682.064412  	92.542515 
2683.028837  	92.543876 
2683.993261  	92.533477 
2684.957686  	92.548448 
2685.922110  	92.564530 
2686.886534  	92.536435 
2687.850959  	92.506596 
2688.815383  	92.528613 
2689.779808  	92.518568 
2690.744232  	92.508135 
2691.708657  	92.535841 
2692.673081  	92.548656 
2693.637506  	92.538202 
2694.601930  	92.566275 
2695.566355  	92.581840 
2696.530779  	92.559375 
2697.495203  	92.544508 
2698.459628  	92.551772 
2699.424052  	92.568537 
2700.388477  	92.548357 
2701.352901  	92.520863 
2702.317326  	92.520105 
2703.281750  	92.553374 
2704.246175  	92.573971 
2705.210599  	92.548994 
2706.175024  	92.529263 
2707.139448  	92.510258 
2708.103872  	92.500475 
2709.068297  	92.537242 
2710.032721  	92.540970 
2710.997146  	92.509702 
2711.961570  	92.511932 
2712.925995  	92.527949 
2713.890419  	92.546919 
2714.854844  	92.535939 
2715.819268  	92.534623 
2716.783693  	92.545239 
2717.748117  	92.536328 
2718.712541  	92.540255 
2719.676966  	92.549680 
2720.641390  	92.553098 
2721.605815  	92.560988 
2722.570239  	92.560018 
2723.534664  	92.563284 
2724.499088  	92.552756 
2725.463513  	92.525111 
2726.427937  	92.520963 
2727.392362  	92.533390 
2728.356786  	92.525789 
2729.321210  	92.508649 
2730.285635  	92.504729 
2731.250059  	92.481010 
2732.214484  	92.479421 
2733.178908  	92.476206 
2734.143333  	92.476484 
2735.107757  	92.480727 
2736.072182  	92.507518 
2737.036606  	92.546072 
2738.001031  	92.541081 
2738.965455  	92.504099 
2739.929879  	92.480263 
2740.894304  	92.489433 
2741.858728  	92.476267 
2742.823153  	92.453535 
2743.787577  	92.452506 
2744.752002  	92.473150 
2745.716426  	92.461918 
2746.680851  	92.454076 
2747.645275  	92.460139 
2748.609700  	92.443994 
2749.574124  	92.439696 
2750.538549  	92.454624 
2751.502973  	92.434654 
2752.467397  	92.454041 
2753.431822  	92.481704 
2754.396246  	92.487670 
2755.360671  	92.477522 
2756.325095  	92.491258 
2757.289520  	92.473176 
2758.253944  	92.481738 
2759.218369  	92.477011 
2760.182793  	92.454196 
2761.147218  	92.446054 
2762.111642  	92.446570 
2763.076066  	92.451864 
2764.040491  	92.481706 
2765.004915  	92.507292 
2765.969340  	92.503423 
2766.933764  	92.487048 
2767.898189  	92.462036 
2768.862613  	92.442708 
2769.827038  	92.445055 
2770.791462  	92.437762 
2771.755887  	92.420269 
2772.720311  	92.420743 
2773.684735  	92.428634 
2774.649160  	92.425835 
2775.613584  	92.454458 
2776.578009  	92.460514 
2777.542433  	92.455471 
2778.506858  	92.445163 
2779.471282  	92.445428 
2780.435707  	92.428421 
2781.400131  	92.410645 
2782.364556  	92.431205 
2783.328980  	92.443571 
2784.293404  	92.444195 
2785.257829  	92.435549 
2786.222253  	92.416412 
2787.186678  	92.418725 
2788.151102  	92.403541 
2789.115527  	92.453115 
2790.079951  	92.446679 
2791.044376  	92.404758 
2792.008800  	92.394779 
2792.973225  	92.374728 
2793.937649  	92.369567 
2794.902073  	92.368800 
2795.866498  	92.389952 
2796.830922  	92.416859 
2797.795347  	92.420053 
2798.759771  	92.406320 
2799.724196  	92.357065 
2800.688620  	92.320292 
2801.653045  	92.302006 
2802.617469  	92.323629 
2803.581894  	92.359670 
2804.546318  	92.359180 
2805.510743  	92.372046 
2806.475167  	92.353832 
2807.439591  	92.313824 
2808.404016  	92.296006 
2809.368440  	92.309862 
2810.332865  	92.333661 
2811.297289  	92.317866 
2812.261714  	92.305385 
2813.226138  	92.330967 
2814.190563  	92.327339 
2815.154987  	92.329227 
2816.119412  	92.344775 
2817.083836  	92.334651 
2818.048260  	92.316741 
2819.012685  	92.316475 
2819.977109  	92.348078 
2820.941534  	92.335914 
2821.905958  	92.328763 
2822.870383  	92.337409 
2823.834807  	92.343499 
2824.799232  	92.318900 
2825.763656  	92.304263 
2826.728081  	92.300517 
2827.692505  	92.321267 
2828.656929  	92.337711 
2829.621354  	92.347052 
2830.585778  	92.323057 
2831.550203  	92.294659 
2832.514627  	92.259284 
2833.479052  	92.250649 
2834.443476  	92.256341 
2835.407901  	92.258353 
2836.372325  	92.236615 
2837.336750  	92.218783 
2838.301174  	92.192737 
2839.265598  	92.149186 
2840.230023  	92.132423 
2841.194447  	92.149136 
2842.158872  	92.108113 
2843.123296  	92.070740 
2844.087721  	92.031234 
2845.052145  	91.996348 
2846.016570  	91.930736 
2846.980994  	91.892414 
2847.945419  	91.851935 
2848.909843  	91.800282 
2849.874267  	91.731359 
2850.838692  	91.695609 
2851.803116  	91.682157 
2852.767541  	91.679660 
2853.731965  	91.715524 
2854.696390  	91.757304 
2855.660814  	91.809256 
2856.625239  	91.845687 
2857.589663  	91.864147 
2858.554088  	91.889919 
2859.518512  	91.905255 
2860.482936  	91.934237 
2861.447361  	91.944217 
2862.411785  	91.971756 
2863.376210  	91.976524 
2864.340634  	91.949607 
2865.305059  	91.945356 
2866.269483  	91.951329 
2867.233908  	91.921200 
2868.198332  	91.896539 
2869.162757  	91.912852 
2870.127181  	91.943999 
2871.091606  	91.913092 
2872.056030  	91.906310 
2873.020454  	91.910351 
2873.984879  	91.886638 
2874.949303  	91.854891 
2875.913728  	91.875229 
2876.878152  	91.896094 
2877.842577  	91.862370 
2878.807001  	91.856977 
2879.771426  	91.887923 
2880.735850  	91.853366 
2881.700275  	91.821986 
2882.664699  	91.832262 
2883.629123  	91.827684 
2884.593548  	91.804612 
2885.557972  	91.802522 
2886.522397  	91.787430 
2887.486821  	91.764350 
2888.451246  	91.714141 
2889.415670  	91.714967 
2890.380095  	91.721650 
2891.344519  	91.713872 
2892.308944  	91.717389 
2893.273368  	91.691705 
2894.237792  	91.673559 
2895.202217  	91.619892 
2896.166641  	91.609846 
2897.131066  	91.607702 
2898.095490  	91.588409 
2899.059915  	91.562068 
2900.024339  	91.511828 
2900.988764  	91.494022 
2901.953188  	91.457969 
2902.917613  	91.394697 
2903.882037  	91.313965 
2904.846461  	91.301078 
2905.810886  	91.297813 
2906.775310  	91.279779 
2907.739735  	91.256514 
2908.704159  	91.210069 
2909.668584  	91.189667 
2910.633008  	91.174540 
2911.597433  	91.193945 
2912.561857  	91.234826 
2913.526282  	91.241651 
2914.490706  	91.207688 
2915.455130  	91.183684 
2916.419555  	91.197461 
2917.383979  	91.227719 
2918.348404  	91.217354 
2919.312828  	91.238080 
2920.277253  	91.239232 
2921.241677  	91.246318 
2922.206102  	91.292468 
2923.170526  	91.312601 
2924.134951  	91.376924 
2925.099375  	91.443912 
2926.063800  	91.446254 
2927.028224  	91.452482 
2927.992648  	91.508659 
2928.957073  	91.546828 
2929.921497  	91.548303 
2930.885922  	91.551177 
2931.850346  	91.586866 
2932.814771  	91.631493 
2933.779195  	91.624474 
2934.743620  	91.610939 
2935.708044  	91.605741 
2936.672469  	91.618336 
2937.636893  	91.635662 
2938.601317  	91.634009 
2939.565742  	91.638064 
2940.530166  	91.630011 
2941.494591  	91.598896 
2942.459015  	91.573067 
2943.423440  	91.557399 
2944.387864  	91.511801 
2945.352289  	91.471694 
2946.316713  	91.441564 
2947.281138  	91.430114 
2948.245562  	91.411455 
2949.209986  	91.323816 
2950.174411  	91.261060 
2951.138835  	91.247202 
2952.103260  	91.208343 
2953.067684  	91.168961 
2954.032109  	91.100136 
2954.996533  	91.058388 
2955.960958  	91.014303 
2956.925382  	90.957866 
2957.889807  	90.924962 
2958.854231  	90.885124 
2959.818655  	90.860180 
2960.783080  	90.864384 
2961.747504  	90.826652 
2962.711929  	90.824964 
2963.676353  	90.781729 
2964.640778  	90.712421 
2965.605202  	90.686745 
2966.569627  	90.681584 
2967.534051  	90.702335 
2968.498476  	90.776427 
2969.462900  	90.777877 
2970.427324  	90.749703 
2971.391749  	90.780174 
2972.356173  	90.858566 
2973.320598  	90.941583 
2974.285022  	90.986356 
2975.249447  	91.010947 
2976.213871  	91.095617 
2977.178296  	91.189621 
2978.142720  	91.226000 
2979.107145  	91.262748 
2980.071569  	91.378839 
2981.035993  	91.432212 
2982.000418  	91.491204 
2982.964842  	91.578669 
2983.929267  	91.624030 
2984.893691  	91.654108 
2985.858116  	91.651775 
2986.822540  	91.696998 
2987.786965  	91.751048 
2988.751389  	91.753379 
2989.715814  	91.756187 
2990.680238  	91.807679 
2991.644663  	91.861091 
2992.609087  	91.880549 
2993.573511  	91.873316 
2994.537936  	91.846008 
2995.502360  	91.877115 
2996.466785  	91.910419 
2997.431209  	91.915612 
2998.395634  	91.962815 
2999.360058  	91.982433 
3000.324483  	91.959964 
3001.288907  	91.965573 
3002.253332  	91.970591 
3003.217756  	91.972079 
3004.182180  	91.927472 
3005.146605  	91.928475 
3006.111029  	92.022268 
3007.075454  	92.122551 
3008.039878  	92.162137 
3009.004303  	92.151266 
3009.968727  	92.091581 
3010.933152  	92.039136 
3011.897576  	92.048758 
3012.862001  	92.045044 
3013.826425  	92.126074 
3014.790849  	92.207995 
3015.755274  	92.189596 
3016.719698  	92.220050 
3017.684123  	92.306020 
3018.648547  	92.325554 
3019.612972  	92.291637 
3020.577396  	92.340496 
3021.541821  	92.388656 
3022.506245  	92.378310 
3023.470670  	92.377105 
3024.435094  	92.420819 
3025.399518  	92.438606 
3026.363943  	92.478517 
3027.328367  	92.523949 
3028.292792  	92.541951 
3029.257216  	92.537747 
3030.221641  	92.470488 
3031.186065  	92.364864 
3032.150490  	92.316786 
3033.114914  	92.407113 
3034.079339  	92.424943 
3035.043763  	92.446539 
3036.008187  	92.505142 
3036.972612  	92.510637 
3037.937036  	92.474514 
3038.901461  	92.471844 
3039.865885  	92.493804 
3040.830310  	92.509149 
3041.794734  	92.517671 
3042.759159  	92.493994 
3043.723583  	92.508941 
3044.688008  	92.494794 
3045.652432  	92.466650 
3046.616857  	92.445254 
3047.581281  	92.392940 
3048.545705  	92.284514 
3049.510130  	92.215604 
3050.474554  	92.220263 
3051.438979  	92.244994 
3052.403403  	92.260978 
3053.367828  	92.252672 
3054.332252  	92.221140 
3055.296677  	92.222783 
3056.261101  	92.189302 
3057.225526  	92.192579 
3058.189950  	92.288683 
3059.154374  	92.327237 
3060.118799  	92.337094 
3061.083223  	92.342832 
3062.047648  	92.349683 
3063.012072  	92.296274 
3063.976497  	92.197063 
3064.940921  	92.161648 
3065.905346  	92.219467 
3066.869770  	92.215211 
3067.834195  	92.229318 
3068.798619  	92.285843 
3069.763043  	92.296221 
3070.727468  	92.308525 
3071.691892  	92.343805 
3072.656317  	92.342933 
3073.620741  	92.315991 
3074.585166  	92.345284 
3075.549590  	92.357387 
3076.514015  	92.315993 
3077.478439  	92.289879 
3078.442864  	92.322087 
3079.407288  	92.275519 
3080.371712  	92.275595 
3081.336137  	92.313221 
3082.300561  	92.260579 
3083.264986  	92.320586 
3084.229410  	92.415026 
3085.193835  	92.422317 
3086.158259  	92.425082 
3087.122684  	92.380868 
3088.087108  	92.361761 
3089.051533  	92.434795 
3090.015957  	92.469835 
3090.980381  	92.473930 
3091.944806  	92.494736 
3092.909230  	92.495253 
3093.873655  	92.446831 
3094.838079  	92.409717 
3095.802504  	92.443883 
3096.766928  	92.468369 
3097.731353  	92.432959 
3098.695777  	92.432873 
3099.660202  	92.432511 
3100.624626  	92.395423 
3101.589050  	92.351710 
3102.553475  	92.349718 
3103.517899  	92.373519 
3104.482324  	92.424822 
3105.446748  	92.434030 
3106.411173  	92.418375 
3107.375597  	92.402923 
3108.340022  	92.416873 
3109.304446  	92.476302 
3110.268871  	92.478573 
3111.233295  	92.458358 
3112.197720  	92.424811 
3113.162144  	92.431614 
3114.126568  	92.488457 
3115.090993  	92.492755 
3116.055417  	92.462651 
3117.019842  	92.499485 
3117.984266  	92.501192 
3118.948691  	92.428344 
3119.913115  	92.500933 
3120.877540  	92.583152 
3121.841964  	92.513599 
3122.806389  	92.411973 
3123.770813  	92.467241 
3124.735237  	92.562233 
3125.699662  	92.570449 
3126.664086  	92.538470 
3127.628511  	92.581865 
3128.592935  	92.608538 
3129.557360  	92.568537 
3130.521784  	92.565130 
3131.486209  	92.603862 
3132.450633  	92.501700 
3133.415058  	92.419696 
3134.379482  	92.541578 
3135.343906  	92.609209 
3136.308331  	92.589781 
3137.272755  	92.541670 
3138.237180  	92.563488 
3139.201604  	92.637437 
3140.166029  	92.645017 
3141.130453  	92.642693 
3142.094878  	92.597402 
3143.059302  	92.534654 
3144.023727  	92.573733 
3144.988151  	92.643047 
3145.952575  	92.560616 
3146.917000  	92.512376 
3147.881424  	92.589574 
3148.845849  	92.660912 
3149.810273  	92.627317 
3150.774698  	92.609825 
3151.739122  	92.644037 
3152.703547  	92.653516 
3153.667971  	92.625860 
3154.632396  	92.630576 
3155.596820  	92.629684 
3156.561244  	92.619253 
3157.525669  	92.638561 
3158.490093  	92.598920 
3159.454518  	92.596270 
3160.418942  	92.638947 
3161.383367  	92.614572 
3162.347791  	92.596507 
3163.312216  	92.593512 
3164.276640  	92.620849 
3165.241065  	92.686941 
3166.205489  	92.694237 
3167.169914  	92.632063 
3168.134338  	92.589331 
3169.098762  	92.583282 
3170.063187  	92.564739 
3171.027611  	92.596398 
3171.992036  	92.619378 
3172.956460  	92.620504 
3173.920885  	92.635016 
3174.885309  	92.622516 
3175.849734  	92.581637 
3176.814158  	92.572246 
3177.778583  	92.501577 
3178.743007  	92.462466 
3179.707431  	92.510971 
3180.671856  	92.556750 
3181.636280  	92.633723 
3182.600705  	92.635020 
3183.565129  	92.580237 
3184.529554  	92.532065 
3185.493978  	92.517555 
3186.458403  	92.578879 
3187.422827  	92.602732 
3188.387252  	92.594410 
3189.351676  	92.641844 
3190.316100  	92.659927 
3191.280525  	92.634805 
3192.244949  	92.671589 
3193.209374  	92.683086 
3194.173798  	92.657771 
3195.138223  	92.625856 
3196.102647  	92.557093 
3197.067072  	92.509365 
3198.031496  	92.503307 
3198.995921  	92.570707 
3199.960345  	92.585063 
3200.924769  	92.603999 
3201.889194  	92.658594 
3202.853618  	92.642167 
3203.818043  	92.591864 
3204.782467  	92.594025 
3205.746892  	92.572817 
3206.711316  	92.515454 
3207.675741  	92.517854 
3208.640165  	92.555374 
3209.604590  	92.548507 
3210.569014  	92.526048 
3211.533438  	92.577403 
3212.497863  	92.560500 
3213.462287  	92.516632 
3214.426712  	92.495467 
3215.391136  	92.546479 
3216.355561  	92.589454 
3217.319985  	92.559171 
3218.284410  	92.561025 
3219.248834  	92.530802 
3220.213259  	92.561557 
3221.177683  	92.604380 
3222.142107  	92.564960 
3223.106532  	92.582374 
3224.070956  	92.609418 
3225.035381  	92.572583 
3225.999805  	92.594699 
3226.964230  	92.612389 
3227.928654  	92.541433 
3228.893079  	92.564622 
3229.857503  	92.585316 
3230.821928  	92.539964 
3231.786352  	92.513890 
3232.750777  	92.523635 
3233.715201  	92.534657 
3234.679625  	92.537020 
3235.644050  	92.550979 
3236.608474  	92.571644 
3237.572899  	92.570072 
3238.537323  	92.576230 
3239.501748  	92.544306 
3240.466172  	92.508843 
3241.430597  	92.549431 
3242.395021  	92.643944 
3243.359446  	92.630806 
3244.323870  	92.512858 
3245.288294  	92.398666 
3246.252719  	92.463636 
3247.217143  	92.576553 
3248.181568  	92.581024 
3249.145992  	92.557366 
3250.110417  	92.573694 
3251.074841  	92.604897 
3252.039266  	92.574703 
3253.003690  	92.552915 
3253.968115  	92.521637 
3254.932539  	92.532313 
3255.896963  	92.544562 
3256.861388  	92.507529 
3257.825812  	92.556948 
3258.790237  	92.536009 
3259.754661  	92.500200 
3260.719086  	92.523295 
3261.683510  	92.618105 
3262.647935  	92.634622 
3263.612359  	92.593629 
3264.576784  	92.598525 
3265.541208  	92.567325 
3266.505632  	92.553876 
3267.470057  	92.589675 
3268.434481  	92.610977 
3269.398906  	92.536118 
3270.363330  	92.494429 
3271.327755  	92.532456 
3272.292179  	92.507966 
3273.256604  	92.477852 
3274.221028  	92.481565 
3275.185453  	92.525887 
3276.149877  	92.486687 
3277.114301  	92.445954 
3278.078726  	92.497657 
3279.043150  	92.461521 
3280.007575  	92.453495 
3280.971999  	92.493656 
3281.936424  	92.549077 
3282.900848  	92.515334 
3283.865273  	92.407683 
3284.829697  	92.421494 
3285.794122  	92.457477 
3286.758546  	92.475640 
3287.722971  	92.491285 
3288.687395  	92.482139 
3289.651819  	92.515054 
3290.616244  	92.505825 
3291.580668  	92.492966 
3292.545093  	92.475400 
3293.509517  	92.480813 
3294.473942  	92.537277 
3295.438366  	92.527520 
3296.402791  	92.474822 
3297.367215  	92.456274 
3298.331640  	92.431248 
3299.296064  	92.470069 
3300.260488  	92.574285 
3301.224913  	92.623338 
3302.189337  	92.585854 
3303.153762  	92.488322 
3304.118186  	92.507842 
3305.082611  	92.580850 
3306.047035  	92.601412 
3307.011460  	92.621801 
3307.975884  	92.564616 
3308.940309  	92.473801 
3309.904733  	92.545176 
3310.869157  	92.543474 
3311.833582  	92.514632 
3312.798006  	92.557755 
3313.762431  	92.580357 
3314.726855  	92.584445 
3315.691280  	92.519642 
3316.655704  	92.514358 
3317.620129  	92.558141 
3318.584553  	92.553866 
3319.548978  	92.518241 
3320.513402  	92.509022 
3321.477826  	92.531179 
3322.442251  	92.540347 
3323.406675  	92.586807 
3324.371100  	92.573641 
3325.335524  	92.522176 
3326.299949  	92.544075 
3327.264373  	92.537094 
3328.228798  	92.491793 
3329.193222  	92.469038 
3330.157647  	92.483797 
3331.122071  	92.532707 
3332.086495  	92.618415 
3333.050920  	92.589691 
3334.015344  	92.512028 
3334.979769  	92.475655 
3335.944193  	92.494964 
3336.908618  	92.405366 
3337.873042  	92.448367 
3338.837467  	92.553232 
3339.801891  	92.545207 
3340.766316  	92.565147 
3341.730740  	92.572500 
3342.695164  	92.547948 
3343.659589  	92.574400 
3344.624013  	92.662942 
3345.588438  	92.696250 
3346.552862  	92.637410 
3347.517287  	92.599981 
3348.481711  	92.579236 
3349.446136  	92.587600 
3350.410560  	92.643682 
3351.374985  	92.684123 
3352.339409  	92.698759 
3353.303834  	92.630020 
3354.268258  	92.595929 
3355.232682  	92.603904 
3356.197107  	92.501904 
3357.161531  	92.517111 
3358.125956  	92.603035 
3359.090380  	92.619794 
3360.054805  	92.518162 
3361.019229  	92.471858 
3361.983654  	92.487946 
3362.948078  	92.567815 
3363.912503  	92.590395 
3364.876927  	92.481986 
3365.841351  	92.515399 
3366.805776  	92.550894 
3367.770200  	92.507462 
3368.734625  	92.481765 
3369.699049  	92.548238 
3370.663474  	92.672132 
3371.627898  	92.718598 
3372.592323  	92.629897 
3373.556747  	92.561260 
3374.521172  	92.594062 
3375.485596  	92.618724 
3376.450020  	92.562694 
3377.414445  	92.559786 
3378.378869  	92.613799 
3379.343294  	92.672710 
3380.307718  	92.683896 
3381.272143  	92.724452 
3382.236567  	92.685116 
3383.200992  	92.622156 
3384.165416  	92.558366 
3385.129841  	92.481038 
3386.094265  	92.523138 
3387.058689  	92.617307 
3388.023114  	92.647915 
3388.987538  	92.711502 
3389.951963  	92.695403 
3390.916387  	92.644877 
3391.880812  	92.603711 
3392.845236  	92.400233 
3393.809661  	92.385661 
3394.774085  	92.575431 
3395.738510  	92.614892 
3396.702934  	92.565923 
3397.667358  	92.468603 
3398.631783  	92.617700 
3399.596207  	92.768304 
3400.560632  	92.701132 
3401.525056  	92.628762 
3402.489481  	92.649031 
3403.453905  	92.596632 
3404.418330  	92.540114 
3405.382754  	92.554841 
3406.347179  	92.575172 
3407.311603  	92.538483 
3408.276028  	92.494202 
3409.240452  	92.467473 
3410.204876  	92.439778 
3411.169301  	92.454297 
3412.133725  	92.534491 
3413.098150  	92.542968 
3414.062574  	92.512130 
3415.026999  	92.486614 
3415.991423  	92.417127 
3416.955848  	92.390164 
3417.920272  	92.359125 
3418.884697  	92.356207 
3419.849121  	92.220562 
3420.813545  	91.943031 
3421.777970  	91.939333 
3422.742394  	92.083169 
3423.706819  	92.198795 
3424.671243  	92.250537 
3425.635668  	92.274194 
3426.600092  	92.261058 
3427.564517  	92.236284 
3428.528941  	92.247879 
3429.493366  	92.319666 
3430.457790  	92.252670 
3431.422214  	92.178580 
3432.386639  	92.179068 
3433.351063  	92.247810 
3434.315488  	92.393929 
3435.279912  	92.428968 
3436.244337  	92.444272 
3437.208761  	92.457963 
3438.173186  	92.388483 
3439.137610  	92.336863 
3440.102035  	92.384371 
3441.066459  	92.482734 
3442.030883  	92.431944 
3442.995308  	92.209922 
3443.959732  	92.315051 
3444.924157  	92.386470 
3445.888581  	92.312572 
3446.853006  	91.929695 
3447.817430  	91.678778 
3448.781855  	92.259090 
3449.746279  	92.554885 
3450.710704  	92.553278 
3451.675128  	92.565225 
3452.639552  	92.585221 
3453.603977  	92.576123 
3454.568401  	92.553696 
3455.532826  	92.549503 
3456.497250  	92.571679 
3457.461675  	92.552260 
3458.426099  	92.518443 
3459.390524  	92.558196 
3460.354948  	92.622253 
3461.319373  	92.544239 
3462.283797  	92.481361 
3463.248221  	92.449532 
3464.212646  	92.627359 
3465.177070  	92.666253 
3466.141495  	92.555301 
3467.105919  	92.355719 
3468.070344  	92.485408 
3469.034768  	92.676003 
3469.999193  	92.666320 
3470.963617  	92.648505 
3471.928042  	92.645383 
3472.892466  	92.621511 
3473.856891  	92.611358 
3474.821315  	92.520807 
3475.785739  	92.555685 
3476.750164  	92.687085 
3477.714588  	92.710299 
3478.679013  	92.660773 
3479.643437  	92.532369 
3480.607862  	92.304368 
3481.572286  	92.250369 
3482.536711  	92.169422 
3483.501135  	92.419912 
3484.465560  	92.644342 
3485.429984  	92.598840 
3486.394408  	92.568634 
3487.358833  	92.560091 
3488.323257  	92.325056 
3489.287682  	92.346270 
3490.252106  	92.600888 
3491.216531  	92.670445 
3492.180955  	92.741248 
3493.145380  	92.825631 
3494.109804  	92.863608 
3495.074229  	92.652835 
3496.038653  	92.342635 
3497.003077  	92.285278 
3497.967502  	92.477319 
3498.931926  	92.561369 
3499.896351  	92.461617 
3500.860775  	92.414579 
3501.825200  	92.159023 
3502.789624  	91.698097 
3503.754049  	91.600576 
3504.718473  	91.988584 
3505.682898  	92.327623 
3506.647322  	92.538737 
3507.611746  	92.635827 
3508.576171  	92.417065 
3509.540595  	91.863540 
3510.505020  	92.053300 
3511.469444  	92.409413 
3512.433869  	92.443990 
3513.398293  	92.493072 
3514.362718  	92.629524 
3515.327142  	92.739072 
3516.291567  	92.699690 
3517.255991  	92.539749 
3518.220415  	92.474803 
3519.184840  	92.537716 
3520.149264  	92.576411 
3521.113689  	92.649184 
3522.078113  	92.460139 
3523.042538  	91.795579 
3524.006962  	91.511048 
3524.971387  	91.879168 
3525.935811  	92.011310 
3526.900236  	91.867561 
3527.864660  	91.710237 
3528.829085  	91.779830 
3529.793509  	92.014893 
3530.757933  	92.257451 
3531.722358  	92.208710 
3532.686782  	92.434621 
3533.651207  	92.625398 
3534.615631  	92.662249 
3535.580056  	92.434178 
3536.544480  	91.834659 
3537.508905  	91.963294 
3538.473329  	92.481808 
3539.437754  	92.522235 
3540.402178  	92.515553 
3541.366602  	92.510252 
3542.331027  	92.519399 
3543.295451  	92.298327 
3544.259876  	91.917340 
3545.224300  	91.149364 
3546.188725  	90.944518 
3547.153149  	91.003894 
3548.117574  	91.395397 
3549.081998  	92.193472 
3550.046423  	92.505953 
3551.010847  	92.414968 
3551.975271  	91.889164 
3552.939696  	91.598360 
3553.904120  	91.915910 
3554.868545  	92.258726 
3555.832969  	92.568087 
3556.797394  	92.517837 
3557.761818  	92.473542 
3558.726243  	92.542253 
3559.690667  	92.218778 
3560.655092  	91.840994 
3561.619516  	92.194589 
3562.583940  	92.176800 
3563.548365  	92.011710 
3564.512789  	91.925685 
3565.477214  	91.251054 
3566.441638  	89.352208 
3567.406063  	89.214063 
3568.370487  	89.611047 
3569.334912  	90.909678 
3570.299336  	91.936010 
3571.263761  	92.157826 
3572.228185  	92.526840 
3573.192609  	92.545343 
3574.157034  	92.408696 
3575.121458  	92.381761 
3576.085883  	92.488609 
3577.050307  	92.382164 
3578.014732  	92.355224 
3578.979156  	92.401397 
3579.943581  	92.069780 
3580.908005  	92.052428 
3581.872430  	92.418062 
3582.836854  	92.453803 
3583.801278  	92.297885 
3584.765703  	92.284605 
3585.730127  	91.993039 
3586.694552  	90.591360 
3587.658976  	89.676594 
3588.623401  	89.935696 
3589.587825  	90.922093 
3590.552250  	92.141516 
3591.516674  	92.448390 
3592.481099  	92.353626 
3593.445523  	91.744825 
3594.409948  	91.728010 
3595.374372  	91.377265 
3596.338796  	91.214689 
3597.303221  	91.996823 
3598.267645  	92.071535 
3599.232070  	91.767098 
3600.196494  	91.836728 
3601.160919  	91.596898 
3602.125343  	91.863933 
3603.089768  	92.129532 
3604.054192  	92.396646 
3605.018617  	92.520811 
3605.983041  	92.347499 
3606.947465  	91.311595 
3607.911890  	90.820254 
3608.876314  	91.103625 
3609.840739  	90.875116 
3610.805163  	91.792864 
3611.769588  	91.842504 
3612.734012  	90.752792 
3613.698437  	90.831633 
3614.662861  	91.031303 
3615.627286  	91.041832 
3616.591710  	91.899950 
3617.556134  	91.461997 
3618.520559  	90.645689 
3619.484983  	90.538447 
3620.449408  	90.582482 
3621.413832  	91.234641 
3622.378257  	91.906902 
3623.342681  	92.298173 
3624.307106  	92.447017 
3625.271530  	92.440361 
3626.235955  	92.012844 
3627.200379  	91.757591 
3628.164803  	90.885604 
3629.129228  	88.265722 
3630.093652  	88.817208 
3631.058077  	91.100436 
3632.022501  	92.023378 
3632.986926  	92.067349 
3633.951350  	91.386441 
3634.915775  	91.747544 
3635.880199  	92.433275 
3636.844624  	92.540505 
3637.809048  	92.364164 
3638.773472  	92.282092 
3639.737897  	92.529132 
3640.702321  	92.597619 
3641.666746  	92.364067 
3642.631170  	92.002487 
3643.595595  	92.162121 
3644.560019  	92.503545 
3645.524444  	92.264796 
3646.488868  	91.258347 
3647.453293  	89.634412 
3648.417717  	89.692542 
3649.382142  	89.447484 
3650.346566  	88.734976 
3651.310990  	89.016626 
3652.275415  	90.916969 
3653.239839  	92.158451 
3654.204264  	92.498903 
3655.168688  	92.403633 
3656.133113  	91.543821 
3657.097537  	91.247001 
3658.061962  	92.336387 
3659.026386  	92.625258 
3659.990811  	92.481314 
3660.955235  	92.595771 
3661.919659  	92.812883 
3662.884084  	92.823347 
3663.848508  	92.848362 
3664.812933  	92.830690 
3665.777357  	92.859802 
3666.741782  	92.935753 
3667.706206  	92.839749 
3668.670631  	91.937050 
3669.635055  	90.863944 
3670.599480  	90.281408 
3671.563904  	90.727716 
3672.528328  	92.097556 
3673.492753  	92.352556 
3674.457177  	91.263779 
3675.421602  	88.676087 
3676.386026  	89.134282 
3677.350451  	90.873968 
3678.314875  	91.642286 
3679.279300  	91.709015 
3680.243724  	91.783281 
3681.208149  	92.485652 
3682.172573  	92.837385 
3683.136997  	92.871507 
3684.101422  	92.754856 
3685.065846  	92.652181 
3686.030271  	92.742608 
3686.994695  	92.540390 
3687.959120  	91.783946 
3688.923544  	90.857369 
3689.887969  	91.343302 
3690.852393  	90.798243 
3691.816818  	90.624809 
3692.781242  	92.095676 
3693.745666  	92.538973 
3694.710091  	92.639055 
3695.674515  	92.784936 
3696.638940  	92.677587 
3697.603364  	92.750691 
3698.567789  	92.941049 
3699.532213  	92.901770 
3700.496638  	92.838119 
3701.461062  	92.111566 
3702.425487  	91.560811 
3703.389911  	92.443418 
3704.354335  	92.833985 
3705.318760  	92.757307 
3706.283184  	92.761391 
3707.247609  	92.851385 
3708.212033  	92.776790 
3709.176458  	92.137368 
3710.140882  	91.468022 
3711.105307  	91.276046 
3712.069731  	90.365247 
3713.034156  	90.519442 
3713.998580  	91.899423 
3714.963005  	92.035771 
3715.927429  	92.291064 
3716.891853  	92.793379 
3717.856278  	92.863800 
3718.820702  	92.303376 
3719.785127  	92.049078 
3720.749551  	92.592754 
3721.713976  	92.193763 
3722.678400  	90.961414 
3723.642825  	91.528745 
3724.607249  	91.859855 
3725.571674  	91.194242 
3726.536098  	90.975853 
3727.500522  	91.281152 
3728.464947  	92.204909 
3729.429371  	92.713882 
3730.393796  	92.609113 
3731.358220  	92.247286 
3732.322645  	91.480937 
3733.287069  	91.564264 
3734.251494  	91.015308 
3735.215918  	88.219207 
3736.180343  	88.561863 
3737.144767  	90.108190 
3738.109191  	90.941508 
3739.073616  	91.324479 
3740.038040  	91.930256 
3741.002465  	91.697120 
3741.966889  	91.820763 
3742.931314  	92.288129 
3743.895738  	91.359002 
3744.860163  	88.224422 
3745.824587  	90.381565 
3746.789012  	91.476354 
3747.753436  	91.509509 
3748.717860  	91.318886 
3749.682285  	90.775962 
3750.646709  	90.629053 
3751.611134  	90.318945 
3752.575558  	89.161113 
3753.539983  	90.749550 
3754.504407  	91.841291 
3755.468832  	92.336310 
3756.433256  	92.052069 
3757.397681  	92.055531 
3758.362105  	92.311309 
3759.326529  	91.467866 
3760.290954  	91.025492 
3761.255378  	92.335341 
3762.219803  	92.738164 
3763.184227  	92.818412 
3764.148652  	92.841296 
3765.113076  	92.474300 
3766.077501  	91.651006 
3767.041925  	92.248299 
3768.006350  	92.805673 
3768.970774  	92.533203 
3769.935199  	91.585305 
3770.899623  	91.701268 
3771.864047  	92.519432 
3772.828472  	92.897575 
3773.792896  	92.970764 
3774.757321  	93.012417 
3775.721745  	93.149843 
3776.686170  	93.258079 
3777.650594  	93.148773 
3778.615019  	92.712026 
3779.579443  	91.913781 
3780.543868  	92.098866 
3781.508292  	92.875076 
3782.472716  	92.942547 
3783.437141  	92.955717 
3784.401565  	92.637809 
3785.365990  	92.229744 
3786.330414  	92.559486 
3787.294839  	92.860285 
3788.259263  	92.982691 
3789.223688  	93.012068 
3790.188112  	93.064328 
3791.152537  	93.160545 
3792.116961  	93.135177 
3793.081385  	93.134742 
3794.045810  	93.164533 
3795.010234  	93.041345 
3795.974659  	92.522696 
3796.939083  	91.760321 
3797.903508  	92.072881 
3798.867932  	92.615192 
3799.832357  	92.668204 
3800.796781  	91.723273 
3801.761206  	90.317044 
3802.725630  	90.809873 
3803.690054  	91.882397 
3804.654479  	92.711933 
3805.618903  	92.759534 
3806.583328  	92.048475 
3807.547752  	91.351037 
3808.512177  	92.386994 
3809.476601  	92.858966 
3810.441026  	92.904750 
3811.405450  	92.995787 
3812.369875  	93.091979 
3813.334299  	93.154454 
3814.298723  	93.038208 
3815.263148  	92.447759 
3816.227572  	91.109461 
3817.191997  	91.556565 
3818.156421  	92.453864 
3819.120846  	92.366784 
3820.085270  	91.657145 
3821.049695  	90.130772 
3822.014119  	90.139264 
3822.978544  	91.746475 
3823.942968  	92.267847 
3824.907392  	92.462043 
3825.871817  	92.439669 
3826.836241  	91.943993 
3827.800666  	92.058615 
3828.765090  	92.704462 
3829.729515  	93.032951 
3830.693939  	92.902901 
3831.658364  	92.134707 
3832.622788  	92.146335 
3833.587213  	92.743215 
3834.551637  	92.364292 
3835.516062  	91.726710 
3836.480486  	92.250261 
3837.444910  	91.878716 
3838.409335  	90.658146 
3839.373759  	91.101097 
3840.338184  	90.782753 
3841.302608  	90.936545 
3842.267033  	92.169069 
3843.231457  	92.222604 
3844.195882  	91.437072 
3845.160306  	92.213920 
3846.124731  	92.812032 
3847.089155  	92.909210 
3848.053579  	92.961999 
3849.018004  	92.822935 
3849.982428  	92.397877 
3850.946853  	92.356424 
3851.911277  	91.584102 
3852.875702  	90.027227 
3853.840126  	89.363821 
3854.804551  	89.684047 
3855.768975  	91.638665 
3856.733400  	91.846050 
3857.697824  	91.504577 
3858.662248  	92.441297 
3859.626673  	93.024311 
3860.591097  	92.970177 
3861.555522  	92.363971 
3862.519946  	91.869122 
3863.484371  	92.160313 
3864.448795  	91.468982 
3865.413220  	90.508761 
3866.377644  	91.859306 
3867.342069  	92.849883 
3868.306493  	92.749443 
3869.270917  	91.523562 
3870.235342  	89.666060 
3871.199766  	90.834720 
3872.164191  	92.023237 
3873.128615  	92.317829 
3874.093040  	91.168912 
3875.057464  	91.162185 
3876.021889  	92.668717 
3876.986313  	93.066853 
3877.950738  	93.113531 
3878.915162  	93.038918 
3879.879586  	92.131876 
3880.844011  	90.493417 
3881.808435  	91.663543 
3882.772860  	92.560767 
3883.737284  	92.251401 
3884.701709  	92.148891 
3885.666133  	91.404741 
3886.630558  	91.147714 
3887.594982  	92.570460 
3888.559407  	93.042209 
3889.523831  	93.037713 
3890.488256  	92.621914 
3891.452680  	91.452381 
3892.417104  	91.421041 
3893.381529  	92.327433 
3894.345953  	92.312827 
3895.310378  	92.597339 
3896.274802  	93.054729 
3897.239227  	93.037856 
3898.203651  	92.443760 
3899.168076  	91.559086 
3900.132500  	91.473408 
3901.096925  	92.148096 
3902.061349  	91.051721 
3903.025773  	91.021542 
3903.990198  	91.369883 
3904.954622  	90.946802 
3905.919047  	91.253713 
3906.883471  	91.991833 
3907.847896  	92.900422 
3908.812320  	93.174714 
3909.776745  	93.181218 
3910.741169  	93.187320 
3911.705594  	93.178725 
3912.670018  	93.186628 
3913.634442  	93.229579 
3914.598867  	93.285234 
3915.563291  	93.098783 
3916.527716  	92.260080 
3917.492140  	91.567424 
3918.456565  	92.313482 
3919.420989  	92.573261 
3920.385414  	92.001653 
3921.349838  	92.478730 
3922.314263  	93.108470 
3923.278687  	92.831441 
3924.243111  	92.081565 
3925.207536  	91.684092 
3926.171960  	92.356849 
3927.136385  	93.119738 
3928.100809  	93.158254 
3929.065234  	92.932267 
3930.029658  	92.640402 
3930.994083  	92.446836 
3931.958507  	92.075722 
3932.922932  	91.718787 
3933.887356  	92.366866 
3934.851780  	92.715145 
3935.816205  	93.016042 
3936.780629  	93.220203 
3937.745054  	93.194974 
3938.709478  	93.025091 
3939.673903  	93.112964 
3940.638327  	93.180424 
3941.602752  	93.068062 
3942.567176  	92.294330 
3943.531601  	91.887983 
3944.496025  	92.641377 
3945.460449  	93.021150 
3946.424874  	93.073398 
3947.389298  	92.565520 
3948.353723  	92.267010 
3949.318147  	92.527323 
3950.282572  	92.269231 
3951.246996  	92.573250 
3952.211421  	93.081424 
3953.175845  	93.001768 
3954.140270  	93.077004 
3955.104694  	93.217821 
3956.069119  	93.151824 
3957.033543  	92.970037 
3957.997967  	92.976314 
3958.962392  	93.075332 
3959.926816  	93.102785 
3960.891241  	93.054301 
3961.855665  	92.696958 
3962.820090  	92.711918 
3963.784514  	93.168994 
3964.748939  	93.201487 
3965.713363  	93.231877 
3966.677788  	93.297926 
3967.642212  	93.243087 
3968.606636  	93.077648 
3969.571061  	92.952001 
3970.535485  	93.077305 
3971.499910  	93.142513 
3972.464334  	92.971393 
3973.428759  	93.044848 
3974.393183  	93.133587 
3975.357608  	92.994906 
3976.322032  	92.906177 
3977.286457  	93.073007 
3978.250881  	93.291745 
3979.215305  	93.292687 
3980.179730  	93.240858 
3981.144154  	93.231828 
3982.108579  	93.171918 
3983.073003  	93.163148 
3984.037428  	93.270963 
3985.001852  	93.280425 
3985.966277  	93.256409 
3986.930701  	93.292298 
3987.895126  	93.308259 
3988.859550  	93.252823 
3989.823974  	93.142499 
3990.788399  	92.973267 
3991.752823  	93.055518 
3992.717248  	93.200123 
3993.681672  	93.184186 
3994.646097  	93.115893 
3995.610521  	93.065909 
3996.574946  	93.207656 
3997.539370  	93.314610 
3998.503795  	93.326693 
3999.468219  	93.306866 
4000.432643  	93.331880 
4001.397068  	93.360686 
4002.361492  	93.359571 
4003.325917  	93.303054 
4004.290341  	93.298329 
4005.254766  	93.314400 
4006.219190  	93.320915 
4007.183615  	93.307908 
4008.148039  	93.210713 
4009.112464  	93.055732 
4010.076888  	93.148107 
4011.041313  	93.220268 
4012.005737  	93.252994 
4012.970161  	93.262814 
4013.934586  	93.267943 
4014.899010  	93.260877 
4015.863435  	93.250655 
4016.827859  	93.276048 
4017.792284  	93.304138 
4018.756708  	93.284698 
4019.721133  	93.216952 
4020.685557  	93.203504 
4021.649982  	93.277332 
4022.614406  	93.364144 
4023.578830  	93.358996 
4024.543255  	93.245288 
4025.507679  	93.154806 
4026.472104  	93.223539 
4027.436528  	93.315015 
4028.400953  	93.318241 
4029.365377  	93.308917 
4030.329802  	93.268987 
4031.294226  	93.268105 
4032.258651  	93.292227 
4033.223075  	93.363900 
4034.187499  	93.392815 
4035.151924  	93.356386 
4036.116348  	93.309747 
4037.080773  	93.332488 
4038.045197  	93.388427 
4039.009622  	93.362998 
4039.974046  	93.288261 
4040.938471  	93.312194 
4041.902895  	93.342011 
4042.867320  	93.355278 
4043.831744  	93.265075 
4044.796168  	93.178719 
4045.760593  	93.155369 
4046.725017  	93.232724 
4047.689442  	93.304279 
4048.653866  	93.314271 
4049.618291  	93.271069 
4050.582715  	93.286497 
4051.547140  	93.331680 
4052.511564  	93.327025 
4053.475989  	93.326201 
4054.440413  	93.344820 
4055.404837  	93.315171 
4056.369262  	93.333693 
4057.333686  	93.336154 
4058.298111  	93.306135 
4059.262535  	93.312001 
4060.226960  	93.320820 
4061.191384  	93.285944 
4062.155809  	93.316936 
4063.120233  	93.363487 
4064.084658  	93.407940 
4065.049082  	93.387840 
4066.013506  	93.335593 
4066.977931  	93.304625 
4067.942355  	93.319247 
4068.906780  	93.285600 
4069.871204  	93.248409 
4070.835629  	93.287574 
4071.800053  	93.349829 
4072.764478  	93.319446 
4073.728902  	93.299978 
4074.693327  	93.313424 
4075.657751  	93.378760 
4076.622176  	93.376828 
4077.586600  	93.371379 
4078.551024  	93.350090 
4079.515449  	93.292740 
4080.479873  	93.317551 
4081.444298  	93.340550 
4082.408722  	93.266980 
4083.373147  	93.238384 
4084.337571  	93.249754 
4085.301996  	93.271376 
4086.266420  	93.246615 
4087.230845  	93.215317 
4088.195269  	93.245265 
4089.159693  	93.273474 
4090.124118  	93.272788 
4091.088542  	93.287521 
4092.052967  	93.288218 
4093.017391  	93.275306 
4093.981816  	93.290531 
4094.946240  	93.255931 
4095.910665  	93.250929 
4096.875089  	93.316356 
4097.839514  	93.289918 
4098.803938  	93.240572 
4099.768362  	93.269778 
4100.732787  	93.294217 
4101.697211  	93.291995 
4102.661636  	93.329160 
4103.626060  	93.363160 
4104.590485  	93.297445 
4105.554909  	93.238545 
4106.519334  	93.279702 
4107.483758  	93.280595 
4108.448183  	93.301480 
4109.412607  	93.336199 
4110.377031  	93.302099 
4111.341456  	93.376233 
4112.305880  	93.395764 
4113.270305  	93.327330 
4114.234729  	93.295280 
4115.199154  	93.321153 
4116.163578  	93.316417 
4117.128003  	93.275798 
4118.092427  	93.303573 
4119.056852  	93.342897 
4120.021276  	93.338812 
4120.985700  	93.361092 
4121.950125  	93.419255 
4122.914549  	93.388457 
4123.878974  	93.350416 
4124.843398  	93.325596 
4125.807823  	93.388228 
4126.772247  	93.364624 
4127.736672  	93.299564 
4128.701096  	93.296211 
4129.665521  	93.339528 
4130.629945  	93.329752 
4131.594370  	93.319267 
4132.558794  	93.319112 
4133.523218  	93.317812 
4134.487643  	93.339584 
4135.452067  	93.416054 
4136.416492  	93.413826 
4137.380916  	93.403964 
4138.345341  	93.345875 
4139.309765  	93.297770 
4140.274190  	93.329497 
4141.238614  	93.358097 
4142.203039  	93.373811 
4143.167463  	93.463439 
4144.131887  	93.457582 
4145.096312  	93.385523 
4146.060736  	93.357987 
4147.025161  	93.392705 
4147.989585  	93.407011 
4148.954010  	93.361746 
4149.918434  	93.317546 
4150.882859  	93.358870 
4151.847283  	93.397961 
4152.811708  	93.351100 
4153.776132  	93.387603 
4154.740556  	93.401575 
4155.704981  	93.341705 
4156.669405  	93.348285 
4157.633830  	93.420356 
4158.598254  	93.407174 
4159.562679  	93.363733 
4160.527103  	93.347856 
4161.491528  	93.397634 
4162.455952  	93.428465 
4163.420377  	93.441659 
4164.384801  	93.433368 
4165.349225  	93.389698 
4166.313650  	93.352436 
4167.278074  	93.326998 
4168.242499  	93.323397 
4169.206923  	93.358766 
4170.171348  	93.423400 
4171.135772  	93.429720 
4172.100197  	93.404802 
4173.064621  	93.428992 
4174.029046  	93.468454 
4174.993470  	93.456822 
4175.957894  	93.429511 
4176.922319  	93.403197 
4177.886743  	93.398223 
4178.851168  	93.403584 
4179.815592  	93.356391 
4180.780017  	93.349279 
4181.744441  	93.407089 
4182.708866  	93.412755 
4183.673290  	93.398141 
4184.637715  	93.390950 
4185.602139  	93.411231 
4186.566563  	93.377860 
4187.530988  	93.373003 
4188.495412  	93.410427 
4189.459837  	93.441078 
4190.424261  	93.406693 
4191.388686  	93.397234 
4192.353110  	93.461870 
4193.317535  	93.476557 
4194.281959  	93.412025 
4195.246384  	93.426842 
4196.210808  	93.456354 
4197.175233  	93.398915 
4198.139657  	93.385911 
4199.104081  	93.429573 
4200.068506  	93.423164 
4201.032930  	93.385874 
4201.997355  	93.390566 
4202.961779  	93.416525 
4203.926204  	93.402049 
4204.890628  	93.406388 
4205.855053  	93.450090 
4206.819477  	93.436504 
4207.783902  	93.377443 
4208.748326  	93.405097 
4209.712750  	93.442689 
4210.677175  	93.444109 
4211.641599  	93.446238 
4212.606024  	93.444165 
4213.570448  	93.468353 
4214.534873  	93.499899 
4215.499297  	93.467979 
4216.463722  	93.490463 
4217.428146  	93.450703 
4218.392571  	93.354328 
4219.356995  	93.365705 
4220.321419  	93.445206 
4221.285844  	93.495145 
4222.250268  	93.512806 
4223.214693  	93.404452 
4224.179117  	93.350155 
4225.143542  	93.393297 
4226.107966  	93.449538 
4227.072391  	93.455196 
4228.036815  	93.405007 
4229.001240  	93.375655 
4229.965664  	93.371732 
4230.930088  	93.357871 
4231.894513  	93.445215 
4232.858937  	93.494011 
4233.823362  	93.452201 
4234.787786  	93.416804 
4235.752211  	93.399302 
4236.716635  	93.400767 
4237.681060  	93.431402 
4238.645484  	93.434334 
4239.609909  	93.396088 
4240.574333  	93.356973 
4241.538757  	93.455241 
4242.503182  	93.532353 
4243.467606  	93.502066 
4244.432031  	93.416056 
4245.396455  	93.400800 
4246.360880  	93.490078 
4247.325304  	93.516257 
4248.289729  	93.470486 
4249.254153  	93.482588 
4250.218578  	93.540748 
4251.183002  	93.540792 
4252.147427  	93.457678 
4253.111851  	93.419207 
4254.076275  	93.382999 
4255.040700  	93.377884 
4256.005124  	93.420095 
4256.969549  	93.502277 
4257.933973  	93.480370 
4258.898398  	93.429088 
4259.862822  	93.434456 
4260.827247  	93.493122 
4261.791671  	93.522116 
4262.756096  	93.518700 
4263.720520  	93.434273 
4264.684944  	93.384335 
4265.649369  	93.427298 
4266.613793  	93.512201 
4267.578218  	93.469004 
4268.542642  	93.435082 
4269.507067  	93.463789 
4270.471491  	93.414743 
4271.435916  	93.414243 
4272.400340  	93.388521 
4273.364765  	93.367359 
4274.329189  	93.427710 
4275.293613  	93.471699 
4276.258038  	93.453554 
4277.222462  	93.412961 
4278.186887  	93.404079 
4279.151311  	93.373882 
4280.115736  	93.313265 
4281.080160  	93.350666 
4282.044585  	93.378551 
4283.009009  	93.363380 
4283.973434  	93.411894 
4284.937858  	93.393654 
4285.902282  	93.339981 
4286.866707  	93.360321 
4287.831131  	93.406244 
4288.795556  	93.435240 
4289.759980  	93.392578 
4290.724405  	93.354423 
4291.688829  	93.370061 
4292.653254  	93.368873 
4293.617678  	93.446969 
4294.582103  	93.526469 
4295.546527  	93.532833 
4296.510951  	93.483042 
4297.475376  	93.470515 
4298.439800  	93.467400 
4299.404225  	93.496138 
4300.368649  	93.539414 
4301.333074  	93.457030 
4302.297498  	93.341294 
4303.261923  	93.391992 
4304.226347  	93.495888 
4305.190772  	93.617153 
4306.155196  	93.578734 
4307.119620  	93.486307 
4308.084045  	93.443005 
4309.048469  	93.491727 
4310.012894  	93.472925 
4310.977318  	93.435738 
4311.941743  	93.494433 
4312.906167  	93.504729 
4313.870592  	93.462589 
4314.835016  	93.523519 
4315.799441  	93.537356 
4316.763865  	93.468974 
4317.728290  	93.463609 
4318.692714  	93.480081 
4319.657138  	93.449789 
4320.621563  	93.469176 
4321.585987  	93.511869 
4322.550412  	93.554450 
4323.514836  	93.518378 
4324.479261  	93.465844 
4325.443685  	93.417239 
4326.408110  	93.480700 
4327.372534  	93.550971 
4328.336959  	93.523841 
4329.301383  	93.508873 
4330.265807  	93.517030 
4331.230232  	93.506199 
4332.194656  	93.434564 
4333.159081  	93.459988 
4334.123505  	93.490127 
4335.087930  	93.478759 
4336.052354  	93.500876 
4337.016779  	93.526248 
4337.981203  	93.518907 
4338.945628  	93.495216 
4339.910052  	93.462172 
4340.874476  	93.438860 
4341.838901  	93.477891 
4342.803325  	93.500344 
4343.767750  	93.489892 
4344.732174  	93.492156 
4345.696599  	93.495735 
4346.661023  	93.500227 
4347.625448  	93.494554 
4348.589872  	93.467555 
4349.554297  	93.449012 
4350.518721  	93.529810 
4351.483145  	93.564818 
4352.447570  	93.519510 
4353.411994  	93.508531 
4354.376419  	93.451815 
4355.340843  	93.479053 
4356.305268  	93.562919 
4357.269692  	93.572201 
4358.234117  	93.569989 
4359.198541  	93.582457 
4360.162966  	93.586014 
4361.127390  	93.496833 
4362.091814  	93.412630 
4363.056239  	93.427721 
4364.020663  	93.536203 
4364.985088  	93.564309 
4365.949512  	93.498038 
4366.913937  	93.473514 
4367.878361  	93.501501 
4368.842786  	93.555875 
4369.807210  	93.574642 
4370.771635  	93.561747 
4371.736059  	93.504154 
4372.700484  	93.486032 
4373.664908  	93.562223 
4374.629332  	93.603831 
4375.593757  	93.599929 
4376.558181  	93.608416 
4377.522606  	93.578938 
4378.487030  	93.513731 
4379.451455  	93.516668 
4380.415879  	93.482103 
4381.380304  	93.465706 
4382.344728  	93.540107 
4383.309153  	93.574876 
4384.273577  	93.547311 
4385.238001  	93.520773 
4386.202426  	93.515767 
4387.166850  	93.534976 
4388.131275  	93.533281 
4389.095699  	93.437699 
4390.060124  	93.405468 
4391.024548  	93.474660 
4391.988973  	93.569744 
4392.953397  	93.593173 
4393.917822  	93.548068 
4394.882246  	93.526069 
4395.846670  	93.513587 
4396.811095  	93.453887 
4397.775519  	93.461089 
4398.739944  	93.523875 
4399.704368  	93.546385 
4400.668793  	93.543747 
4401.633217  	93.446187 
4402.597642  	93.485720 
4403.562066  	93.619960 
4404.526491  	93.602696 
4405.490915  	93.564555 
4406.455339  	93.543032 
4407.419764  	93.500000 
4408.384188  	93.539474 
4409.348613  	93.568063 
4410.313037  	93.556123 
4411.277462  	93.509709 
4412.241886  	93.451695 
4413.206311  	93.498747 
4414.170735  	93.559832 
4415.135160  	93.566668 
4416.099584  	93.539316 
4417.064008  	93.501336 
4418.028433  	93.469596 
4418.992857  	93.500111 
4419.957282  	93.484379 
4420.921706  	93.465922 
4421.886131  	93.513674 
4422.850555  	93.540098 
4423.814980  	93.497679 
4424.779404  	93.478853 
4425.743829  	93.470538 
4426.708253  	93.534795 
4427.672677  	93.524545 
4428.637102  	93.501026 
4429.601526  	93.554104 
4430.565951  	93.573330 
4431.530375  	93.521087 
4432.494800  	93.419788 
4433.459224  	93.380537 
4434.423649  	93.420898 
4435.388073  	93.455718 
4436.352498  	93.548928 
4437.316922  	93.576472 
4438.281347  	93.549059 
4439.245771  	93.478272 
4440.210195  	93.495346 
4441.174620  	93.523303 
4442.139044  	93.512345 
4443.103469  	93.537548 
4444.067893  	93.544672 
4445.032318  	93.584509 
4445.996742  	93.633347 
4446.961167  	93.592003 
4447.925591  	93.485417 
4448.890016  	93.416369 
4449.854440  	93.379908 
4450.818864  	93.407987 
4451.783289  	93.465489 
4452.747713  	93.426281 
4453.712138  	93.457192 
4454.676562  	93.468784 
4455.640987  	93.430060 
4456.605411  	93.464082 
4457.569836  	93.509949 
4458.534260  	93.489387 
4459.498685  	93.522678 
4460.463109  	93.508351 
4461.427533  	93.473628 
4462.391958  	93.476596 
4463.356382  	93.486887 
4464.320807  	93.493449 
4465.285231  	93.486189 
4466.249656  	93.490127 
4467.214080  	93.499930 
4468.178505  	93.526213 
4469.142929  	93.562734 
4470.107354  	93.601796 
4471.071778  	93.604228 
4472.036202  	93.573336 
4473.000627  	93.606872 
4473.965051  	93.580506 
4474.929476  	93.470451 
4475.893900  	93.452575 
4476.858325  	93.522306 
4477.822749  	93.547481 
4478.787174  	93.562839 
4479.751598  	93.582635 
4480.716023  	93.614868 
4481.680447  	93.609019 
4482.644871  	93.598333 
4483.609296  	93.593559 
4484.573720  	93.530522 
4485.538145  	93.453371 
4486.502569  	93.505886 
4487.466994  	93.525019 
4488.431418  	93.568353 
4489.395843  	93.530031 
4490.360267  	93.495311 
4491.324692  	93.497375 
4492.289116  	93.480473 
4493.253541  	93.514628 
4494.217965  	93.602844 
4495.182389  	93.586962 
4496.146814  	93.588604 
4497.111238  	93.578107 
4498.075663  	93.561148 
4499.040087  	93.581181 
4500.004512  	93.570949 
4500.968936  	93.529351 
4501.933361  	93.530527 
4502.897785  	93.574857 
4503.862210  	93.596067 
4504.826634  	93.611022 
4505.791058  	93.605956 
4506.755483  	93.554545 
4507.719907  	93.519224 
4508.684332  	93.561112 
4509.648756  	93.542315 
4510.613181  	93.512703 
4511.577605  	93.625266 
4512.542030  	93.675295 
4513.506454  	93.656537 
4514.470879  	93.614444 
4515.435303  	93.621439 
4516.399727  	93.663209 
4517.364152  	93.583605 
4518.328576  	93.557730 
4519.293001  	93.614178 
4520.257425  	93.602544 
4521.221850  	93.529812 
4522.186274  	93.554651 
4523.150699  	93.579093 
4524.115123  	93.554597 
4525.079548  	93.575335 
4526.043972  	93.600566 
4527.008396  	93.583827 
4527.972821  	93.577856 
4528.937245  	93.567718 
4529.901670  	93.554892 
4530.866094  	93.577424 
4531.830519  	93.584078 
4532.794943  	93.595360 
4533.759368  	93.607252 
4534.723792  	93.640240 
4535.688217  	93.600792 
4536.652641  	93.637767 
4537.617065  	93.655390 
4538.581490  	93.651017 
4539.545914  	93.605965 
4540.510339  	93.556138 
4541.474763  	93.508257 
4542.439188  	93.513217 
4543.403612  	93.601840 
4544.368037  	93.612832 
4545.332461  	93.571413 
4546.296886  	93.549409 
4547.261310  	93.502031 
4548.225734  	93.583561 
4549.190159  	93.657453 
4550.154583  	93.644200 
4551.119008  	93.522215 
4552.083432  	93.547996 
4553.047857  	93.620667 
4554.012281  	93.656896 
4554.976706  	93.651829 
4555.941130  	93.638076 
4556.905555  	93.587067 
4557.869979  	93.580192 
4558.834404  	93.633383 
4559.798828  	93.545066 
4560.763252  	93.485465 
4561.727677  	93.548198 
4562.692101  	93.569627 
4563.656526  	93.561936 
4564.620950  	93.554595 
4565.585375  	93.544024 
4566.549799  	93.536954 
4567.514224  	93.542452 
4568.478648  	93.586387 
4569.443073  	93.579592 
4570.407497  	93.547859 
4571.371921  	93.609682 
4572.336346  	93.631637 
4573.300770  	93.666078 
4574.265195  	93.655507 
4575.229619  	93.611439 
4576.194044  	93.582733 
4577.158468  	93.558419 
4578.122893  	93.613527 
4579.087317  	93.648792 
4580.051742  	93.623274 
4581.016166  	93.643323 
4581.980590  	93.649504 
4582.945015  	93.665635 
4583.909439  	93.635640 
4584.873864  	93.563700 
4585.838288  	93.527799 
4586.802713  	93.610088 
4587.767137  	93.603816 
4588.731562  	93.533923 
4589.695986  	93.536841 
4590.660411  	93.594366 
4591.624835  	93.599598 
4592.589259  	93.596770 
4593.553684  	93.666169 
4594.518108  	93.617353 
4595.482533  	93.573404 
4596.446957  	93.566655 
4597.411382  	93.445751 
4598.375806  	93.488863 
4599.340231  	93.621652 
4600.304655  	93.647086 
4601.269080  	93.544314 
4602.233504  	93.487727 
4603.197928  	93.583916 
4604.162353  	93.635067 
4605.126777  	93.631676 
4606.091202  	93.607020 
4607.055626  	93.611031 
4608.020051  	93.597806 
4608.984475  	93.586199 
4609.948900  	93.609046 
4610.913324  	93.546853 
4611.877749  	93.493039 
4612.842173  	93.545602 
4613.806598  	93.662027 
4614.771022  	93.672277 
4615.735446  	93.696773 
4616.699871  	93.712863 
4617.664295  	93.664707 
4618.628720  	93.586584 
4619.593144  	93.497443 
4620.557569  	93.593347 
4621.521993  	93.683230 
4622.486418  	93.619026 
4623.450842  	93.546856 
4624.415267  	93.500948 
4625.379691  	93.567630 
4626.344115  	93.584914 
4627.308540  	93.598211 
4628.272964  	93.565224 
4629.237389  	93.557616 
4630.201813  	93.543929 
4631.166238  	93.575118 
4632.130662  	93.593073 
4633.095087  	93.561352 
4634.059511  	93.497199 
4635.023936  	93.634111 
4635.988360  	93.750445 
4636.952784  	93.677961 
4637.917209  	93.593429 
4638.881633  	93.534070 
4639.846058  	93.556841 
4640.810482  	93.614298 
4641.774907  	93.587448 
4642.739331  	93.522044 
4643.703756  	93.459002 
4644.668180  	93.505678 
4645.632605  	93.530213 
4646.597029  	93.567976 
4647.561453  	93.610369 
4648.525878  	93.628468 
4649.490302  	93.610445 
4650.454727  	93.624428 
4651.419151  	93.677644 
4652.383576  	93.625328 
4653.348000  	93.601379 
4654.312425  	93.669192 
4655.276849  	93.666850 
4656.241274  	93.573107 
4657.205698  	93.498386 
4658.170122  	93.488042 
4659.134547  	93.503254 
4660.098971  	93.508161 
4661.063396  	93.581242 
4662.027820  	93.608679 
4662.992245  	93.557696 
4663.956669  	93.604759 
4664.921094  	93.627545 
4665.885518  	93.630726 
4666.849943  	93.670555 
4667.814367  	93.651205 
4668.778791  	93.686846 
4669.743216  	93.698507 
4670.707640  	93.721246 
4671.672065  	93.667303 
4672.636489  	93.547733 
4673.600914  	93.583388 
4674.565338  	93.587261 
4675.529763  	93.528140 
4676.494187  	93.574060 
4677.458612  	93.658412 
4678.423036  	93.666410 
4679.387461  	93.681592 
4680.351885  	93.631965 
4681.316309  	93.554924 
4682.280734  	93.554284 
4683.245158  	93.510804 
4684.209583  	93.480781 
4685.174007  	93.549068 
4686.138432  	93.569993 
4687.102856  	93.605852 
4688.067281  	93.605619 
4689.031705  	93.469608 
4689.996130  	93.468809 
4690.960554  	93.591951 
4691.924978  	93.573270 
4692.889403  	93.528297 
4693.853827  	93.557223 
4694.818252  	93.533627 
4695.782676  	93.533438 
4696.747101  	93.565601 
4697.711525  	93.605112 
4698.675950  	93.585402 
4699.640374  	93.544930 