##TITLE=No Description
##DATA TYPE=INFRARED SPECTRUM
##XUNITS=1/CM
##YUNITS=%T
400.236149  	158.002998 
401.200574  	104.163006 
402.164998  	91.831827 
403.129423  	94.931781 
404.093847  	100.938209 
405.058272  	94.445618 
406.022696  	87.618237 
406.987120  	87.327000 
407.951545  	95.006161 
408.915969  	91.998179 
409.880394  	77.787665 
410.844818  	78.031245 
411.809243  	94.920899 
412.773667  	95.960584 
413.738092  	85.700696 
414.702516  	77.240045 
415.666941  	79.467863 
416.631365  	84.187566 
417.595789  	84.872849 
418.560214  	85.966112 
419.524638  	77.687385 
420.489063  	77.074689 
421.453487  	79.805793 
422.417912  	82.492242 
423.382336  	83.457828 
424.346761  	80.939583 
425.311185  	75.790268 
426.275610  	75.060654 
427.240034  	77.661646 
428.204458  	78.836880 
429.168883  	79.082683 
430.133307  	80.047530 
431.097732  	77.859184 
432.062156  	75.625389 
433.026581  	74.058754 
433.991005  	75.354382 
434.955430  	76.701010 
435.919854  	76.162251 
436.884279  	76.949745 
437.848703  	78.009972 
438.813127  	77.568728 
439.777552  	78.375501 
440.741976  	79.686067 
441.706401  	81.759274 
442.670825  	82.661778 
443.635250  	82.052877 
444.599674  	82.778394 
445.564099  	82.499874 
446.528523  	82.897447 
447.492948  	83.779802 
448.457372  	84.073502 
449.421796  	82.830391 
450.386221  	82.290882 
451.350645  	82.726316 
452.315070  	82.080593 
453.279494  	81.612761 
454.243919  	82.121407 
455.208343  	82.277167 
456.172768  	82.359289 
457.137192  	82.305387 
458.101617  	82.901869 
459.066041  	83.403627 
460.030466  	82.823099 
460.994890  	81.459914 
461.959314  	81.508733 
462.923739  	82.233978 
463.888163  	82.434003 
464.852588  	82.456833 
465.817012  	82.495871 
466.781437  	82.089903 
467.745861  	81.486755 
468.710286  	81.038837 
469.674710  	80.387621 
470.639135  	80.152495 
471.603559  	79.949176 
472.567983  	80.518107 
473.532408  	81.478029 
474.496832  	81.160382 
475.461257  	81.049413 
476.425681  	80.569759 
477.390106  	81.326956 
478.354530  	81.925692 
479.318955  	81.003094 
480.283379  	80.289752 
481.247804  	81.150661 
482.212228  	80.992488 
483.176652  	80.721536 
484.141077  	81.110944 
485.105501  	81.378484 
486.069926  	80.607935 
487.034350  	80.698402 
487.998775  	80.359766 
488.963199  	79.941584 
489.927624  	80.186174 
490.892048  	79.629626 
491.856473  	78.863889 
492.820897  	79.236808 
493.785321  	79.403784 
494.749746  	78.774557 
495.714170  	78.278475 
496.678595  	78.619459 
497.643019  	78.551226 
498.607444  	78.177656 
499.571868  	77.406020 
500.536293  	76.818526 
501.500717  	76.206706 
502.465142  	76.050852 
503.429566  	76.730924 
504.393990  	76.460676 
505.358415  	76.494967 
506.322839  	76.490918 
507.287264  	76.812116 
508.251688  	78.287456 
509.216113  	79.444438 
510.180537  	79.761725 
511.144962  	80.248227 
512.109386  	80.894082 
513.073811  	80.775100 
514.038235  	80.824120 
515.002660  	81.019484 
515.967084  	80.640945 
516.931508  	80.117546 
517.895933  	81.046608 
518.860357  	81.105155 
519.824782  	80.367412 
520.789206  	80.849680 
521.753631  	81.563500 
522.718055  	81.998043 
523.682480  	81.959470 
524.646904  	81.637320 
525.611329  	81.028555 
526.575753  	80.677388 
527.540177  	81.503522 
528.504602  	82.043847 
529.469026  	81.945151 
530.433451  	82.077747 
531.397875  	82.260089 
532.362300  	82.449463 
533.326724  	82.708537 
534.291149  	82.539576 
535.255573  	82.497243 
536.219998  	82.836056 
537.184422  	83.272690 
538.148846  	82.855146 
539.113271  	82.907549 
540.077695  	82.972314 
541.042120  	83.237458 
542.006544  	83.340098 
542.970969  	83.072285 
543.935393  	82.779546 
544.899818  	82.724576 
545.864242  	82.852942 
546.828667  	83.232928 
547.793091  	82.782457 
548.757515  	82.728922 
549.721940  	83.134102 
550.686364  	83.491814 
551.650789  	83.796533 
552.615213  	82.986519 
553.579638  	82.965123 
554.544062  	83.292580 
555.508487  	83.313446 
556.472911  	83.396806 
557.437336  	83.109526 
558.401760  	83.091386 
559.366184  	83.543461 
560.330609  	83.477707 
561.295033  	83.113013 
562.259458  	83.149715 
563.223882  	82.990239 
564.188307  	82.832503 
565.152731  	83.019077 
566.117156  	82.923198 
567.081580  	82.735652 
568.046005  	82.936956 
569.010429  	82.800417 
569.974853  	82.680005 
570.939278  	82.735675 
571.903702  	82.971707 
572.868127  	82.897804 
573.832551  	82.613023 
574.796976  	82.687632 
575.761400  	82.302796 
576.725825  	82.474057 
577.690249  	82.699604 
578.654674  	82.798742 
579.619098  	82.788008 
580.583523  	82.299218 
581.547947  	82.517416 
582.512371  	82.827277 
583.476796  	82.681875 
584.441220  	82.382396 
585.405645  	82.349222 
586.370069  	82.778911 
587.334494  	82.863925 
588.298918  	82.592102 
589.263343  	82.594269 
590.227767  	82.726523 
591.192192  	82.317437 
592.156616  	81.858957 
593.121040  	82.185502 
594.085465  	82.396853 
595.049889  	82.455255 
596.014314  	82.404374 
596.978738  	82.441756 
597.943163  	82.635482 
598.907587  	82.643094 
599.872012  	82.213229 
600.836436  	82.126838 
601.800861  	82.293576 
602.765285  	82.247565 
603.729709  	82.113669 
604.694134  	82.151480 
605.658558  	82.193804 
606.622983  	82.129175 
607.587407  	81.808003 
608.551832  	81.806129 
609.516256  	82.024554 
610.480681  	81.986808 
611.445105  	81.948961 
612.409530  	82.117362 
613.373954  	82.361975 
614.338378  	82.102335 
615.302803  	81.513500 
616.267227  	81.348951 
617.231652  	81.710326 
618.196076  	81.743905 
619.160501  	81.579644 
620.124925  	81.365094 
621.089350  	81.192637 
622.053774  	81.158972 
623.018199  	81.442943 
623.982623  	81.300570 
624.947047  	80.904474 
625.911472  	80.640714 
626.875896  	80.679450 
627.840321  	80.707933 
628.804745  	80.730151 
629.769170  	80.242875 
630.733594  	79.630873 
631.698019  	79.567676 
632.662443  	79.828307 
633.626868  	80.099906 
634.591292  	80.420456 
635.555717  	80.457932 
636.520141  	80.850003 
637.484565  	80.980549 
638.448990  	81.024303 
639.413414  	80.857599 
640.377839  	80.656286 
641.342263  	80.481068 
642.306688  	80.311909 
643.271112  	80.399871 
644.235537  	80.420249 
645.199961  	80.418837 
646.164386  	80.464327 
647.128810  	80.360130 
648.093234  	80.187136 
649.057659  	80.109920 
650.022083  	80.085252 
650.986508  	80.040988 
651.950932  	79.956477 
652.915357  	79.799523 
653.879781  	79.739142 
654.844206  	79.713786 
655.808630  	79.601801 
656.773055  	79.381843 
657.737479  	79.361142 
658.701903  	79.169009 
659.666328  	79.035186 
660.630752  	79.059359 
661.595177  	79.004066 
662.559601  	78.840777 
663.524026  	78.723925 
664.488450  	78.671468 
665.452875  	78.540262 
666.417299  	78.479863 
667.381724  	78.716237 
668.346148  	78.496003 
669.310572  	77.787021 
670.274997  	77.648926 
671.239421  	77.511318 
672.203846  	77.400762 
673.168270  	77.274716 
674.132695  	76.897488 
675.097119  	76.655149 
676.061544  	76.394029 
677.025968  	76.163631 
677.990393  	75.930614 
678.954817  	75.727426 
679.919241  	75.566660 
680.883666  	75.405043 
681.848090  	75.370332 
682.812515  	75.455306 
683.776939  	75.349011 
684.741364  	75.166298 
685.705788  	74.907783 
686.670213  	74.750337 
687.634637  	74.458399 
688.599062  	74.073431 
689.563486  	73.739616 
690.527910  	73.409738 
691.492335  	73.075970 
692.456759  	72.634163 
693.421184  	72.069317 
694.385608  	71.599684 
695.350033  	71.036157 
696.314457  	70.443060 
697.278882  	69.649491 
698.243306  	68.719070 
699.207731  	67.869425 
700.172155  	67.044323 
701.136580  	66.060917 
702.101004  	65.310325 
703.065428  	64.787411 
704.029853  	64.178244 
704.994277  	63.305865 
705.958702  	62.459761 
706.923126  	61.598115 
707.887551  	60.746816 
708.851975  	59.889575 
709.816400  	58.828945 
710.780824  	57.674893 
711.745249  	56.417058 
712.709673  	55.048805 
713.674097  	53.627419 
714.638522  	52.187102 
715.602946  	50.693332 
716.567371  	48.964781 
717.531795  	47.173727 
718.496220  	45.500223 
719.460644  	44.008051 
720.425069  	42.724562 
721.389493  	41.724990 
722.353918  	41.113958 
723.318342  	41.022874 
724.282766  	41.730608 
725.247191  	43.556476 
726.211615  	46.014162 
727.176040  	48.741300 
728.140464  	51.568313 
729.104889  	54.487027 
730.069313  	57.292259 
731.033738  	60.198673 
731.998162  	63.126272 
732.962587  	66.083503 
733.927011  	69.071675 
734.891435  	71.999207 
735.855860  	74.773986 
736.820284  	77.524145 
737.784709  	80.048873 
738.749133  	82.197025 
739.713558  	83.945805 
740.677982  	85.298588 
741.642407  	86.294695 
742.606831  	87.040998 
743.571256  	87.550864 
744.535680  	87.870106 
745.500104  	88.089201 
746.464529  	88.162923 
747.428953  	88.058707 
748.393378  	88.048259 
749.357802  	87.934099 
750.322227  	87.737551 
751.286651  	87.559481 
752.251076  	87.509584 
753.215500  	87.484155 
754.179925  	87.321893 
755.144349  	87.173958 
756.108774  	87.150017 
757.073198  	86.999781 
758.037622  	86.793880 
759.002047  	86.587237 
759.966471  	86.485397 
760.930896  	86.324021 
761.895320  	86.148990 
762.859745  	86.010925 
763.824169  	85.903176 
764.788594  	85.746515 
765.753018  	85.589536 
766.717443  	85.396977 
767.681867  	85.161053 
768.646291  	84.956159 
769.610716  	84.834513 
770.575140  	84.688399 
771.539565  	84.582622 
772.503989  	84.295902 
773.468414  	84.028160 
774.432838  	83.890569 
775.397263  	83.813064 
776.361687  	83.643303 
777.326112  	83.513483 
778.290536  	83.320762 
779.254960  	83.156588 
780.219385  	82.920189 
781.183809  	82.933443 
782.148234  	82.700676 
783.112658  	82.511442 
784.077083  	82.147602 
785.041507  	81.793804 
786.005932  	81.605772 
786.970356  	81.161374 
787.934781  	80.789171 
788.899205  	80.547406 
789.863629  	80.224375 
790.828054  	79.770061 
791.792478  	79.374442 
792.756903  	79.312950 
793.721327  	79.589300 
794.685752  	80.044628 
795.650176  	80.715725 
796.614601  	81.434100 
797.579025  	81.909716 
798.543450  	81.938578 
799.507874  	81.915289 
800.472298  	81.994852 
801.436723  	81.959625 
802.401147  	81.822507 
803.365572  	81.778038 
804.329996  	81.764366 
805.294421  	81.658125 
806.258845  	81.528413 
807.223270  	81.521966 
808.187694  	81.500808 
809.152119  	81.508603 
810.116543  	81.440776 
811.080967  	81.336431 
812.045392  	81.264137 
813.009816  	81.291232 
813.974241  	81.333755 
814.938665  	81.325539 
815.903090  	81.238921 
816.867514  	81.111946 
817.831939  	81.096096 
818.796363  	81.064776 
819.760788  	81.032654 
820.725212  	80.981877 
821.689637  	80.800317 
822.654061  	80.683751 
823.618485  	80.576478 
824.582910  	80.400099 
825.547334  	80.195612 
826.511759  	80.033051 
827.476183  	79.926978 
828.440608  	79.789389 
829.405032  	79.513273 
830.369457  	79.257693 
831.333881  	79.120546 
832.298306  	78.976320 
833.262730  	78.653716 
834.227154  	78.402392 
835.191579  	78.095377 
836.156003  	77.668559 
837.120428  	77.298248 
838.084852  	76.944250 
839.049277  	76.666834 
840.013701  	76.384806 
840.978126  	75.986939 
841.942550  	75.629164 
842.906975  	75.263612 
843.871399  	74.847803 
844.835823  	74.517383 
845.800248  	74.350144 
846.764672  	74.326674 
847.729097  	74.483758 
848.693521  	74.751862 
849.657946  	75.181303 
850.622370  	75.623417 
851.586795  	75.956636 
852.551219  	76.204682 
853.515644  	76.415357 
854.480068  	76.618988 
855.444492  	76.743543 
856.408917  	76.871597 
857.373341  	77.039524 
858.337766  	77.225330 
859.302190  	77.321351 
860.266615  	77.289688 
861.231039  	77.234511 
862.195464  	77.072332 
863.159888  	76.732745 
864.124313  	76.308467 
865.088737  	75.883770 
866.053161  	75.266371 
867.017586  	74.283287 
867.982010  	72.969937 
868.946435  	71.380619 
869.910859  	69.464238 
870.875284  	67.464809 
871.839708  	66.520428 
872.804133  	67.442749 
873.768557  	69.577248 
874.732982  	71.730315 
875.697406  	73.474243 
876.661831  	74.799619 
877.626255  	75.836442 
878.590679  	76.791444 
879.555104  	77.675744 
880.519528  	78.418069 
881.483953  	78.987362 
882.448377  	79.477705 
883.412802  	79.990220 
884.377226  	80.390799 
885.341651  	80.660587 
886.306075  	80.817041 
887.270500  	80.919486 
888.234924  	81.066030 
889.199348  	81.079695 
890.163773  	80.996233 
891.128197  	80.978578 
892.092622  	80.913961 
893.057046  	80.831503 
894.021471  	80.741316 
894.985895  	80.662339 
895.950320  	80.566034 
896.914744  	80.415333 
897.879169  	80.357005 
898.843593  	80.412421 
899.808017  	80.442046 
900.772442  	80.475508 
901.736866  	80.497547 
902.701291  	80.624604 
903.665715  	80.782882 
904.630140  	80.913909 
905.594564  	81.008889 
906.558989  	81.181527 
907.523413  	81.373757 
908.487838  	81.448855 
909.452262  	81.488949 
910.416686  	81.597967 
911.381111  	81.669737 
912.345535  	81.630397 
913.309960  	81.557888 
914.274384  	81.590074 
915.238809  	81.631022 
916.203233  	81.548736 
917.167658  	81.506823 
918.132082  	81.475697 
919.096507  	81.459513 
920.060931  	81.418920 
921.025355  	81.313358 
921.989780  	81.211815 
922.954204  	81.090042 
923.918629  	80.954841 
924.883053  	80.901215 
925.847478  	80.852448 
926.811902  	80.713642 
927.776327  	80.618738 
928.740751  	80.557156 
929.705176  	80.492664 
930.669600  	80.380115 
931.634024  	80.245094 
932.598449  	80.141458 
933.562873  	80.060635 
934.527298  	79.948471 
935.491722  	79.785899 
936.456147  	79.676285 
937.420571  	79.593548 
938.384996  	79.443371 
939.349420  	79.294872 
940.313845  	79.216388 
941.278269  	79.101722 
942.242694  	78.962771 
943.207118  	78.811630 
944.171542  	78.693117 
945.135967  	78.571291 
946.100391  	78.414653 
947.064816  	78.201837 
948.029240  	78.019943 
948.993665  	77.865299 
949.958089  	77.689735 
950.922514  	77.532690 
951.886938  	77.402573 
952.851363  	77.200690 
953.815787  	76.955970 
954.780211  	76.746914 
955.744636  	76.552057 
956.709060  	76.316623 
957.673485  	76.021662 
958.637909  	75.722941 
959.602334  	75.440451 
960.566758  	75.150561 
961.531183  	74.834207 
962.495607  	74.521808 
963.460032  	74.273705 
964.424456  	73.998256 
965.388880  	73.648348 
966.353305  	73.369340 
967.317729  	73.206532 
968.282154  	73.087051 
969.246578  	72.977080 
970.211003  	72.958086 
971.175427  	73.072359 
972.139852  	73.277851 
973.104276  	73.563687 
974.068701  	73.935841 
975.033125  	74.322844 
975.997549  	74.690664 
976.961974  	75.055897 
977.926398  	75.386104 
978.890823  	75.657674 
979.855247  	75.849100 
980.819672  	75.965436 
981.784096  	76.091015 
982.748521  	76.181355 
983.712945  	76.129302 
984.677370  	76.019846 
985.641794  	75.916108 
986.606218  	75.801714 
987.570643  	75.688311 
988.535067  	75.625725 
989.499492  	75.597098 
990.463916  	75.512467 
991.428341  	75.389867 
992.392765  	75.235582 
993.357190  	75.066128 
994.321614  	74.892387 
995.286039  	74.679438 
996.250463  	74.463241 
997.214888  	74.204840 
998.179312  	73.969145 
999.143736  	73.672057 
1000.108161  	73.331848 
1001.072585  	73.040996 
1002.037010  	72.707726 
1003.001434  	72.316929 
1003.965859  	71.879090 
1004.930283  	71.395983 
1005.894708  	70.841554 
1006.859132  	70.187749 
1007.823557  	69.428431 
1008.787981  	68.623759 
1009.752405  	67.734403 
1010.716830  	66.618561 
1011.681254  	65.329175 
1012.645679  	63.937197 
1013.610103  	62.371490 
1014.574528  	60.836285 
1015.538952  	59.689130 
1016.503377  	59.175383 
1017.467801  	59.396375 
1018.432226  	60.357648 
1019.396650  	61.844599 
1020.361074  	63.494709 
1021.325499  	65.168247 
1022.289923  	66.780258 
1023.254348  	68.461010 
1024.218772  	70.335260 
1025.183197  	72.311969 
1026.147621  	74.103814 
1027.112046  	75.363014 
1028.076470  	75.962662 
1029.040895  	76.070056 
1030.005319  	75.901015 
1030.969743  	75.583550 
1031.934168  	75.261682 
1032.898592  	74.901548 
1033.863017  	74.467509 
1034.827441  	74.038032 
1035.791866  	73.637518 
1036.756290  	73.289697 
1037.720715  	72.924229 
1038.685139  	72.597958 
1039.649564  	72.394643 
1040.613988  	72.192899 
1041.578412  	71.922604 
1042.542837  	71.712076 
1043.507261  	71.647044 
1044.471686  	71.549293 
1045.436110  	71.390850 
1046.400535  	71.318096 
1047.364959  	71.302012 
1048.329384  	71.226761 
1049.293808  	71.145114 
1050.258233  	71.130976 
1051.222657  	71.100387 
1052.187081  	71.045280 
1053.151506  	70.950585 
1054.115930  	70.817589 
1055.080355  	70.619838 
1056.044779  	70.387372 
1057.009204  	70.114251 
1057.973628  	69.805748 
1058.938053  	69.497603 
1059.902477  	69.118096 
1060.866902  	68.681250 
1061.831326  	68.304999 
1062.795751  	67.912030 
1063.760175  	67.439009 
1064.724599  	66.911344 
1065.689024  	66.454439 
1066.653448  	65.955666 
1067.617873  	65.337230 
1068.582297  	64.718476 
1069.546722  	64.147099 
1070.511146  	63.544362 
1071.475571  	62.854047 
1072.439995  	62.151948 
1073.404420  	61.420443 
1074.368844  	60.634961 
1075.333268  	59.796646 
1076.297693  	58.921702 
1077.262117  	58.064216 
1078.226542  	57.263497 
1079.190966  	56.462334 
1080.155391  	55.702077 
1081.119815  	55.000026 
1082.084240  	54.372918 
1083.048664  	53.859361 
1084.013089  	53.433543 
1084.977513  	53.070058 
1085.941937  	52.709148 
1086.906362  	52.375524 
1087.870786  	52.093872 
1088.835211  	51.811491 
1089.799635  	51.520920 
1090.764060  	51.265034 
1091.728484  	51.080124 
1092.692909  	50.954804 
1093.657333  	50.831957 
1094.621758  	50.747486 
1095.586182  	50.814554 
1096.550606  	51.003071 
1097.515031  	51.220041 
1098.479455  	51.518191 
1099.443880  	51.932686 
1100.408304  	52.452363 
1101.372729  	53.029387 
1102.337153  	53.717942 
1103.301578  	54.454919 
1104.266002  	55.168790 
1105.230427  	55.955986 
1106.194851  	56.802984 
1107.159275  	57.619174 
1108.123700  	58.362899 
1109.088124  	59.011122 
1110.052549  	59.556919 
1111.016973  	59.976644 
1111.981398  	60.255701 
1112.945822  	60.394855 
1113.910247  	60.452009 
1114.874671  	60.372684 
1115.839096  	60.200854 
1116.803520  	60.114127 
1117.767945  	60.143424 
1118.732369  	60.271979 
1119.696793  	60.533710 
1120.661218  	60.884609 
1121.625642  	61.333801 
1122.590067  	61.892915 
1123.554491  	62.508898 
1124.518916  	63.172242 
1125.483340  	63.977215 
1126.447765  	64.864758 
1127.412189  	65.785509 
1128.376614  	66.790166 
1129.341038  	67.841662 
1130.305462  	68.951909 
1131.269887  	70.124364 
1132.234311  	71.293932 
1133.198736  	72.460616 
1134.163160  	73.598997 
1135.127585  	74.666360 
1136.092009  	75.723136 
1137.056434  	76.750173 
1138.020858  	77.716440 
1138.985283  	78.579933 
1139.949707  	79.347219 
1140.914131  	80.088323 
1141.878556  	80.760645 
1142.842980  	81.327772 
1143.807405  	81.882188 
1144.771829  	82.431222 
1145.736254  	82.884470 
1146.700678  	83.294346 
1147.665103  	83.637407 
1148.629527  	83.947277 
1149.593952  	84.240184 
1150.558376  	84.490196 
1151.522800  	84.699784 
1152.487225  	84.890716 
1153.451649  	85.067490 
1154.416074  	85.210190 
1155.380498  	85.287070 
1156.344923  	85.348554 
1157.309347  	85.426075 
1158.273772  	85.447082 
1159.238196  	85.393087 
1160.202621  	85.400808 
1161.167045  	85.422252 
1162.131469  	85.372658 
1163.095894  	85.269175 
1164.060318  	85.176808 
1165.024743  	85.033004 
1165.989167  	84.821111 
1166.953592  	84.586149 
1167.918016  	84.291822 
1168.882441  	83.913195 
1169.846865  	83.471590 
1170.811290  	83.072033 
1171.775714  	82.732948 
1172.740138  	82.442085 
1173.704563  	82.190336 
1174.668987  	81.982070 
1175.633412  	81.944747 
1176.597836  	81.978154 
1177.562261  	81.998243 
1178.526685  	82.026362 
1179.491110  	82.049452 
1180.455534  	82.046825 
1181.419959  	82.055639 
1182.384383  	82.015875 
1183.348808  	81.917401 
1184.313232  	81.804093 
1185.277656  	81.632586 
1186.242081  	81.397918 
1187.206505  	81.132608 
1188.170930  	80.881882 
1189.135354  	80.547269 
1190.099779  	80.188286 
1191.064203  	79.852179 
1192.028628  	79.453615 
1192.993052  	79.014783 
1193.957477  	78.572705 
1194.921901  	78.102041 
1195.886325  	77.614019 
1196.850750  	77.094350 
1197.815174  	76.562551 
1198.779599  	76.076719 
1199.744023  	75.606580 
1200.708448  	75.075866 
1201.672872  	74.560195 
1202.637297  	74.088099 
1203.601721  	73.585942 
1204.566146  	73.053150 
1205.530570  	72.543782 
1206.494994  	72.024443 
1207.459419  	71.507310 
1208.423843  	71.003076 
1209.388268  	70.485857 
1210.352692  	69.959908 
1211.317117  	69.393509 
1212.281541  	68.773148 
1213.245966  	68.209063 
1214.210390  	67.626684 
1215.174815  	66.957806 
1216.139239  	66.260977 
1217.103663  	65.559114 
1218.068088  	64.837204 
1219.032512  	64.103238 
1219.996937  	63.401618 
1220.961361  	62.736822 
1221.925786  	62.115179 
1222.890210  	61.505444 
1223.854635  	60.913099 
1224.819059  	60.294786 
1225.783484  	59.673685 
1226.747908  	59.051627 
1227.712332  	58.366498 
1228.676757  	57.606194 
1229.641181  	56.776101 
1230.605606  	55.902929 
1231.570030  	55.027841 
1232.534455  	54.137189 
1233.498879  	53.225300 
1234.463304  	52.356366 
1235.427728  	51.582555 
1236.392153  	50.883992 
1237.356577  	50.271443 
1238.321002  	49.808022 
1239.285426  	49.494632 
1240.249850  	49.280291 
1241.214275  	49.198325 
1242.178699  	49.290378 
1243.143124  	49.486441 
1244.107548  	49.759126 
1245.071973  	50.145917 
1246.036397  	50.603189 
1247.000822  	51.100318 
1247.965246  	51.630324 
1248.929671  	52.182314 
1249.894095  	52.761689 
1250.858519  	53.309410 
1251.822944  	53.821124 
1252.787368  	54.311407 
1253.751793  	54.787654 
1254.716217  	55.190213 
1255.680642  	55.525105 
1256.645066  	55.826315 
1257.609491  	56.102313 
1258.573915  	56.386388 
1259.538340  	56.636774 
1260.502764  	56.956617 
1261.467188  	57.510885 
1262.431613  	58.062670 
1263.396037  	58.640682 
1264.360462  	59.351736 
1265.324886  	60.127581 
1266.289311  	60.926882 
1267.253735  	61.798360 
1268.218160  	62.693107 
1269.182584  	63.575973 
1270.147009  	64.420966 
1271.111433  	65.280096 
1272.075857  	66.103724 
1273.040282  	67.000031 
1274.004706  	67.769777 
1274.969131  	68.473497 
1275.933555  	69.148682 
1276.897980  	69.788785 
1277.862404  	70.399336 
1278.826829  	70.965384 
1279.791253  	71.476524 
1280.755678  	72.015414 
1281.720102  	72.590173 
1282.684526  	73.166436 
1283.648951  	73.678889 
1284.613375  	74.158818 
1285.577800  	74.693728 
1286.542224  	75.175636 
1287.506649  	75.527053 
1288.471073  	76.034159 
1289.435498  	76.721975 
1290.399922  	77.332677 
1291.364347  	77.970443 
1292.328771  	78.644391 
1293.293195  	79.279594 
1294.257620  	79.927592 
1295.222044  	80.520911 
1296.186469  	81.043338 
1297.150893  	81.668154 
1298.115318  	82.454457 
1299.079742  	83.095605 
1300.044167  	83.677398 
1301.008591  	84.237725 
1301.973016  	84.744776 
1302.937440  	85.139373 
1303.901865  	85.488124 
1304.866289  	85.810515 
1305.830713  	86.089197 
1306.795138  	86.307812 
1307.759562  	86.474958 
1308.723987  	86.758155 
1309.688411  	87.176301 
1310.652836  	87.414050 
1311.617260  	87.482773 
1312.581685  	87.277712 
1313.546109  	87.494597 
1314.510534  	87.804280 
1315.474958  	88.128726 
1316.439382  	88.138282 
1317.403807  	88.092117 
1318.368231  	88.159061 
1319.332656  	88.076851 
1320.297080  	88.468963 
1321.261505  	88.800983 
1322.225929  	88.997153 
1323.190354  	88.986279 
1324.154778  	89.024492 
1325.119203  	89.015712 
1326.083627  	88.872170 
1327.048051  	88.636229 
1328.012476  	88.291959 
1328.976900  	87.771690 
1329.941325  	87.037535 
1330.905749  	86.179362 
1331.870174  	85.095687 
1332.834598  	83.736136 
1333.799023  	82.236062 
1334.763447  	80.711907 
1335.727872  	79.036930 
1336.692296  	77.292352 
1337.656720  	76.260360 
1338.621145  	75.154421 
1339.585569  	74.378845 
1340.549994  	75.133985 
1341.514418  	77.282510 
1342.478843  	79.034316 
1343.443267  	80.470428 
1344.407692  	82.002702 
1345.372116  	83.530314 
1346.336541  	84.878746 
1347.300965  	86.017206 
1348.265389  	86.892267 
1349.229814  	87.478642 
1350.194238  	88.126309 
1351.158663  	88.671079 
1352.123087  	88.994852 
1353.087512  	89.267442 
1354.051936  	89.274448 
1355.016361  	89.096400 
1355.980785  	89.436278 
1356.945210  	89.603444 
1357.909634  	89.454512 
1358.874059  	89.459411 
1359.838483  	89.396325 
1360.802907  	88.616712 
1361.767332  	87.967460 
1362.731756  	86.904915 
1363.696181  	86.847176 
1364.660605  	88.133290 
1365.625030  	88.262629 
1366.589454  	88.081016 
1367.553879  	87.643648 
1368.518303  	86.929629 
1369.482728  	86.899922 
1370.447152  	87.330145 
1371.411576  	87.317776 
1372.376001  	87.116126 
1373.340425  	86.308008 
1374.304850  	85.709337 
1375.269274  	86.252488 
1376.233699  	87.182219 
1377.198123  	87.340184 
1378.162548  	87.064949 
1379.126972  	87.170080 
1380.091397  	87.369034 
1381.055821  	87.574202 
1382.020245  	87.596124 
1382.984670  	87.583902 
1383.949094  	87.589573 
1384.913519  	87.557346 
1385.877943  	87.078371 
1386.842368  	85.937689 
1387.806792  	85.778819 
1388.771217  	87.004173 
1389.735641  	87.443948 
1390.700066  	87.312552 
1391.664490  	87.301213 
1392.628914  	87.243483 
1393.593339  	86.488176 
1394.557763  	84.970082 
1395.522188  	84.642035 
1396.486612  	85.244235 
1397.451037  	84.967778 
1398.415461  	83.973146 
1399.379886  	83.416701 
1400.344310  	83.799026 
1401.308735  	83.759200 
1402.273159  	82.986820 
1403.237583  	82.003313 
1404.202008  	80.441627 
1405.166432  	78.625060 
1406.130857  	78.183175 
1407.095281  	77.902908 
1408.059706  	77.388416 
1409.024130  	77.323948 
1409.988555  	77.644732 
1410.952979  	78.576374 
1411.917404  	79.901004 
1412.881828  	81.920778 
1413.846252  	83.769517 
1414.810677  	85.232196 
1415.775101  	86.028054 
1416.739526  	86.373964 
1417.703950  	86.593010 
1418.668375  	86.463296 
1419.632799  	86.474456 
1420.597224  	88.854406 
1421.561648  	89.773339 
1422.526073  	89.974542 
1423.490497  	89.014526 
1424.454922  	88.711894 
1425.419346  	89.973083 
1426.383770  	90.386594 
1427.348195  	90.270213 
1428.312619  	89.904649 
1429.277044  	89.291322 
1430.241468  	88.811185 
1431.205893  	89.282125 
1432.170317  	89.178355 
1433.134742  	88.804194 
1434.099166  	88.948063 
1435.063591  	88.630382 
1436.028015  	87.023905 
1436.992439  	85.992465 
1437.956864  	87.685962 
1438.921288  	88.406628 
1439.885713  	88.472937 
1440.850137  	88.424594 
1441.814562  	88.385778 
1442.778986  	88.398604 
1443.743411  	88.316633 
1444.707835  	88.184231 
1445.672260  	88.039804 
1446.636684  	87.756291 
1447.601108  	86.782850 
1448.565533  	86.665296 
1449.529957  	87.529888 
1450.494382  	87.658888 
1451.458806  	87.128482 
1452.423231  	86.684714 
1453.387655  	87.104749 
1454.352080  	86.656035 
1455.316504  	85.384436 
1456.280929  	84.312556 
1457.245353  	83.611849 
1458.209777  	83.915104 
1459.174202  	85.024203 
1460.138626  	86.749677 
1461.103051  	87.704986 
1462.067475  	87.965967 
1463.031900  	88.018064 
1463.996324  	87.503337 
1464.960749  	86.511224 
1465.925173  	87.183300 
1466.889598  	87.751258 
1467.854022  	87.711634 
1468.818446  	87.646752 
1469.782871  	87.305370 
1470.747295  	86.466707 
1471.711720  	84.616918 
1472.676144  	83.548497 
1473.640569  	84.441178 
1474.604993  	86.213137 
1475.569418  	86.401212 
1476.533842  	86.014612 
1477.498267  	87.634799 
1478.462691  	88.543051 
1479.427116  	88.771958 
1480.391540  	88.627403 
1481.355964  	88.210177 
1482.320389  	88.894915 
1483.284813  	89.530713 
1484.249238  	89.747906 
1485.213662  	89.633263 
1486.178087  	89.046096 
1487.142511  	88.458390 
1488.106936  	88.641947 
1489.071360  	87.564703 
1490.035785  	85.974174 
1491.000209  	87.518744 
1491.964633  	89.440593 
1492.929058  	90.188964 
1493.893482  	90.234761 
1494.857907  	89.801687 
1495.822331  	88.521488 
1496.786756  	87.898319 
1497.751180  	88.426248 
1498.715605  	87.682467 
1499.680029  	87.671548 
1500.644454  	87.767506 
1501.608878  	86.800328 
1502.573302  	86.171013 
1503.537727  	85.787695 
1504.502151  	84.752671 
1505.466576  	82.879420 
1506.431000  	79.774442 
1507.395425  	79.517248 
1508.359849  	82.362306 
1509.324274  	84.597829 
1510.288698  	86.341322 
1511.253123  	87.919665 
1512.217547  	87.930988 
1513.181971  	88.828605 
1514.146396  	89.279436 
1515.110820  	88.215917 
1516.075245  	87.002822 
1517.039669  	85.505997 
1518.004094  	87.510830 
1518.968518  	88.891656 
1519.932943  	87.754016 
1520.897367  	85.071904 
1521.861792  	85.517677 
1522.826216  	87.008981 
1523.790640  	88.124101 
1524.755065  	87.589262 
1525.719489  	87.116861 
1526.683914  	87.804200 
1527.648338  	87.369341 
1528.612763  	87.872588 
1529.577187  	89.109916 
1530.541612  	89.472135 
1531.506036  	88.595245 
1532.470461  	87.985064 
1533.434885  	86.958353 
1534.399309  	87.419284 
1535.363734  	88.456930 
1536.328158  	89.022011 
1537.292583  	89.173923 
1538.257007  	88.010485 
1539.221432  	85.249047 
1540.185856  	85.083780 
1541.150281  	86.376624 
1542.114705  	86.379415 
1543.079130  	86.519081 
1544.043554  	86.538318 
1545.007979  	86.083334 
1545.972403  	87.464387 
1546.936827  	89.145054 
1547.901252  	89.463752 
1548.865676  	88.840093 
1549.830101  	86.843659 
1550.794525  	87.424393 
1551.758950  	89.048714 
1552.723374  	89.081913 
1553.687799  	88.070538 
1554.652223  	87.071434 
1555.616648  	88.182364 
1556.581072  	88.320676 
1557.545496  	86.928296 
1558.509921  	82.975917 
1559.474345  	82.219815 
1560.438770  	85.322969 
1561.403194  	87.990976 
1562.367619  	88.821765 
1563.332043  	89.019417 
1564.296468  	88.570891 
1565.260892  	88.202568 
1566.225317  	88.807259 
1567.189741  	88.993776 
1568.154165  	88.468163 
1569.118590  	86.907328 
1570.083014  	86.659392 
1571.047439  	88.078202 
1572.011863  	88.362679 
1572.976288  	88.233332 
1573.940712  	88.043084 
1574.905137  	87.476763 
1575.869561  	86.181225 
1576.833986  	85.540458 
1577.798410  	86.469141 
1578.762834  	87.216452 
1579.727259  	87.640417 
1580.691683  	87.963942 
1581.656108  	88.218073 
1582.620532  	88.425279 
1583.584957  	88.610791 
1584.549381  	88.814108 
1585.513806  	88.933922 
1586.478230  	89.049118 
1587.442655  	89.122734 
1588.407079  	89.147173 
1589.371503  	88.976450 
1590.335928  	88.885399 
1591.300352  	88.926775 
1592.264777  	88.973675 
1593.229201  	89.002947 
1594.193626  	88.705024 
1595.158050  	88.594786 
1596.122475  	88.709385 
1597.086899  	88.783311 
1598.051324  	88.875307 
1599.015748  	88.811647 
1599.980173  	88.754374 
1600.944597  	88.507083 
1601.909021  	88.325293 
1602.873446  	88.078305 
1603.837870  	88.091276 
1604.802295  	88.292065 
1605.766719  	88.216198 
1606.731144  	87.787752 
1607.695568  	87.608407 
1608.659993  	87.573661 
1609.624417  	87.167330 
1610.588842  	87.431107 
1611.553266  	87.568742 
1612.517690  	87.454478 
1613.482115  	87.436140 
1614.446539  	87.367593 
1615.410964  	86.908911 
1616.375388  	85.839200 
1617.339813  	85.912999 
1618.304237  	86.892299 
1619.268662  	87.199763 
1620.233086  	87.275837 
1621.197511  	87.270183 
1622.161935  	86.801286 
1623.126359  	85.720606 
1624.090784  	85.950164 
1625.055208  	86.884418 
1626.019633  	87.044244 
1626.984057  	86.715089 
1627.948482  	86.161346 
1628.912906  	86.626079 
1629.877331  	86.938116 
1630.841755  	86.888752 
1631.806180  	86.809887 
1632.770604  	86.762572 
1633.735028  	86.417419 
1634.699453  	85.332174 
1635.663877  	83.583910 
1636.628302  	84.507325 
1637.592726  	84.659464 
1638.557151  	85.487712 
1639.521575  	85.965978 
1640.486000  	85.917531 
1641.450424  	85.904328 
1642.414849  	85.808396 
1643.379273  	85.843858 
1644.343697  	85.712436 
1645.308122  	84.780769 
1646.272546  	83.202979 
1647.236971  	82.500347 
1648.201395  	82.906066 
1649.165820  	84.378178 
1650.130244  	84.903329 
1651.094669  	84.537099 
1652.059093  	83.369151 
1653.023518  	80.035523 
1653.987942  	79.644488 
1654.952366  	82.204651 
1655.916791  	83.703270 
1656.881215  	83.987880 
1657.845640  	84.139860 
1658.810064  	84.216949 
1659.774489  	84.112465 
1660.738913  	83.620655 
1661.703338  	82.905661 
1662.667762  	82.059468 
1663.632187  	82.345884 
1664.596611  	82.706084 
1665.561036  	82.634070 
1666.525460  	82.432152 
1667.489884  	81.781522 
1668.454309  	80.217091 
1669.418733  	79.285273 
1670.383158  	80.065959 
1671.347582  	79.646755 
1672.312007  	79.809173 
1673.276431  	80.190566 
1674.240856  	79.592999 
1675.205280  	78.175010 
1676.169705  	78.417684 
1677.134129  	78.935910 
1678.098553  	78.721597 
1679.062978  	77.962315 
1680.027402  	76.343984 
1680.991827  	76.200404 
1681.956251  	76.597520 
1682.920676  	75.261000 
1683.885100  	71.700260 
1684.849525  	71.750095 
1685.813949  	74.809394 
1686.778374  	75.279156 
1687.742798  	74.472492 
1688.707222  	73.674619 
1689.671647  	73.489843 
1690.636071  	73.139599 
1691.600496  	73.082067 
1692.564920  	72.551863 
1693.529345  	71.636887 
1694.493769  	70.355633 
1695.458194  	68.307631 
1696.422618  	66.542150 
1697.387043  	66.398911 
1698.351467  	65.668700 
1699.315891  	64.156733 
1700.280316  	60.691345 
1701.244740  	60.562446 
1702.209165  	60.604272 
1703.173589  	59.571996 
1704.138014  	57.828479 
1705.102438  	56.187390 
1706.066863  	54.822359 
1707.031287  	53.456602 
1707.995712  	52.867497 
1708.960136  	52.047928 
1709.924560  	50.907640 
1710.888985  	50.294696 
1711.853409  	50.164833 
1712.817834  	49.810473 
1713.782258  	49.366055 
1714.746683  	49.149124 
1715.711107  	50.186835 
1716.675532  	50.758227 
1717.639956  	50.601407 
1718.604381  	52.599723 
1719.568805  	55.406283 
1720.533230  	57.008121 
1721.497654  	58.269942 
1722.462078  	59.415986 
1723.426503  	60.302314 
1724.390927  	61.851256 
1725.355352  	63.346252 
1726.319776  	64.600020 
1727.284201  	65.862090 
1728.248625  	67.116671 
1729.213050  	67.601061 
1730.177474  	68.089066 
1731.141899  	70.315125 
1732.106323  	71.473872 
1733.070747  	71.222597 
1734.035172  	70.610556 
1734.999596  	74.320677 
1735.964021  	77.196760 
1736.928445  	78.515621 
1737.892870  	79.699053 
1738.857294  	80.466238 
1739.821719  	81.060567 
1740.786143  	83.378857 
1741.750568  	84.841401 
1742.714992  	84.937245 
1743.679416  	85.055126 
1744.643841  	86.783678 
1745.608265  	88.057318 
1746.572690  	88.391009 
1747.537114  	88.475527 
1748.501539  	88.569710 
1749.465963  	89.191685 
1750.430388  	89.680025 
1751.394812  	89.074920 
1752.359237  	90.693182 
1753.323661  	92.028138 
1754.288085  	92.612324 
1755.252510  	92.724763 
1756.216934  	92.006275 
1757.181359  	91.345364 
1758.145783  	92.094304 
1759.110208  	92.593227 
1760.074632  	92.837048 
1761.039057  	92.156919 
1762.003481  	91.165188 
1762.967906  	92.272310 
1763.932330  	92.987348 
1764.896754  	93.148738 
1765.861179  	93.199281 
1766.825603  	92.938555 
1767.790028  	91.858703 
1768.754452  	91.635456 
1769.718877  	92.696587 
1770.683301  	92.343321 
1771.647726  	91.127966 
1772.612150  	90.675719 
1773.576575  	91.888286 
1774.540999  	92.522002 
1775.505423  	92.068156 
1776.469848  	92.345399 
1777.434272  	93.030252 
1778.398697  	92.824578 
1779.363121  	92.443838 
1780.327546  	91.897767 
1781.291970  	91.866566 
1782.256395  	92.677457 
1783.220819  	92.984444 
1784.185244  	92.548042 
1785.149668  	91.937706 
1786.114093  	92.551569 
1787.078517  	92.981130 
1788.042941  	92.949837 
1789.007366  	92.857102 
1789.971790  	92.454584 
1790.936215  	91.386618 
1791.900639  	90.885308 
1792.865064  	90.863204 
1793.829488  	91.900595 
1794.793913  	92.292317 
1795.758337  	91.606527 
1796.722762  	91.672815 
1797.687186  	92.521329 
1798.651610  	92.482337 
1799.616035  	91.801815 
1800.580459  	91.777220 
1801.544884  	91.523322 
1802.509308  	91.297443 
1803.473733  	92.142600 
1804.438157  	92.676826 
1805.402582  	92.700374 
1806.367006  	92.654809 
1807.331431  	92.281532 
1808.295855  	92.138678 
1809.260279  	92.450739 
1810.224704  	91.924121 
1811.189128  	91.517720 
1812.153553  	91.870806 
1813.117977  	92.272731 
1814.082402  	92.663741 
1815.046826  	92.699662 
1816.011251  	92.699368 
1816.975675  	92.375234 
1817.940100  	92.190654 
1818.904524  	92.534728 
1819.868948  	92.652305 
1820.833373  	92.579177 
1821.797797  	92.467763 
1822.762222  	92.229410 
1823.726646  	92.189342 
1824.691071  	91.507603 
1825.655495  	90.862572 
1826.619920  	92.001190 
1827.584344  	92.456089 
1828.548769  	91.901311 
1829.513193  	90.594299 
1830.477617  	90.751789 
1831.442042  	92.095974 
1832.406466  	92.446590 
1833.370891  	92.257658 
1834.335315  	92.483533 
1835.299740  	92.700453 
1836.264164  	92.476898 
1837.228589  	91.950770 
1838.193013  	92.188499 
1839.157438  	92.601425 
1840.121862  	92.724613 
1841.086287  	92.680466 
1842.050711  	92.270659 
1843.015135  	91.821651 
1843.979560  	90.968794 
1844.943984  	90.948290 
1845.908409  	91.866003 
1846.872833  	92.103509 
1847.837258  	91.648093 
1848.801682  	92.024445 
1849.766107  	92.685263 
1850.730531  	92.877340 
1851.694956  	92.884302 
1852.659380  	92.890626 
1853.623804  	92.909775 
1854.588229  	92.803340 
1855.552653  	92.785133 
1856.517078  	92.796484 
1857.481502  	92.758075 
1858.445927  	92.611125 
1859.410351  	92.616850 
1860.374776  	92.707663 
1861.339200  	92.572970 
1862.303625  	92.610578 
1863.268049  	92.790931 
1864.232473  	92.784435 
1865.196898  	92.745977 
1866.161322  	92.383305 
1867.125747  	91.945242 
1868.090171  	91.266944 
1869.054596  	90.743808 
1870.019020  	91.319399 
1870.983445  	92.143839 
1871.947869  	92.669915 
1872.912294  	92.935126 
1873.876718  	92.899588 
1874.841142  	92.852292 
1875.805567  	92.864508 
1876.769991  	92.843471 
1877.734416  	92.821876 
1878.698840  	92.741370 
1879.663265  	92.644922 
1880.627689  	92.734536 
1881.592114  	92.779181 
1882.556538  	92.781197 
1883.520963  	92.835108 
1884.485387  	92.690653 
1885.449811  	92.533337 
1886.414236  	92.705692 
1887.378660  	92.765998 
1888.343085  	92.505703 
1889.307509  	91.591883 
1890.271934  	91.596861 
1891.236358  	92.411408 
1892.200783  	92.642363 
1893.165207  	92.630952 
1894.129632  	92.527421 
1895.094056  	92.018780 
1896.058480  	92.201051 
1897.022905  	92.620840 
1897.987329  	92.584050 
1898.951754  	92.605950 
1899.916178  	92.674167 
1900.880603  	92.602698 
1901.845027  	92.493366 
1902.809452  	92.587061 
1903.773876  	92.605797 
1904.738301  	92.566862 
1905.702725  	92.619486 
1906.667150  	92.646497 
1907.631574  	92.305219 
1908.595998  	92.081663 
1909.560423  	91.929117 
1910.524847  	91.886554 
1911.489272  	92.330399 
1912.453696  	92.432001 
1913.418121  	92.441816 
1914.382545  	92.406688 
1915.346970  	92.404817 
1916.311394  	92.432987 
1917.275819  	92.059275 
1918.240243  	91.377421 
1919.204667  	92.098022 
1920.169092  	92.449161 
1921.133516  	92.238166 
1922.097941  	91.622161 
1923.062365  	91.087231 
1924.026790  	91.983889 
1924.991214  	92.593531 
1925.955639  	92.395684 
1926.920063  	92.387907 
1927.884488  	92.499766 
1928.848912  	92.557896 
1929.813336  	92.571387 
1930.777761  	92.504162 
1931.742185  	92.343891 
1932.706610  	92.318645 
1933.671034  	92.419193 
1934.635459  	92.566086 
1935.599883  	92.581432 
1936.564308  	92.562791 
1937.528732  	92.447761 
1938.493157  	92.471274 
1939.457581  	92.560522 
1940.422005  	92.464281 
1941.386430  	91.927779 
1942.350854  	90.694512 
1943.315279  	90.756482 
1944.279703  	91.876596 
1945.244128  	91.939800 
1946.208552  	91.891496 
1947.172977  	92.051617 
1948.137401  	92.204986 
1949.101826  	92.025717 
1950.066250  	92.133420 
1951.030674  	92.277456 
1951.995099  	92.253580 
1952.959523  	92.247289 
1953.923948  	92.168840 
1954.888372  	91.865285 
1955.852797  	91.850133 
1956.817221  	92.154243 
1957.781646  	92.374104 
1958.746070  	92.312425 
1959.710495  	92.322362 
1960.674919  	92.223056 
1961.639344  	92.059321 
1962.603768  	92.094679 
1963.568192  	92.344460 
1964.532617  	92.775578 
1965.497041  	92.969486 
1966.461466  	92.540425 
1967.425890  	92.205504 
1968.390315  	92.404694 
1969.354739  	92.456575 
1970.319164  	92.022055 
1971.283588  	92.243863 
1972.248013  	92.400485 
1973.212437  	92.403247 
1974.176861  	92.390009 
1975.141286  	92.313545 
1976.105710  	92.540441 
1977.070135  	92.810407 
1978.034559  	92.612472 
1978.998984  	92.171832 
1979.963408  	92.030107 
1980.927833  	92.095992 
1981.892257  	92.219928 
1982.856682  	92.366235 
1983.821106  	92.377458 
1984.785530  	92.475680 
1985.749955  	92.343477 
1986.714379  	92.390973 
1987.678804  	92.170822 
1988.643228  	91.908102 
1989.607653  	92.217476 
1990.572077  	92.264696 
1991.536502  	91.820818 
1992.500926  	91.532207 
1993.465351  	91.834865 
1994.429775  	92.128587 
1995.394199  	92.240840 
1996.358624  	92.354641 
1997.323048  	92.378651 
1998.287473  	92.495541 
1999.251897  	92.770483 
2000.216322  	93.022114 
2001.180746  	93.262960 
2002.145171  	93.283676 
2003.109595  	93.092613 
2004.074020  	92.947365 
2005.038444  	92.899175 
2006.002868  	92.993130 
2006.967293  	92.980158 
2007.931717  	92.548759 
2008.896142  	92.248249 
2009.860566  	92.524285 
2010.824991  	92.504353 
2011.789415  	92.430557 
2012.753840  	92.774084 
2013.718264  	92.788974 
2014.682689  	92.665879 
2015.647113  	92.672744 
2016.611537  	92.225805 
2017.575962  	92.152082 
2018.540386  	92.588330 
2019.504811  	92.748288 
2020.469235  	92.923017 
2021.433660  	93.280514 
2022.398084  	93.161912 
2023.362509  	93.086426 
2024.326933  	93.009597 
2025.291358  	92.518172 
2026.255782  	92.477982 
2027.220207  	92.724974 
2028.184631  	92.897345 
2029.149055  	93.330583 
2030.113480  	93.552842 
2031.077904  	93.473457 
2032.042329  	92.951578 
2033.006753  	92.743548 
2033.971178  	92.831490 
2034.935602  	92.794019 
2035.900027  	92.975593 
2036.864451  	92.984019 
2037.828876  	92.880070 
2038.793300  	92.967002 
2039.757724  	92.779695 
2040.722149  	92.462499 
2041.686573  	92.215995 
2042.650998  	92.202853 
2043.615422  	92.362821 
2044.579847  	92.621089 
2045.544271  	92.615038 
2046.508696  	92.528311 
2047.473120  	92.576392 
2048.437545  	92.775170 
2049.401969  	93.008542 
2050.366393  	92.584015 
2051.330818  	92.279856 
2052.295242  	92.655462 
2053.259667  	92.892077 
2054.224091  	92.540606 
2055.188516  	92.167002 
2056.152940  	92.208860 
2057.117365  	92.151849 
2058.081789  	92.115340 
2059.046214  	92.316162 
2060.010638  	92.279410 
2060.975062  	92.052595 
2061.939487  	92.174976 
2062.903911  	92.260380 
2063.868336  	92.175234 
2064.832760  	91.899968 
2065.797185  	91.964295 
2066.761609  	92.158997 
2067.726034  	92.308354 
2068.690458  	92.405877 
2069.654883  	92.359120 
2070.619307  	92.312526 
2071.583731  	92.308194 
2072.548156  	92.432400 
2073.512580  	92.356959 
2074.477005  	92.163667 
2075.441429  	92.200722 
2076.405854  	92.185899 
2077.370278  	92.059235 
2078.334703  	91.923399 
2079.299127  	91.928353 
2080.263552  	92.061545 
2081.227976  	92.080714 
2082.192401  	91.988402 
2083.156825  	91.918125 
2084.121249  	91.983879 
2085.085674  	92.230219 
2086.050098  	92.232078 
2087.014523  	92.050421 
2087.978947  	92.078863 
2088.943372  	92.172384 
2089.907796  	92.028109 
2090.872221  	92.055054 
2091.836645  	92.366044 
2092.801070  	92.412476 
2093.765494  	92.342505 
2094.729918  	92.181152 
2095.694343  	92.075933 
2096.658767  	91.968690 
2097.623192  	91.950397 
2098.587616  	91.931226 
2099.552041  	92.022970 
2100.516465  	92.104221 
2101.480890  	92.125238 
2102.445314  	92.126818 
2103.409739  	92.060304 
2104.374163  	92.059512 
2105.338587  	91.947555 
2106.303012  	91.933623 
2107.267436  	92.046709 
2108.231861  	92.016745 
2109.196285  	91.984371 
2110.160710  	92.099874 
2111.125134  	92.179294 
2112.089559  	92.154043 
2113.053983  	92.085335 
2114.018408  	92.055859 
2114.982832  	92.002963 
2115.947256  	91.828213 
2116.911681  	91.834784 
2117.876105  	92.072966 
2118.840530  	92.149104 
2119.804954  	92.177335 
2120.769379  	92.184237 
2121.733803  	92.277798 
2122.698228  	92.380994 
2123.662652  	92.281759 
2124.627077  	92.172422 
2125.591501  	92.295362 
2126.555925  	92.443597 
2127.520350  	92.506611 
2128.484774  	92.551297 
2129.449199  	92.693765 
2130.413623  	92.792501 
2131.378048  	92.664860 
2132.342472  	92.633648 
2133.306897  	92.742382 
2134.271321  	92.653076 
2135.235746  	92.384953 
2136.200170  	92.250742 
2137.164594  	92.567504 
2138.129019  	92.884584 
2139.093443  	92.946945 
2140.057868  	92.864259 
2141.022292  	92.785849 
2141.986717  	92.736185 
2142.951141  	92.614191 
2143.915566  	92.687535 
2144.879990  	92.683847 
2145.844415  	92.828578 
2146.808839  	92.906319 
2147.773264  	92.903287 
2148.737688  	93.005718 
2149.702112  	93.014227 
2150.666537  	92.955910 
2151.630961  	92.973024 
2152.595386  	93.261846 
2153.559810  	93.426120 
2154.524235  	93.508687 
2155.488659  	93.455071 
2156.453084  	93.552344 
2157.417508  	93.733899 
2158.381933  	93.639999 
2159.346357  	92.833084 
2160.310781  	92.366492 
2161.275206  	92.251840 
2162.239630  	92.292704 
2163.204055  	92.742691 
2164.168479  	92.958949 
2165.132904  	92.584066 
2166.097328  	92.540064 
2167.061753  	92.810501 
2168.026177  	92.941107 
2168.990602  	92.760333 
2169.955026  	92.727703 
2170.919450  	93.101542 
2171.883875  	92.939552 
2172.848299  	92.755566 
2173.812724  	92.846803 
2174.777148  	92.963857 
2175.741573  	92.830568 
2176.705997  	92.640367 
2177.670422  	92.720309 
2178.634846  	92.864349 
2179.599271  	92.802381 
2180.563695  	92.615764 
2181.528119  	92.711875 
2182.492544  	92.716386 
2183.456968  	92.422643 
2184.421393  	92.365709 
2185.385817  	92.698898 
2186.350242  	92.674119 
2187.314666  	92.418617 
2188.279091  	92.432993 
2189.243515  	92.538769 
2190.207940  	92.565539 
2191.172364  	92.728473 
2192.136788  	92.794252 
2193.101213  	92.784905 
2194.065637  	92.743236 
2195.030062  	92.515339 
2195.994486  	92.252245 
2196.958911  	92.418337 
2197.923335  	92.694699 
2198.887760  	92.564841 
2199.852184  	92.563595 
2200.816609  	92.645477 
2201.781033  	92.577086 
2202.745458  	92.559718 
2203.709882  	92.543374 
2204.674306  	92.380218 
2205.638731  	92.320274 
2206.603155  	92.195398 
2207.567580  	92.160513 
2208.532004  	92.275437 
2209.496429  	92.287176 
2210.460853  	92.235918 
2211.425278  	92.333277 
2212.389702  	92.288016 
2213.354127  	92.130062 
2214.318551  	92.137525 
2215.282975  	92.217670 
2216.247400  	92.361054 
2217.211824  	92.509346 
2218.176249  	92.448166 
2219.140673  	92.397657 
2220.105098  	92.355960 
2221.069522  	92.463228 
2222.033947  	92.486942 
2222.998371  	92.329342 
2223.962796  	92.228346 
2224.927220  	92.255367 
2225.891644  	92.151528 
2226.856069  	92.082942 
2227.820493  	92.104279 
2228.784918  	92.143639 
2229.749342  	92.160919 
2230.713767  	92.277220 
2231.678191  	92.102738 
2232.642616  	91.928411 
2233.607040  	92.154928 
2234.571465  	92.285654 
2235.535889  	92.213951 
2236.500313  	92.146540 
2237.464738  	92.146684 
2238.429162  	92.241084 
2239.393587  	92.236550 
2240.358011  	92.083949 
2241.322436  	92.150541 
2242.286860  	92.127008 
2243.251285  	92.048334 
2244.215709  	92.034772 
2245.180134  	91.942718 
2246.144558  	91.931687 
2247.108982  	92.037922 
2248.073407  	92.051716 
2249.037831  	92.003385 
2250.002256  	91.973014 
2250.966680  	91.974297 
2251.931105  	92.125360 
2252.895529  	92.191461 
2253.859954  	92.143933 
2254.824378  	91.973181 
2255.788803  	91.877306 
2256.753227  	91.863849 
2257.717651  	91.908023 
2258.682076  	91.897152 
2259.646500  	91.920584 
2260.610925  	91.908858 
2261.575349  	91.886596 
2262.539774  	91.879572 
2263.504198  	91.967865 
2264.468623  	91.975846 
2265.433047  	91.928225 
2266.397472  	91.945392 
2267.361896  	91.890408 
2268.326321  	91.809764 
2269.290745  	91.800255 
2270.255169  	91.821118 
2271.219594  	91.906888 
2272.184018  	91.839572 
2273.148443  	91.745529 
2274.112867  	91.784191 
2275.077292  	91.858889 
2276.041716  	91.875484 
2277.006141  	91.876032 
2277.970565  	91.886099 
2278.934990  	91.833817 
2279.899414  	91.766222 
2280.863838  	91.785664 
2281.828263  	91.739867 
2282.792687  	91.570171 
2283.757112  	91.526653 
2284.721536  	91.563766 
2285.685961  	91.538497 
2286.650385  	91.581661 
2287.614810  	91.633486 
2288.579234  	91.602617 
2289.543659  	91.543386 
2290.508083  	91.590059 
2291.472507  	91.566826 
2292.436932  	91.612444 
2293.401356  	91.590856 
2294.365781  	91.549688 
2295.330205  	91.602560 
2296.294630  	91.582501 
2297.259054  	91.550389 
2298.223479  	91.463122 
2299.187903  	91.494136 
2300.152328  	91.517002 
2301.116752  	91.513926 
2302.081176  	91.555117 
2303.045601  	91.436278 
2304.010025  	91.481465 
2304.974450  	91.312936 
2305.938874  	91.378043 
2306.903299  	91.346663 
2307.867723  	91.433100 
2308.832148  	91.336929 
2309.796572  	91.404492 
2310.760997  	91.344025 
2311.725421  	91.362938 
2312.689845  	91.462275 
2313.654270  	91.568728 
2314.618694  	91.585776 
2315.583119  	91.705144 
2316.547543  	91.685783 
2317.511968  	91.741742 
2318.476392  	91.774742 
2319.440817  	91.823215 
2320.405241  	91.801971 
2321.369666  	91.868121 
2322.334090  	91.934253 
2323.298515  	91.945085 
2324.262939  	91.970631 
2325.227363  	92.318801 
2326.191788  	92.672757 
2327.156212  	92.951999 
2328.120637  	92.991614 
2329.085061  	92.972588 
2330.049486  	93.131390 
2331.013910  	93.213660 
2331.978335  	93.285014 
2332.942759  	93.448579 
2333.907184  	93.645930 
2334.871608  	93.746764 
2335.836032  	93.938072 
2336.800457  	94.040245 
2337.764881  	94.002113 
2338.729306  	93.929688 
2339.693730  	93.818291 
2340.658155  	93.985851 
2341.622579  	94.153295 
2342.587004  	94.023543 
2343.551428  	93.792440 
2344.515853  	93.490322 
2345.480277  	93.321094 
2346.444701  	93.059300 
2347.409126  	92.764355 
2348.373550  	92.355850 
2349.337975  	92.162391 
2350.302399  	92.496871 
2351.266824  	93.010369 
2352.231248  	93.528071 
2353.195673  	93.809011 
2354.160097  	93.880166 
2355.124522  	94.012939 
2356.088946  	94.244047 
2357.053370  	94.454082 
2358.017795  	94.648145 
2358.982219  	94.635915 
2359.946644  	94.832193 
2360.911068  	94.933188 
2361.875493  	94.702094 
2362.839917  	94.496656 
2363.804342  	94.562796 
2364.768766  	94.418994 
2365.733191  	94.320932 
2366.697615  	94.171511 
2367.662039  	93.945886 
2368.626464  	93.646105 
2369.590888  	93.310548 
2370.555313  	93.070194 
2371.519737  	92.862610 
2372.484162  	92.629990 
2373.448586  	92.422674 
2374.413011  	92.224426 
2375.377435  	92.020549 
2376.341860  	91.845136 
2377.306284  	91.687827 
2378.270708  	91.562321 
2379.235133  	91.451692 
2380.199557  	91.470452 
2381.163982  	91.504297 
2382.128406  	91.527128 
2383.092831  	91.577770 
2384.057255  	91.642200 
2385.021680  	91.705351 
2385.986104  	91.810768 
2386.950529  	91.860137 
2387.914953  	91.863764 
2388.879378  	91.851057 
2389.843802  	91.900312 
2390.808226  	91.904629 
2391.772651  	91.923619 
2392.737075  	91.934302 
2393.701500  	91.940059 
2394.665924  	91.945405 
2395.630349  	91.967930 
2396.594773  	91.955355 
2397.559198  	91.944613 
2398.523622  	91.982035 
2399.488047  	92.019595 
2400.452471  	91.987516 
2401.416895  	91.946595 
2402.381320  	91.964079 
2403.345744  	92.038649 
2404.310169  	92.047721 
2405.274593  	91.953451 
2406.239018  	91.874398 
2407.203442  	91.909902 
2408.167867  	91.983609 
2409.132291  	92.010155 
2410.096716  	91.992370 
2411.061140  	91.999153 
2412.025564  	92.017704 
2412.989989  	91.977228 
2413.954413  	91.973587 
2414.918838  	92.054512 
2415.883262  	92.040103 
2416.847687  	91.967472 
2417.812111  	91.999261 
2418.776536  	92.024726 
2419.740960  	91.999891 
2420.705385  	92.020033 
2421.669809  	92.045776 
2422.634233  	92.074674 
2423.598658  	92.038330 
2424.563082  	92.033738 
2425.527507  	92.077999 
2426.491931  	92.026605 
2427.456356  	91.974430 
2428.420780  	92.058297 
2429.385205  	92.098072 
2430.349629  	92.058475 
2431.314054  	91.993870 
2432.278478  	92.001938 
2433.242902  	92.017732 
2434.207327  	91.976090 
2435.171751  	92.009671 
2436.136176  	92.101728 
2437.100600  	92.094414 
2438.065025  	92.065140 
2439.029449  	92.103165 
2439.993874  	92.120987 
2440.958298  	92.095412 
2441.922723  	92.041570 
2442.887147  	92.028412 
2443.851572  	92.060076 
2444.815996  	92.057471 
2445.780420  	92.043710 
2446.744845  	91.985731 
2447.709269  	91.995415 
2448.673694  	92.077879 
2449.638118  	92.050077 
2450.602543  	91.943785 
2451.566967  	91.943198 
2452.531392  	91.992727 
2453.495816  	91.967084 
2454.460241  	91.949936 
2455.424665  	91.967681 
2456.389089  	91.971944 
2457.353514  	91.961762 
2458.317938  	91.995324 
2459.282363  	92.032663 
2460.246787  	92.052770 
2461.211212  	92.082925 
2462.175636  	92.090210 
2463.140061  	92.105569 
2464.104485  	92.095095 
2465.068910  	92.059568 
2466.033334  	92.001479 
2466.997758  	92.039463 
2467.962183  	92.095895 
2468.926607  	92.053034 
2469.891032  	92.049943 
2470.855456  	92.051920 
2471.819881  	92.037507 
2472.784305  	92.039891 
2473.748730  	92.054269 
2474.713154  	92.075430 
2475.677579  	92.083144 
2476.642003  	92.010017 
2477.606427  	91.937340 
2478.570852  	91.979384 
2479.535276  	92.028421 
2480.499701  	92.013801 
2481.464125  	92.019121 
2482.428550  	92.058537 
2483.392974  	92.076132 
2484.357399  	92.108928 
2485.321823  	92.055492 
2486.286248  	91.986184 
2487.250672  	91.921828 
2488.215096  	91.937911 
2489.179521  	91.943886 
2490.143945  	91.907752 
2491.108370  	91.909667 
2492.072794  	91.942403 
2493.037219  	91.982342 
2494.001643  	92.014140 
2494.966068  	92.017237 
2495.930492  	92.039826 
2496.894917  	91.968624 
2497.859341  	91.940332 
2498.823765  	91.983083 
2499.788190  	92.032346 
2500.752614  	92.021606 
2501.717039  	91.971893 
2502.681463  	91.896487 
2503.645888  	91.895882 
2504.610312  	91.890166 
2505.574737  	91.880540 
2506.539161  	91.914296 
2507.503586  	91.955922 
2508.468010  	91.962738 
2509.432435  	91.956718 
2510.396859  	91.950830 
2511.361283  	91.931399 
2512.325708  	91.884651 
2513.290132  	91.896779 
2514.254557  	91.887165 
2515.218981  	91.893961 
2516.183406  	91.893169 
2517.147830  	91.925011 
2518.112255  	91.918533 
2519.076679  	91.920275 
2520.041104  	91.951916 
2521.005528  	91.943442 
2521.969952  	91.836754 
2522.934377  	91.780060 
2523.898801  	91.870792 
2524.863226  	91.984954 
2525.827650  	91.979115 
2526.792075  	91.950042 
2527.756499  	91.899420 
2528.720924  	91.863128 
2529.685348  	91.853317 
2530.649773  	91.870374 
2531.614197  	91.893500 
2532.578621  	91.913093 
2533.543046  	91.904439 
2534.507470  	91.891447 
2535.471895  	91.883450 
2536.436319  	91.924105 
2537.400744  	91.923591 
2538.365168  	91.859411 
2539.329593  	91.854680 
2540.294017  	91.854186 
2541.258442  	91.879181 
2542.222866  	91.908250 
2543.187290  	91.910339 
2544.151715  	91.948016 
2545.116139  	91.956630 
2546.080564  	91.914683 
2547.044988  	91.869803 
2548.009413  	91.838198 
2548.973837  	91.860067 
2549.938262  	91.860726 
2550.902686  	91.858604 
2551.867111  	91.904151 
2552.831535  	91.840164 
2553.795959  	91.798649 
2554.760384  	91.839613 
2555.724808  	91.857945 
2556.689233  	91.852850 
2557.653657  	91.828171 
2558.618082  	91.788738 
2559.582506  	91.858566 
2560.546931  	91.893363 
2561.511355  	91.825066 
2562.475780  	91.799115 
2563.440204  	91.799520 
2564.404629  	91.844969 
2565.369053  	91.839983 
2566.333477  	91.807164 
2567.297902  	91.828509 
2568.262326  	91.862207 
2569.226751  	91.804054 
2570.191175  	91.772704 
2571.155600  	91.792613 
2572.120024  	91.821102 
2573.084449  	91.873315 
2574.048873  	91.839419 
2575.013298  	91.749471 
2575.977722  	91.722000 
2576.942146  	91.772861 
2577.906571  	91.804536 
2578.870995  	91.796619 
2579.835420  	91.778332 
2580.799844  	91.813670 
2581.764269  	91.815469 
2582.728693  	91.811029 
2583.693118  	91.751060 
2584.657542  	91.745148 
2585.621967  	91.794038 
2586.586391  	91.810931 
2587.550815  	91.843254 
2588.515240  	91.837254 
2589.479664  	91.789091 
2590.444089  	91.816088 
2591.408513  	91.854462 
2592.372938  	91.852595 
2593.337362  	91.834497 
2594.301787  	91.800430 
2595.266211  	91.788804 
2596.230636  	91.831196 
2597.195060  	91.823720 
2598.159484  	91.796692 
2599.123909  	91.814625 
2600.088333  	91.843127 
2601.052758  	91.811995 
2602.017182  	91.791066 
2602.981607  	91.794419 
2603.946031  	91.832850 
2604.910456  	91.870640 
2605.874880  	91.843578 
2606.839305  	91.814640 
2607.803729  	91.825829 
2608.768153  	91.797805 
2609.732578  	91.763775 
2610.697002  	91.777011 
2611.661427  	91.778064 
2612.625851  	91.789388 
2613.590276  	91.809121 
2614.554700  	91.801358 
2615.519125  	91.780230 
2616.483549  	91.779192 
2617.447974  	91.755095 
2618.412398  	91.765086 
2619.376822  	91.772613 
2620.341247  	91.765391 
2621.305671  	91.772728 
2622.270096  	91.774957 
2623.234520  	91.764303 
2624.198945  	91.752467 
2625.163369  	91.770561 
2626.127794  	91.750102 
2627.092218  	91.736014 
2628.056643  	91.726089 
2629.021067  	91.695841 
2629.985492  	91.697805 
2630.949916  	91.763531 
2631.914340  	91.762331 
2632.878765  	91.743613 
2633.843189  	91.786370 
2634.807614  	91.799510 
2635.772038  	91.771347 
2636.736463  	91.747771 
2637.700887  	91.748783 
2638.665312  	91.760572 
2639.629736  	91.743188 
2640.594161  	91.766780 
2641.558585  	91.799122 
2642.523009  	91.763780 
2643.487434  	91.772560 
2644.451858  	91.802611 
2645.416283  	91.781145 
2646.380707  	91.776809 
2647.345132  	91.795822 
2648.309556  	91.797431 
2649.273981  	91.768472 
2650.238405  	91.798796 
2651.202830  	91.835381 
2652.167254  	91.792618 
2653.131678  	91.784029 
2654.096103  	91.792491 
2655.060527  	91.798306 
2656.024952  	91.815175 
2656.989376  	91.806927 
2657.953801  	91.786845 
2658.918225  	91.814634 
2659.882650  	91.828839 
2660.847074  	91.802882 
2661.811499  	91.807384 
2662.775923  	91.846963 
2663.740347  	91.871368 
2664.704772  	91.866274 
2665.669196  	91.893646 
2666.633621  	91.913489 
2667.598045  	91.890130 
2668.562470  	91.892636 
2669.526894  	91.903797 
2670.491319  	91.888416 
2671.455743  	91.905021 
2672.420168  	91.899099 
2673.384592  	91.882914 
2674.349016  	91.879923 
2675.313441  	91.909968 
2676.277865  	91.905124 
2677.242290  	91.886982 
2678.206714  	91.896125 
2679.171139  	91.899132 
2680.135563  	91.887946 
2681.099988  	91.919193 
2682.064412  	91.934387 
2683.028837  	91.922236 
2683.993261  	91.901519 
2684.957686  	91.905776 
2685.922110  	91.909648 
2686.886534  	91.885964 
2687.850959  	91.883188 
2688.815383  	91.904763 
2689.779808  	91.910729 
2690.744232  	91.908962 
2691.708657  	91.907658 
2692.673081  	91.886696 
2693.637506  	91.874905 
2694.601930  	91.919328 
2695.566355  	91.950504 
2696.530779  	91.914379 
2697.495203  	91.894403 
2698.459628  	91.912782 
2699.424052  	91.918851 
2700.388477  	91.910252 
2701.352901  	91.886972 
2702.317326  	91.883941 
2703.281750  	91.894029 
2704.246175  	91.894549 
2705.210599  	91.889383 
2706.175024  	91.885409 
2707.139448  	91.888597 
2708.103872  	91.881295 
2709.068297  	91.903567 
2710.032721  	91.894131 
2710.997146  	91.869130 
2711.961570  	91.879018 
2712.925995  	91.890293 
2713.890419  	91.874710 
2714.854844  	91.881481 
2715.819268  	91.896580 
2716.783693  	91.880307 
2717.748117  	91.886672 
2718.712541  	91.905068 
2719.676966  	91.908518 
2720.641390  	91.906903 
2721.605815  	91.912820 
2722.570239  	91.909198 
2723.534664  	91.906058 
2724.499088  	91.904756 
2725.463513  	91.871214 
2726.427937  	91.838837 
2727.392362  	91.862413 
2728.356786  	91.864708 
2729.321210  	91.832823 
2730.285635  	91.832443 
2731.250059  	91.829493 
2732.214484  	91.824888 
2733.178908  	91.830228 
2734.143333  	91.847530 
2735.107757  	91.837573 
2736.072182  	91.837307 
2737.036606  	91.847154 
2738.001031  	91.830495 
2738.965455  	91.818027 
2739.929879  	91.812634 
2740.894304  	91.830693 
2741.858728  	91.843559 
2742.823153  	91.816186 
2743.787577  	91.796455 
2744.752002  	91.806443 
2745.716426  	91.802968 
2746.680851  	91.813847 
2747.645275  	91.825986 
2748.609700  	91.826777 
2749.574124  	91.820172 
2750.538549  	91.828307 
2751.502973  	91.781277 
2752.467397  	91.776243 
2753.431822  	91.808364 
2754.396246  	91.813324 
2755.360671  	91.803731 
2756.325095  	91.828129 
2757.289520  	91.816679 
2758.253944  	91.819716 
2759.218369  	91.841822 
2760.182793  	91.816659 
2761.147218  	91.772713 
2762.111642  	91.769153 
2763.076066  	91.810585 
2764.040491  	91.838103 
2765.004915  	91.814624 
2765.969340  	91.784729 
2766.933764  	91.789933 
2767.898189  	91.786639 
2768.862613  	91.797863 
2769.827038  	91.798785 
2770.791462  	91.786475 
2771.755887  	91.774482 
2772.720311  	91.761603 
2773.684735  	91.762319 
2774.649160  	91.770065 
2775.613584  	91.769349 
2776.578009  	91.783504 
2777.542433  	91.777933 
2778.506858  	91.756162 
2779.471282  	91.752547 
2780.435707  	91.757558 
2781.400131  	91.743919 
2782.364556  	91.760653 
2783.328980  	91.763211 
2784.293404  	91.742318 
2785.257829  	91.765738 
2786.222253  	91.765173 
2787.186678  	91.749828 
2788.151102  	91.721947 
2789.115527  	91.736030 
2790.079951  	91.734423 
2791.044376  	91.747154 
2792.008800  	91.737836 
2792.973225  	91.694307 
2793.937649  	91.712666 
2794.902073  	91.737320 
2795.866498  	91.733488 
2796.830922  	91.720804 
2797.795347  	91.708314 
2798.759771  	91.698450 
2799.724196  	91.661692 
2800.688620  	91.636707 
2801.653045  	91.634099 
2802.617469  	91.633845 
2803.581894  	91.651275 
2804.546318  	91.674974 
2805.510743  	91.690770 
2806.475167  	91.670186 
2807.439591  	91.626757 
2808.404016  	91.614083 
2809.368440  	91.644844 
2810.332865  	91.667744 
2811.297289  	91.620359 
2812.261714  	91.607325 
2813.226138  	91.639041 
2814.190563  	91.633160 
2815.154987  	91.635627 
2816.119412  	91.646801 
2817.083836  	91.637015 
2818.048260  	91.626505 
2819.012685  	91.624849 
2819.977109  	91.666003 
2820.941534  	91.670787 
2821.905958  	91.667298 
2822.870383  	91.604275 
2823.834807  	91.585071 
2824.799232  	91.614249 
2825.763656  	91.661739 
2826.728081  	91.657016 
2827.692505  	91.623841 
2828.656929  	91.614350 
2829.621354  	91.611751 
2830.585778  	91.614130 
2831.550203  	91.613018 
2832.514627  	91.577706 
2833.479052  	91.544555 
2834.443476  	91.547141 
2835.407901  	91.566824 
2836.372325  	91.550571 
2837.336750  	91.529890 
2838.301174  	91.498049 
2839.265598  	91.452379 
2840.230023  	91.456390 
2841.194447  	91.455898 
2842.158872  	91.413369 
2843.123296  	91.385707 
2844.087721  	91.362322 
2845.052145  	91.336083 
2846.016570  	91.284374 
2846.980994  	91.250997 
2847.945419  	91.234016 
2848.909843  	91.190270 
2849.874267  	91.126605 
2850.838692  	91.093261 
2851.803116  	91.114258 
2852.767541  	91.095124 
2853.731965  	91.080821 
2854.696390  	91.095657 
2855.660814  	91.112469 
2856.625239  	91.137421 
2857.589663  	91.141197 
2858.554088  	91.115828 
2859.518512  	91.105045 
2860.482936  	91.129720 
2861.447361  	91.126665 
2862.411785  	91.156962 
2863.376210  	91.196638 
2864.340634  	91.182039 
2865.305059  	91.146156 
2866.269483  	91.124815 
2867.233908  	91.114249 
2868.198332  	91.124131 
2869.162757  	91.123090 
2870.127181  	91.120903 
2871.091606  	91.108575 
2872.056030  	91.107196 
2873.020454  	91.121016 
2873.984879  	91.120438 
2874.949303  	91.100907 
2875.913728  	91.092664 
2876.878152  	91.097338 
2877.842577  	91.094212 
2878.807001  	91.101244 
2879.771426  	91.117785 
2880.735850  	91.073229 
2881.700275  	91.046522 
2882.664699  	91.025875 
2883.629123  	90.991970 
2884.593548  	90.989417 
2885.557972  	91.007097 
2886.522397  	90.980950 
2887.486821  	90.949302 
2888.451246  	90.925288 
2889.415670  	90.925024 
2890.380095  	90.906145 
2891.344519  	90.917762 
2892.308944  	90.926921 
2893.273368  	90.896117 
2894.237792  	90.875697 
2895.202217  	90.852589 
2896.166641  	90.840573 
2897.131066  	90.806891 
2898.095490  	90.770472 
2899.059915  	90.770674 
2900.024339  	90.729912 
2900.988764  	90.678278 
2901.953188  	90.653680 
2902.917613  	90.610978 
2903.882037  	90.540123 
2904.846461  	90.512029 
2905.810886  	90.468309 
2906.775310  	90.413857 
2907.739735  	90.372853 
2908.704159  	90.356906 
2909.668584  	90.379286 
2910.633008  	90.401951 
2911.597433  	90.444483 
2912.561857  	90.493375 
2913.526282  	90.523999 
2914.490706  	90.529934 
2915.455130  	90.484764 
2916.419555  	90.513404 
2917.383979  	90.578917 
2918.348404  	90.578299 
2919.312828  	90.624321 
2920.277253  	90.656171 
2921.241677  	90.642818 
2922.206102  	90.672668 
2923.170526  	90.669256 
2924.134951  	90.684570 
2925.099375  	90.713282 
2926.063800  	90.731336 
2927.028224  	90.739295 
2927.992648  	90.740129 
2928.957073  	90.771042 
2929.921497  	90.796017 
2930.885922  	90.798034 
2931.850346  	90.855002 
2932.814771  	90.904821 
2933.779195  	90.871710 
2934.743620  	90.841067 
2935.708044  	90.829581 
2936.672469  	90.836254 
2937.636893  	90.856998 
2938.601317  	90.851271 
2939.565742  	90.868877 
2940.530166  	90.851265 
2941.494591  	90.812759 
2942.459015  	90.778676 
2943.423440  	90.741524 
2944.387864  	90.667657 
2945.352289  	90.626599 
2946.316713  	90.642394 
2947.281138  	90.614803 
2948.245562  	90.529733 
2949.209986  	90.462784 
2950.174411  	90.379512 
2951.138835  	90.350971 
2952.103260  	90.318304 
2953.067684  	90.250873 
2954.032109  	90.191561 
2954.996533  	90.172936 
2955.960958  	90.137146 
2956.925382  	90.088967 
2957.889807  	90.037385 
2958.854231  	89.995694 
2959.818655  	89.968948 
2960.783080  	89.946102 
2961.747504  	89.914241 
2962.711929  	89.907974 
2963.676353  	89.871855 
2964.640778  	89.806044 
2965.605202  	89.747316 
2966.569627  	89.703018 
2967.534051  	89.731670 
2968.498476  	89.786391 
2969.462900  	89.814325 
2970.427324  	89.825978 
2971.391749  	89.833812 
2972.356173  	89.897056 
2973.320598  	89.960965 
2974.285022  	90.036417 
2975.249447  	90.093112 
2976.213871  	90.163329 
2977.178296  	90.218264 
2978.142720  	90.280062 
2979.107145  	90.360076 
2980.071569  	90.471302 
2981.035993  	90.524148 
2982.000418  	90.557922 
2982.964842  	90.619606 
2983.929267  	90.711220 
2984.893691  	90.770003 
2985.858116  	90.802597 
2986.822540  	90.865190 
2987.786965  	90.912390 
2988.751389  	90.918206 
2989.715814  	90.959055 
2990.680238  	91.016602 
2991.644663  	91.039848 
2992.609087  	91.017916 
2993.573511  	91.018962 
2994.537936  	91.035189 
2995.502360  	91.111766 
2996.466785  	91.113502 
2997.431209  	91.118858 
2998.395634  	91.170647 
2999.360058  	91.177369 
3000.324483  	91.161411 
3001.288907  	91.137624 
3002.253332  	91.135117 
3003.217756  	91.188288 
3004.182180  	91.148175 
3005.146605  	91.111274 
3006.111029  	91.197026 
3007.075454  	91.252697 
3008.039878  	91.274118 
3009.004303  	91.340625 
3009.968727  	91.338461 
3010.933152  	91.307464 
3011.897576  	91.262627 
3012.862001  	91.182953 
3013.826425  	91.324420 
3014.790849  	91.457965 
3015.755274  	91.425255 
3016.719698  	91.453181 
3017.684123  	91.560703 
3018.648547  	91.596972 
3019.612972  	91.583804 
3020.577396  	91.609412 
3021.541821  	91.623288 
3022.506245  	91.634029 
3023.470670  	91.659446 
3024.435094  	91.721159 
3025.399518  	91.705144 
3026.363943  	91.692329 
3027.328367  	91.764424 
3028.292792  	91.760312 
3029.257216  	91.781315 
3030.221641  	91.770005 
3031.186065  	91.650034 
3032.150490  	91.583255 
3033.114914  	91.700756 
3034.079339  	91.712567 
3035.043763  	91.688639 
3036.008187  	91.728448 
3036.972612  	91.752202 
3037.937036  	91.739469 
3038.901461  	91.717664 
3039.865885  	91.721113 
3040.830310  	91.770298 
3041.794734  	91.795800 
3042.759159  	91.752808 
3043.723583  	91.755962 
3044.688008  	91.754558 
3045.652432  	91.756330 
3046.616857  	91.682240 
3047.581281  	91.622199 
3048.545705  	91.534758 
3049.510130  	91.466398 
3050.474554  	91.466552 
3051.438979  	91.455354 
3052.403403  	91.449646 
3053.367828  	91.453592 
3054.332252  	91.428659 
3055.296677  	91.431113 
3056.261101  	91.345942 
3057.225526  	91.351883 
3058.189950  	91.481581 
3059.154374  	91.534245 
3060.118799  	91.532597 
3061.083223  	91.540387 
3062.047648  	91.546170 
3063.012072  	91.522987 
3063.976497  	91.462473 
3064.940921  	91.405161 
3065.905346  	91.443962 
3066.869770  	91.418236 
3067.834195  	91.445594 
3068.798619  	91.498235 
3069.763043  	91.518048 
3070.727468  	91.573611 
3071.691892  	91.591438 
3072.656317  	91.555113 
3073.620741  	91.551458 
3074.585166  	91.567767 
3075.549590  	91.539021 
3076.514015  	91.524143 
3077.478439  	91.517056 
3078.442864  	91.508134 
3079.407288  	91.451421 
3080.371712  	91.484084 
3081.336137  	91.554918 
3082.300561  	91.497794 
3083.264986  	91.525392 
3084.229410  	91.612097 
3085.193835  	91.606395 
3086.158259  	91.581962 
3087.122684  	91.589664 
3088.087108  	91.578633 
3089.051533  	91.586707 
3090.015957  	91.622481 
3090.980381  	91.653160 
3091.944806  	91.684372 
3092.909230  	91.718020 
3093.873655  	91.698345 
3094.838079  	91.663935 
3095.802504  	91.618694 
3096.766928  	91.632732 
3097.731353  	91.679523 
3098.695777  	91.686182 
3099.660202  	91.628686 
3100.624626  	91.575438 
3101.589050  	91.539267 
3102.553475  	91.544302 
3103.517899  	91.574488 
3104.482324  	91.634041 
3105.446748  	91.661720 
3106.411173  	91.639847 
3107.375597  	91.599832 
3108.340022  	91.629364 
3109.304446  	91.709457 
3110.268871  	91.726030 
3111.233295  	91.719294 
3112.197720  	91.705699 
3113.162144  	91.696927 
3114.126568  	91.702875 
3115.090993  	91.670381 
3116.055417  	91.673735 
3117.019842  	91.736919 
3117.984266  	91.703239 
3118.948691  	91.624663 
3119.913115  	91.750367 
3120.877540  	91.845146 
3121.841964  	91.750419 
3122.806389  	91.661383 
3123.770813  	91.724893 
3124.735237  	91.778879 
3125.699662  	91.709477 
3126.664086  	91.644872 
3127.628511  	91.721625 
3128.592935  	91.780193 
3129.557360  	91.724279 
3130.521784  	91.738258 
3131.486209  	91.789082 
3132.450633  	91.715881 
3133.415058  	91.649929 
3134.379482  	91.756642 
3135.343906  	91.818079 
3136.308331  	91.820679 
3137.272755  	91.813205 
3138.237180  	91.816917 
3139.201604  	91.814828 
3140.166029  	91.823646 
3141.130453  	91.857905 
3142.094878  	91.821017 
3143.059302  	91.799476 
3144.023727  	91.831402 
3144.988151  	91.830035 
3145.952575  	91.839801 
3146.917000  	91.849891 
3147.881424  	91.845288 
3148.845849  	91.888448 
3149.810273  	91.913086 
3150.774698  	91.893773 
3151.739122  	91.850844 
3152.703547  	91.824340 
3153.667971  	91.847631 
3154.632396  	91.890087 
3155.596820  	91.874733 
3156.561244  	91.821583 
3157.525669  	91.821289 
3158.490093  	91.840262 
3159.454518  	91.876719 
3160.418942  	91.864018 
3161.383367  	91.877329 
3162.347791  	91.870533 
3163.312216  	91.843759 
3164.276640  	91.849508 
3165.241065  	91.899335 
3166.205489  	91.897658 
3167.169914  	91.896022 
3168.134338  	91.832412 
3169.098762  	91.775797 
3170.063187  	91.790784 
3171.027611  	91.822469 
3171.992036  	91.819111 
3172.956460  	91.769823 
3173.920885  	91.761763 
3174.885309  	91.808278 
3175.849734  	91.835637 
3176.814158  	91.807478 
3177.778583  	91.685246 
3178.743007  	91.670851 
3179.707431  	91.744045 
3180.671856  	91.784200 
3181.636280  	91.857889 
3182.600705  	91.884708 
3183.565129  	91.831391 
3184.529554  	91.773098 
3185.493978  	91.754219 
3186.458403  	91.780371 
3187.422827  	91.760080 
3188.387252  	91.727192 
3189.351676  	91.777262 
3190.316100  	91.816547 
3191.280525  	91.809469 
3192.244949  	91.833421 
3193.209374  	91.882635 
3194.173798  	91.838816 
3195.138223  	91.807041 
3196.102647  	91.742900 
3197.067072  	91.666255 
3198.031496  	91.646389 
3198.995921  	91.734530 
3199.960345  	91.800984 
3200.924769  	91.818551 
3201.889194  	91.857667 
3202.853618  	91.843662 
3203.818043  	91.792473 
3204.782467  	91.774678 
3205.746892  	91.799307 
3206.711316  	91.794515 
3207.675741  	91.783828 
3208.640165  	91.759604 
3209.604590  	91.684664 
3210.569014  	91.652043 
3211.533438  	91.758928 
3212.497863  	91.789728 
3213.462287  	91.735367 
3214.426712  	91.659835 
3215.391136  	91.718158 
3216.355561  	91.742637 
3217.319985  	91.736503 
3218.284410  	91.744871 
3219.248834  	91.695985 
3220.213259  	91.722024 
3221.177683  	91.789430 
3222.142107  	91.753536 
3223.106532  	91.734971 
3224.070956  	91.770117 
3225.035381  	91.765247 
3225.999805  	91.760143 
3226.964230  	91.717778 
3227.928654  	91.655371 
3228.893079  	91.761487 
3229.857503  	91.805810 
3230.821928  	91.797492 
3231.786352  	91.752797 
3232.750777  	91.710977 
3233.715201  	91.708923 
3234.679625  	91.706761 
3235.644050  	91.720208 
3236.608474  	91.725839 
3237.572899  	91.745714 
3238.537323  	91.780167 
3239.501748  	91.756370 
3240.466172  	91.717545 
3241.430597  	91.778725 
3242.395021  	91.791654 
3243.359446  	91.711460 
3244.323870  	91.637240 
3245.288294  	91.549519 
3246.252719  	91.619037 
3247.217143  	91.722447 
3248.181568  	91.779623 
3249.145992  	91.728442 
3250.110417  	91.694536 
3251.074841  	91.719875 
3252.039266  	91.758311 
3253.003690  	91.765813 
3253.968115  	91.672385 
3254.932539  	91.599305 
3255.896963  	91.672609 
3256.861388  	91.699842 
3257.825812  	91.703983 
3258.790237  	91.647563 
3259.754661  	91.624975 
3260.719086  	91.636920 
3261.683510  	91.706665 
3262.647935  	91.703417 
3263.612359  	91.664523 
3264.576784  	91.711101 
3265.541208  	91.727259 
3266.505632  	91.711199 
3267.470057  	91.679581 
3268.434481  	91.660204 
3269.398906  	91.682519 
3270.363330  	91.701246 
3271.327755  	91.726415 
3272.292179  	91.686237 
3273.256604  	91.581620 
3274.221028  	91.561509 
3275.185453  	91.682215 
3276.149877  	91.656727 
3277.114301  	91.580959 
3278.078726  	91.627600 
3279.043150  	91.615864 
3280.007575  	91.548984 
3280.971999  	91.567817 
3281.936424  	91.644486 
3282.900848  	91.636883 
3283.865273  	91.568786 
3284.829697  	91.602889 
3285.794122  	91.642165 
3286.758546  	91.647191 
3287.722971  	91.622678 
3288.687395  	91.608473 
3289.651819  	91.681721 
3290.616244  	91.668967 
3291.580668  	91.573097 
3292.545093  	91.547549 
3293.509517  	91.551149 
3294.473942  	91.587180 
3295.438366  	91.606507 
3296.402791  	91.634157 
3297.367215  	91.661987 
3298.331640  	91.633598 
3299.296064  	91.641853 
3300.260488  	91.637880 
3301.224913  	91.648757 
3302.189337  	91.700507 
3303.153762  	91.653311 
3304.118186  	91.645249 
3305.082611  	91.640616 
3306.047035  	91.667936 
3307.011460  	91.738636 
3307.975884  	91.667931 
3308.940309  	91.558455 
3309.904733  	91.613780 
3310.869157  	91.631015 
3311.833582  	91.634783 
3312.798006  	91.665218 
3313.762431  	91.647814 
3314.726855  	91.663805 
3315.691280  	91.680569 
3316.655704  	91.667797 
3317.620129  	91.689503 
3318.584553  	91.676521 
3319.548978  	91.640091 
3320.513402  	91.653056 
3321.477826  	91.691603 
3322.442251  	91.676702 
3323.406675  	91.703015 
3324.371100  	91.712235 
3325.335524  	91.700249 
3326.299949  	91.678410 
3327.264373  	91.620831 
3328.228798  	91.624761 
3329.193222  	91.628194 
3330.157647  	91.623615 
3331.122071  	91.654431 
3332.086495  	91.718120 
3333.050920  	91.696616 
3334.015344  	91.620929 
3334.979769  	91.540385 
3335.944193  	91.512587 
3336.908618  	91.443131 
3337.873042  	91.500310 
3338.837467  	91.638019 
3339.801891  	91.638394 
3340.766316  	91.640291 
3341.730740  	91.657172 
3342.695164  	91.645299 
3343.659589  	91.679427 
3344.624013  	91.782835 
3345.588438  	91.776608 
3346.552862  	91.747619 
3347.517287  	91.730959 
3348.481711  	91.737815 
3349.446136  	91.742929 
3350.410560  	91.730283 
3351.374985  	91.789889 
3352.339409  	91.859301 
3353.303834  	91.816847 
3354.268258  	91.808184 
3355.232682  	91.750216 
3356.197107  	91.603300 
3357.161531  	91.616733 
3358.125956  	91.687050 
3359.090380  	91.741139 
3360.054805  	91.629138 
3361.019229  	91.542111 
3361.983654  	91.499245 
3362.948078  	91.622897 
3363.912503  	91.751780 
3364.876927  	91.652232 
3365.841351  	91.625365 
3366.805776  	91.724698 
3367.770200  	91.637450 
3368.734625  	91.600869 
3369.699049  	91.712610 
3370.663474  	91.777298 
3371.627898  	91.772783 
3372.592323  	91.720104 
3373.556747  	91.677869 
3374.521172  	91.775170 
3375.485596  	91.832021 
3376.450020  	91.786306 
3377.414445  	91.766172 
3378.378869  	91.755091 
3379.343294  	91.783629 
3380.307718  	91.831462 
3381.272143  	91.878468 
3382.236567  	91.822222 
3383.200992  	91.769213 
3384.165416  	91.700199 
3385.129841  	91.682823 
3386.094265  	91.712321 
3387.058689  	91.691990 
3388.023114  	91.741845 
3388.987538  	91.786965 
3389.951963  	91.764302 
3390.916387  	91.725167 
3391.880812  	91.640003 
3392.845236  	91.475373 
3393.809661  	91.532459 
3394.774085  	91.720899 
3395.738510  	91.737139 
3396.702934  	91.640496 
3397.667358  	91.539448 
3398.631783  	91.703597 
3399.596207  	91.836650 
3400.560632  	91.790907 
3401.525056  	91.724561 
3402.489481  	91.754040 
3403.453905  	91.688195 
3404.418330  	91.669753 
3405.382754  	91.800694 
3406.347179  	91.825493 
3407.311603  	91.698627 
3408.276028  	91.657344 
3409.240452  	91.637812 
3410.204876  	91.587289 
3411.169301  	91.639488 
3412.133725  	91.680731 
3413.098150  	91.675040 
3414.062574  	91.642426 
3415.026999  	91.631639 
3415.991423  	91.587643 
3416.955848  	91.578875 
3417.920272  	91.539595 
3418.884697  	91.489927 
3419.849121  	91.295737 
3420.813545  	90.983706 
3421.777970  	91.021245 
3422.742394  	91.113131 
3423.706819  	91.244097 
3424.671243  	91.418168 
3425.635668  	91.446032 
3426.600092  	91.385709 
3427.564517  	91.348728 
3428.528941  	91.373531 
3429.493366  	91.429466 
3430.457790  	91.341045 
3431.422214  	91.305288 
3432.386639  	91.344634 
3433.351063  	91.445121 
3434.315488  	91.572189 
3435.279912  	91.588264 
3436.244337  	91.522110 
3437.208761  	91.463046 
3438.173186  	91.522122 
3439.137610  	91.514365 
3440.102035  	91.567894 
3441.066459  	91.580937 
3442.030883  	91.397068 
3442.995308  	91.208033 
3443.959732  	91.442841 
3444.924157  	91.521954 
3445.888581  	91.464673 
3446.853006  	91.045115 
3447.817430  	90.731851 
3448.781855  	91.305826 
3449.746279  	91.618424 
3450.710704  	91.693938 
3451.675128  	91.704974 
3452.639552  	91.744980 
3453.603977  	91.757813 
3454.568401  	91.717600 
3455.532826  	91.680724 
3456.497250  	91.720117 
3457.461675  	91.703779 
3458.426099  	91.692501 
3459.390524  	91.766632 
3460.354948  	91.781166 
3461.319373  	91.613308 
3462.283797  	91.498311 
3463.248221  	91.476420 
3464.212646  	91.695038 
3465.177070  	91.777747 
3466.141495  	91.700445 
3467.105919  	91.505922 
3468.070344  	91.697846 
3469.034768  	91.887470 
3469.999193  	91.828840 
3470.963617  	91.786581 
3471.928042  	91.853970 
3472.892466  	91.857118 
3473.856891  	91.818176 
3474.821315  	91.689324 
3475.785739  	91.784994 
3476.750164  	91.884621 
3477.714588  	91.839632 
3478.679013  	91.915561 
3479.643437  	91.863145 
3480.607862  	91.483270 
3481.572286  	91.347701 
3482.536711  	91.250090 
3483.501135  	91.494097 
3484.465560  	91.754395 
3485.429984  	91.786519 
3486.394408  	91.803284 
3487.358833  	91.727633 
3488.323257  	91.408579 
3489.287682  	91.495327 
3490.252106  	91.804727 
3491.216531  	91.804685 
3492.180955  	91.829632 
3493.145380  	91.859899 
3494.109804  	91.867129 
3495.074229  	91.740745 
3496.038653  	91.456867 
3497.003077  	91.338346 
3497.967502  	91.572908 
3498.931926  	91.738179 
3499.896351  	91.629454 
3500.860775  	91.528386 
3501.825200  	91.182981 
3502.789624  	90.669146 
3503.754049  	90.545253 
3504.718473  	90.960606 
3505.682898  	91.354756 
3506.647322  	91.668931 
3507.611746  	91.807594 
3508.576171  	91.495711 
3509.540595  	90.806081 
3510.505020  	91.030265 
3511.469444  	91.477428 
3512.433869  	91.594891 
3513.398293  	91.652616 
3514.362718  	91.774708 
3515.327142  	91.915347 
3516.291567  	91.881454 
3517.255991  	91.686481 
3518.220415  	91.561085 
3519.184840  	91.549056 
3520.149264  	91.601289 
3521.113689  	91.702767 
3522.078113  	91.538345 
3523.042538  	90.689780 
3524.006962  	90.317891 
3524.971387  	90.735263 
3525.935811  	90.910676 
3526.900236  	90.831914 
3527.864660  	90.684408 
3528.829085  	90.698744 
3529.793509  	90.920646 
3530.757933  	91.252909 
3531.722358  	91.262378 
3532.686782  	91.559639 
3533.651207  	91.751777 
3534.615631  	91.805669 
3535.580056  	91.500207 
3536.544480  	90.850379 
3537.508905  	91.111337 
3538.473329  	91.669643 
3539.437754  	91.666523 
3540.402178  	91.681902 
3541.366602  	91.658590 
3542.331027  	91.636305 
3543.295451  	91.343068 
3544.259876  	90.942145 
3545.224300  	90.024134 
3546.188725  	89.710487 
3547.153149  	89.795256 
3548.117574  	90.356484 
3549.081998  	91.287718 
3550.046423  	91.588229 
3551.010847  	91.493379 
3551.975271  	90.803649 
3552.939696  	90.452488 
3553.904120  	90.855253 
3554.868545  	91.299438 
3555.832969  	91.690214 
3556.797394  	91.652060 
3557.761818  	91.679437 
3558.726243  	91.803914 
3559.690667  	91.305448 
3560.655092  	90.732583 
3561.619516  	91.198998 
3562.583940  	91.224364 
3563.548365  	91.067838 
3564.512789  	91.003198 
3565.477214  	90.107322 
3566.441638  	87.789853 
3567.406063  	87.627126 
3568.370487  	88.060116 
3569.334912  	89.781639 
3570.299336  	91.041345 
3571.263761  	91.218524 
3572.228185  	91.648330 
3573.192609  	91.699434 
3574.157034  	91.520655 
3575.121458  	91.403846 
3576.085883  	91.534689 
3577.050307  	91.489957 
3578.014732  	91.571485 
3578.979156  	91.702084 
3579.943581  	91.224863 
3580.908005  	91.141649 
3581.872430  	91.599728 
3582.836854  	91.585295 
3583.801278  	91.394019 
3584.765703  	91.451342 
3585.730127  	90.980204 
3586.694552  	89.214186 
3587.658976  	88.308257 
3588.623401  	88.625092 
3589.587825  	89.798389 
3590.552250  	91.256994 
3591.516674  	91.638818 
3592.481099  	91.439206 
3593.445523  	90.684834 
3594.409948  	90.809982 
3595.374372  	90.370129 
3596.338796  	90.159280 
3597.303221  	91.063906 
3598.267645  	91.184481 
3599.232070  	90.872825 
3600.196494  	90.903143 
3601.160919  	90.585451 
3602.125343  	90.934738 
3603.089768  	91.239480 
3604.054192  	91.622562 
3605.018617  	91.828506 
3605.983041  	91.564461 
3606.947465  	90.353484 
3607.911890  	89.851398 
3608.876314  	90.063408 
3609.840739  	89.731502 
3610.805163  	90.909244 
3611.769588  	90.880717 
3612.734012  	89.548681 
3613.698437  	89.697133 
3614.662861  	89.899024 
3615.627286  	90.018448 
3616.591710  	91.035697 
3617.556134  	90.424200 
3618.520559  	89.566018 
3619.484983  	89.456971 
3620.449408  	89.472615 
3621.413832  	90.209255 
3622.378257  	90.934525 
3623.342681  	91.378550 
3624.307106  	91.590666 
3625.271530  	91.575166 
3626.235955  	91.087348 
3627.200379  	90.836533 
3628.164803  	89.770282 
3629.129228  	86.773835 
3630.093652  	87.582009 
3631.058077  	90.105251 
3632.022501  	91.097983 
3632.986926  	91.133394 
3633.951350  	90.387346 
3634.915775  	90.824978 
3635.880199  	91.525412 
3636.844624  	91.654727 
3637.809048  	91.493161 
3638.773472  	91.418928 
3639.737897  	91.660199 
3640.702321  	91.691563 
3641.666746  	91.402101 
3642.631170  	90.992486 
3643.595595  	91.305953 
3644.560019  	91.658453 
3645.524444  	91.331856 
3646.488868  	90.151394 
3647.453293  	88.221320 
3648.417717  	88.389555 
3649.382142  	88.050825 
3650.346566  	87.062930 
3651.310990  	87.495585 
3652.275415  	89.839875 
3653.239839  	91.212438 
3654.204264  	91.633587 
3655.168688  	91.491620 
3656.133113  	90.465154 
3657.097537  	90.211793 
3658.061962  	91.365675 
3659.026386  	91.648238 
3659.990811  	91.581669 
3660.955235  	91.751941 
3661.919659  	92.010769 
3662.884084  	92.035400 
3663.848508  	92.041179 
3664.812933  	91.956028 
3665.777357  	91.942186 
3666.741782  	91.995533 
3667.706206  	91.921253 
3668.670631  	90.916604 
3669.635055  	89.762117 
3670.599480  	88.926550 
3671.563904  	89.533855 
3672.528328  	91.268134 
3673.492753  	91.486406 
3674.457177  	90.171631 
3675.421602  	87.129115 
3676.386026  	87.673850 
3677.350451  	89.743545 
3678.314875  	90.616974 
3679.279300  	90.657140 
3680.243724  	90.784970 
3681.208149  	91.695312 
3682.172573  	92.064017 
3683.136997  	92.029117 
3684.101422  	91.865515 
3685.065846  	91.799265 
3686.030271  	91.984625 
3686.994695  	91.769146 
3687.959120  	90.885911 
3688.923544  	89.946463 
3689.887969  	90.377692 
3690.852393  	89.654442 
3691.816818  	89.600462 
3692.781242  	91.337841 
3693.745666  	91.775194 
3694.710091  	91.887310 
3695.674515  	92.031099 
3696.638940  	91.882836 
3697.603364  	91.969884 
3698.567789  	92.192063 
3699.532213  	92.122641 
3700.496638  	92.095621 
3701.461062  	91.256481 
3702.425487  	90.695724 
3703.389911  	91.758024 
3704.354335  	92.157829 
3705.318760  	92.026616 
3706.283184  	91.999761 
3707.247609  	92.127186 
3708.212033  	92.041146 
3709.176458  	91.318619 
3710.140882  	90.685237 
3711.105307  	90.368045 
3712.069731  	89.136169 
3713.034156  	89.431177 
3713.998580  	90.962887 
3714.963005  	91.010745 
3715.927429  	91.361403 
3716.891853  	92.079895 
3717.856278  	92.147261 
3718.820702  	91.400565 
3719.785127  	91.173797 
3720.749551  	91.756661 
3721.713976  	91.228033 
3722.678400  	89.953334 
3723.642825  	90.676141 
3724.607249  	91.003796 
3725.571674  	90.249671 
3726.536098  	90.023521 
3727.500522  	90.352048 
3728.464947  	91.395291 
3729.429371  	92.039075 
3730.393796  	91.954624 
3731.358220  	91.429479 
3732.322645  	90.514739 
3733.287069  	90.757993 
3734.251494  	90.041501 
3735.215918  	86.744348 
3736.180343  	87.151906 
3737.144767  	88.911642 
3738.109191  	89.891202 
3739.073616  	90.374735 
3740.038040  	91.061372 
3741.002465  	90.664623 
3741.966889  	90.825495 
3742.931314  	91.405133 
3743.895738  	90.297352 
3744.860163  	86.803067 
3745.824587  	89.305935 
3746.789012  	90.380946 
3747.753436  	90.401555 
3748.717860  	90.212997 
3749.682285  	89.609712 
3750.646709  	89.544113 
3751.611134  	89.137267 
3752.575558  	87.918251 
3753.539983  	89.767022 
3754.504407  	90.833973 
3755.468832  	91.371607 
3756.433256  	91.111808 
3757.397681  	91.159610 
3758.362105  	91.378403 
3759.326529  	90.318728 
3760.290954  	89.908984 
3761.255378  	91.489661 
3762.219803  	91.853727 
3763.184227  	91.905533 
3764.148652  	91.956267 
3765.113076  	91.481847 
3766.077501  	90.531182 
3767.041925  	91.324779 
3768.006350  	91.938842 
3768.970774  	91.619220 
3769.935199  	90.570955 
3770.899623  	90.813521 
3771.864047  	91.643854 
3772.828472  	91.975057 
3773.792896  	92.121931 
3774.757321  	92.209226 
3775.721745  	92.308680 
3776.686170  	92.396085 
3777.650594  	92.238633 
3778.615019  	91.742431 
3779.579443  	90.854097 
3780.543868  	91.107858 
3781.508292  	91.956454 
3782.472716  	92.075029 
3783.437141  	92.120598 
3784.401565  	91.662147 
3785.365990  	91.129578 
3786.330414  	91.553364 
3787.294839  	91.973873 
3788.259263  	92.167353 
3789.223688  	92.181681 
3790.188112  	92.192072 
3791.152537  	92.303460 
3792.116961  	92.298429 
3793.081385  	92.361832 
3794.045810  	92.440127 
3795.010234  	92.289248 
3795.974659  	91.679113 
3796.939083  	90.773900 
3797.903508  	91.037299 
3798.867932  	91.594870 
3799.832357  	91.690382 
3800.796781  	90.650620 
3801.761206  	89.145728 
3802.725630  	89.692742 
3803.690054  	90.771356 
3804.654479  	91.759283 
3805.618903  	91.899385 
3806.583328  	91.139044 
3807.547752  	90.458059 
3808.512177  	91.558811 
3809.476601  	91.958088 
3810.441026  	92.048669 
3811.405450  	92.183352 
3812.369875  	92.261278 
3813.334299  	92.320898 
3814.298723  	92.216174 
3815.263148  	91.507221 
3816.227572  	89.922039 
3817.191997  	90.606927 
3818.156421  	91.542395 
3819.120846  	91.479188 
3820.085270  	90.738512 
3821.049695  	89.004169 
3822.014119  	88.888752 
3822.978544  	90.693837 
3823.942968  	91.340147 
3824.907392  	91.662030 
3825.871817  	91.610416 
3826.836241  	90.986926 
3827.800666  	91.099287 
3828.765090  	91.772117 
3829.729515  	92.155184 
3830.693939  	92.014886 
3831.658364  	91.120548 
3832.622788  	91.247226 
3833.587213  	91.874230 
3834.551637  	91.318994 
3835.516062  	90.693540 
3836.480486  	91.380542 
3837.444910  	90.870940 
3838.409335  	89.668059 
3839.373759  	90.168841 
3840.338184  	89.495049 
3841.302608  	89.625269 
3842.267033  	91.196574 
3843.231457  	91.240018 
3844.195882  	90.446655 
3845.160306  	91.376619 
3846.124731  	91.949575 
3847.089155  	92.080343 
3848.053579  	92.150773 
3849.018004  	91.920182 
3849.982428  	91.405337 
3850.946853  	91.394873 
3851.911277  	90.509172 
3852.875702  	88.835254 
3853.840126  	87.844330 
3854.804551  	88.225479 
3855.768975  	90.574754 
3856.733400  	90.663857 
3857.697824  	90.240840 
3858.662248  	91.420087 
3859.626673  	92.105100 
3860.591097  	92.051982 
3861.555522  	91.385440 
3862.519946  	90.880506 
3863.484371  	91.186426 
3864.448795  	90.223955 
3865.413220  	89.138718 
3866.377644  	90.764996 
3867.342069  	91.865719 
3868.306493  	91.802734 
3869.270917  	90.390839 
3870.235342  	88.202546 
3871.199766  	89.687399 
3872.164191  	91.064432 
3873.128615  	91.365225 
3874.093040  	89.968547 
3875.057464  	90.041378 
3876.021889  	91.718857 
3876.986313  	92.109350 
3877.950738  	92.239032 
3878.915162  	92.177652 
3879.879586  	91.078663 
3880.844011  	89.177545 
3881.808435  	90.471760 
3882.772860  	91.473960 
3883.737284  	91.209573 
3884.701709  	91.129629 
3885.666133  	90.183607 
3886.630558  	89.861013 
3887.594982  	91.541592 
3888.559407  	92.123999 
3889.523831  	92.203103 
3890.488256  	91.707008 
3891.452680  	90.336083 
3892.417104  	90.339875 
3893.381529  	91.303155 
3894.345953  	91.234759 
3895.310378  	91.615184 
3896.274802  	92.190023 
3897.239227  	92.208937 
3898.203651  	91.461602 
3899.168076  	90.276221 
3900.132500  	90.215781 
3901.096925  	90.961537 
3902.061349  	89.547763 
3903.025773  	89.627803 
3903.990198  	90.071341 
3904.954622  	89.604578 
3905.919047  	89.964260 
3906.883471  	90.849121 
3907.847896  	91.990256 
3908.812320  	92.330584 
3909.776745  	92.356854 
3910.741169  	92.360218 
3911.705594  	92.337768 
3912.670018  	92.319825 
3913.634442  	92.343835 
3914.598867  	92.348335 
3915.563291  	92.138891 
3916.527716  	91.110254 
3917.492140  	90.274648 
3918.456565  	91.325909 
3919.420989  	91.646860 
3920.385414  	90.925054 
3921.349838  	91.576290 
3922.314263  	92.249788 
3923.278687  	91.862528 
3924.243111  	90.939316 
3925.207536  	90.370681 
3926.171960  	91.221557 
3927.136385  	92.150730 
3928.100809  	92.217927 
3929.065234  	91.972409 
3930.029658  	91.632458 
3930.994083  	91.375191 
3931.958507  	90.879329 
3932.922932  	90.479978 
3933.887356  	91.333404 
3934.851780  	91.791851 
3935.816205  	92.144432 
3936.780629  	92.324284 
3937.745054  	92.243030 
3938.709478  	92.044127 
3939.673903  	92.229293 
3940.638327  	92.351311 
3941.602752  	92.158898 
3942.567176  	91.156003 
3943.531601  	90.655365 
3944.496025  	91.576026 
3945.460449  	92.056442 
3946.424874  	92.149527 
3947.389298  	91.533021 
3948.353723  	91.144733 
3949.318147  	91.410772 
3950.282572  	91.069998 
3951.246996  	91.552400 
3952.211421  	92.227217 
3953.175845  	92.106703 
3954.140270  	92.163334 
3955.104694  	92.288003 
3956.069119  	92.222564 
3957.033543  	92.065756 
3957.997967  	92.061218 
3958.962392  	92.143589 
3959.926816  	92.213634 
3960.891241  	92.150647 
3961.855665  	91.667282 
3962.820090  	91.645733 
3963.784514  	92.232049 
3964.748939  	92.289731 
3965.713363  	92.328297 
3966.677788  	92.379892 
3967.642212  	92.346127 
3968.606636  	92.201635 
3969.571061  	92.050641 
3970.535485  	92.185989 
3971.499910  	92.253928 
3972.464334  	92.051375 
3973.428759  	92.171255 
3974.393183  	92.235057 
3975.357608  	92.051703 
3976.322032  	91.903780 
3977.286457  	92.112307 
3978.250881  	92.381154 
3979.215305  	92.399912 
3980.179730  	92.356963 
3981.144154  	92.311446 
3982.108579  	92.249224 
3983.073003  	92.297655 
3984.037428  	92.458755 
3985.001852  	92.445187 
3985.966277  	92.401501 
3986.930701  	92.436215 
3987.895126  	92.451202 
3988.859550  	92.424016 
3989.823974  	92.283504 
3990.788399  	92.057156 
3991.752823  	92.159393 
3992.717248  	92.352061 
3993.681672  	92.365268 
3994.646097  	92.219201 
3995.610521  	92.084669 
3996.574946  	92.311985 
3997.539370  	92.461924 
3998.503795  	92.469654 
3999.468219  	92.440031 
4000.432643  	92.476829 
4001.397068  	92.494275 
4002.361492  	92.470366 
4003.325917  	92.413504 
4004.290341  	92.406900 
4005.254766  	92.425686 
4006.219190  	92.418851 
4007.183615  	92.383453 
4008.148039  	92.289014 
4009.112464  	92.168162 
4010.076888  	92.310173 
4011.041313  	92.382104 
4012.005737  	92.399247 
4012.970161  	92.359433 
4013.934586  	92.392028 
4014.899010  	92.462082 
4015.863435  	92.433824 
4016.827859  	92.391415 
4017.792284  	92.435348 
4018.756708  	92.461182 
4019.721133  	92.371298 
4020.685557  	92.294360 
4021.649982  	92.359494 
4022.614406  	92.448278 
4023.578830  	92.415990 
4024.543255  	92.316731 
4025.507679  	92.242809 
4026.472104  	92.302718 
4027.436528  	92.417835 
4028.400953  	92.399335 
4029.365377  	92.377957 
4030.329802  	92.394673 
4031.294226  	92.400958 
4032.258651  	92.406402 
4033.223075  	92.476769 
4034.187499  	92.492215 
4035.151924  	92.468775 
4036.116348  	92.468087 
4037.080773  	92.485782 
4038.045197  	92.482136 
4039.009622  	92.445230 
4039.974046  	92.417208 
4040.938471  	92.420718 
4041.902895  	92.403683 
4042.867320  	92.383544 
4043.831744  	92.304605 
4044.796168  	92.232588 
4045.760593  	92.272697 
4046.725017  	92.402411 
4047.689442  	92.430739 
4048.653866  	92.423367 
4049.618291  	92.417000 
4050.582715  	92.471838 
4051.547140  	92.486337 
4052.511564  	92.476710 
4053.475989  	92.464436 
4054.440413  	92.418122 
4055.404837  	92.382278 
4056.369262  	92.396248 
4057.333686  	92.427111 
4058.298111  	92.423842 
4059.262535  	92.406722 
4060.226960  	92.400274 
4061.191384  	92.370876 
4062.155809  	92.407516 
4063.120233  	92.439610 
4064.084658  	92.459358 
4065.049082  	92.464418 
4066.013506  	92.469060 
4066.977931  	92.454602 
4067.942355  	92.411008 
4068.906780  	92.395170 
4069.871204  	92.420007 
4070.835629  	92.401315 
4071.800053  	92.416255 
4072.764478  	92.385736 
4073.728902  	92.356920 
4074.693327  	92.386867 
4075.657751  	92.414909 
4076.622176  	92.409890 
4077.586600  	92.428592 
4078.551024  	92.360526 
4079.515449  	92.282337 
4080.479873  	92.306699 
4081.444298  	92.370941 
4082.408722  	92.366633 
4083.373147  	92.323796 
4084.337571  	92.333722 
4085.301996  	92.365438 
4086.266420  	92.328942 
4087.230845  	92.344762 
4088.195269  	92.321098 
4089.159693  	92.337568 
4090.124118  	92.392495 
4091.088542  	92.375846 
4092.052967  	92.367153 
4093.017391  	92.385703 
4093.981816  	92.346315 
4094.946240  	92.352639 
4095.910665  	92.436359 
4096.875089  	92.498267 
4097.839514  	92.424623 
4098.803938  	92.325263 
4099.768362  	92.323375 
4100.732787  	92.343024 
4101.697211  	92.340883 
4102.661636  	92.401722 
4103.626060  	92.451391 
4104.590485  	92.430799 
4105.554909  	92.357439 
4106.519334  	92.322232 
4107.483758  	92.300884 
4108.448183  	92.329336 
4109.412607  	92.399161 
4110.377031  	92.424732 
4111.341456  	92.436967 
4112.305880  	92.466928 
4113.270305  	92.450524 
4114.234729  	92.446327 
4115.199154  	92.439989 
4116.163578  	92.410935 
4117.128003  	92.403922 
4118.092427  	92.382720 
4119.056852  	92.372466 
4120.021276  	92.388435 
4120.985700  	92.405022 
4121.950125  	92.436879 
4122.914549  	92.407287 
4123.878974  	92.375432 
4124.843398  	92.394985 
4125.807823  	92.428000 
4126.772247  	92.426061 
4127.736672  	92.434170 
4128.701096  	92.456523 
4129.665521  	92.503234 
4130.629945  	92.491547 
4131.594370  	92.452046 
4132.558794  	92.478315 
4133.523218  	92.475089 
4134.487643  	92.443858 
4135.452067  	92.477044 
4136.416492  	92.510403 
4137.380916  	92.529152 
4138.345341  	92.459371 
4139.309765  	92.351336 
4140.274190  	92.371703 
4141.238614  	92.429417 
4142.203039  	92.462491 
4143.167463  	92.524101 
4144.131887  	92.460341 
4145.096312  	92.418156 
4146.060736  	92.470567 
4147.025161  	92.502574 
4147.989585  	92.455943 
4148.954010  	92.397619 
4149.918434  	92.408406 
4150.882859  	92.451312 
4151.847283  	92.456547 
4152.811708  	92.466101 
4153.776132  	92.504469 
4154.740556  	92.492758 
4155.704981  	92.439435 
4156.669405  	92.427431 
4157.633830  	92.467472 
4158.598254  	92.492653 
4159.562679  	92.466851 
4160.527103  	92.444312 
4161.491528  	92.427923 
4162.455952  	92.462066 
4163.420377  	92.526024 
4164.384801  	92.503796 
4165.349225  	92.417843 
4166.313650  	92.418291 
4167.278074  	92.449490 
4168.242499  	92.488505 
4169.206923  	92.499457 
4170.171348  	92.517327 
4171.135772  	92.513473 
4172.100197  	92.461904 
4173.064621  	92.458773 
4174.029046  	92.520574 
4174.993470  	92.537802 
4175.957894  	92.530014 
4176.922319  	92.545892 
4177.886743  	92.530735 
4178.851168  	92.477811 
4179.815592  	92.437799 
4180.780017  	92.410378 
4181.744441  	92.436739 
4182.708866  	92.450944 
4183.673290  	92.469764 
4184.637715  	92.509664 
4185.602139  	92.535950 
4186.566563  	92.467964 
4187.530988  	92.409481 
4188.495412  	92.436128 
4189.459837  	92.486472 
4190.424261  	92.472940 
4191.388686  	92.472289 
4192.353110  	92.508160 
4193.317535  	92.484149 
4194.281959  	92.397025 
4195.246384  	92.412725 
4196.210808  	92.448695 
4197.175233  	92.448013 
4198.139657  	92.447150 
4199.104081  	92.468506 
4200.068506  	92.457948 
4201.032930  	92.449401 
4201.997355  	92.503153 
4202.961779  	92.545443 
4203.926204  	92.526905 
4204.890628  	92.485236 
4205.855053  	92.491890 
4206.819477  	92.493471 
4207.783902  	92.491028 
4208.748326  	92.487087 
4209.712750  	92.494376 
4210.677175  	92.503564 
4211.641599  	92.446619 
4212.606024  	92.451681 
4213.570448  	92.526203 
4214.534873  	92.523510 
4215.499297  	92.432630 
4216.463722  	92.434109 
4217.428146  	92.443239 
4218.392571  	92.429961 
4219.356995  	92.404333 
4220.321419  	92.448744 
4221.285844  	92.585083 
4222.250268  	92.649596 
4223.214693  	92.542236 
4224.179117  	92.444979 
4225.143542  	92.437829 
4226.107966  	92.482914 
4227.072391  	92.494534 
4228.036815  	92.471239 
4229.001240  	92.410530 
4229.965664  	92.359114 
4230.930088  	92.375890 
4231.894513  	92.478002 
4232.858937  	92.489926 
4233.823362  	92.486012 
4234.787786  	92.506609 
4235.752211  	92.462500 
4236.716635  	92.472086 
4237.681060  	92.514299 
4238.645484  	92.498957 
4239.609909  	92.468460 
4240.574333  	92.446010 
4241.538757  	92.514587 
4242.503182  	92.547740 
4243.467606  	92.537596 
4244.432031  	92.488793 
4245.396455  	92.428054 
4246.360880  	92.419203 
4247.325304  	92.441169 
4248.289729  	92.462815 
4249.254153  	92.469390 
4250.218578  	92.518612 
4251.183002  	92.559766 
4252.147427  	92.510626 
4253.111851  	92.488095 
4254.076275  	92.454703 
4255.040700  	92.421885 
4256.005124  	92.464218 
4256.969549  	92.549074 
4257.933973  	92.577160 
4258.898398  	92.536240 
4259.862822  	92.488919 
4260.827247  	92.497524 
4261.791671  	92.500275 
4262.756096  	92.489181 
4263.720520  	92.425815 
4264.684944  	92.396918 
4265.649369  	92.423160 
4266.613793  	92.511636 
4267.578218  	92.499897 
4268.542642  	92.499557 
4269.507067  	92.520294 
4270.471491  	92.487934 
4271.435916  	92.472069 
4272.400340  	92.484928 
4273.364765  	92.476289 
4274.329189  	92.500065 
4275.293613  	92.503568 
4276.258038  	92.505255 
4277.222462  	92.525494 
4278.186887  	92.492595 
4279.151311  	92.395462 
4280.115736  	92.369406 
4281.080160  	92.462622 
4282.044585  	92.476346 
4283.009009  	92.395782 
4283.973434  	92.375730 
4284.937858  	92.394906 
4285.902282  	92.395524 
4286.866707  	92.407879 
4287.831131  	92.522569 
4288.795556  	92.581867 
4289.759980  	92.534079 
4290.724405  	92.462720 
4291.688829  	92.442144 
4292.653254  	92.433600 
4293.617678  	92.494297 
4294.582103  	92.572972 
4295.546527  	92.574656 
4296.510951  	92.508397 
4297.475376  	92.464013 
4298.439800  	92.510609 
4299.404225  	92.587403 
4300.368649  	92.582161 
4301.333074  	92.502272 
4302.297498  	92.399701 
4303.261923  	92.416768 
4304.226347  	92.486391 
4305.190772  	92.561136 
4306.155196  	92.533084 
4307.119620  	92.487014 
4308.084045  	92.465914 
4309.048469  	92.511638 
4310.012894  	92.522759 
4310.977318  	92.514892 
4311.941743  	92.492183 
4312.906167  	92.483864 
4313.870592  	92.452394 
4314.835016  	92.481495 
4315.799441  	92.472831 
4316.763865  	92.479669 
4317.728290  	92.463905 
4318.692714  	92.509379 
4319.657138  	92.550829 
4320.621563  	92.541749 
4321.585987  	92.488702 
4322.550412  	92.462580 
4323.514836  	92.445085 
4324.479261  	92.475780 
4325.443685  	92.498597 
4326.408110  	92.578978 
4327.372534  	92.585250 
4328.336959  	92.516685 
4329.301383  	92.492292 
4330.265807  	92.556248 
4331.230232  	92.594161 
4332.194656  	92.574984 
4333.159081  	92.559962 
4334.123505  	92.546531 
4335.087930  	92.519790 
4336.052354  	92.565635 
4337.016779  	92.556191 
4337.981203  	92.546531 
4338.945628  	92.529679 
4339.910052  	92.464845 
4340.874476  	92.470549 
4341.838901  	92.556530 
4342.803325  	92.560219 
4343.767750  	92.469446 
4344.732174  	92.440415 
4345.696599  	92.511787 
4346.661023  	92.539873 
4347.625448  	92.497270 
4348.589872  	92.460410 
4349.554297  	92.505207 
4350.518721  	92.558499 
4351.483145  	92.594058 
4352.447570  	92.541122 
4353.411994  	92.520438 
4354.376419  	92.507097 
4355.340843  	92.513833 
4356.305268  	92.550920 
4357.269692  	92.628201 
4358.234117  	92.675243 
4359.198541  	92.640466 
4360.162966  	92.578855 
4361.127390  	92.545001 
4362.091814  	92.545948 
4363.056239  	92.507222 
4364.020663  	92.521662 
4364.985088  	92.536837 
4365.949512  	92.495283 
4366.913937  	92.482830 
4367.878361  	92.465774 
4368.842786  	92.452097 
4369.807210  	92.500715 
4370.771635  	92.576389 
4371.736059  	92.562834 
4372.700484  	92.547241 
4373.664908  	92.592605 
4374.629332  	92.569199 
4375.593757  	92.528421 
4376.558181  	92.541746 
4377.522606  	92.552702 
4378.487030  	92.525030 
4379.451455  	92.517386 
4380.415879  	92.526173 
4381.380304  	92.506967 
4382.344728  	92.527956 
4383.309153  	92.505628 
4384.273577  	92.539553 
4385.238001  	92.552360 
4386.202426  	92.500465 
4387.166850  	92.484038 
4388.131275  	92.500925 
4389.095699  	92.533312 
4390.060124  	92.560430 
4391.024548  	92.527274 
4391.988973  	92.557980 
4392.953397  	92.562798 
4393.917822  	92.505846 
4394.882246  	92.480524 
4395.846670  	92.519022 
4396.811095  	92.499516 
4397.775519  	92.537249 
4398.739944  	92.628973 
4399.704368  	92.641120 
4400.668793  	92.580173 
4401.633217  	92.437113 
4402.597642  	92.413401 
4403.562066  	92.566822 
4404.526491  	92.594911 
4405.490915  	92.533610 
4406.455339  	92.527996 
4407.419764  	92.516023 
4408.384188  	92.530547 
4409.348613  	92.594061 
4410.313037  	92.580665 
4411.277462  	92.473275 
4412.241886  	92.438941 
4413.206311  	92.491739 
4414.170735  	92.597424 
4415.135160  	92.628407 
4416.099584  	92.565411 
4417.064008  	92.505095 
4418.028433  	92.459602 
4418.992857  	92.475723 
4419.957282  	92.458203 
4420.921706  	92.437591 
4421.886131  	92.450607 
4422.850555  	92.442584 
4423.814980  	92.376692 
4424.779404  	92.402532 
4425.743829  	92.391135 
4426.708253  	92.385755 
4427.672677  	92.447235 
4428.637102  	92.461794 
4429.601526  	92.487597 
4430.565951  	92.472939 
4431.530375  	92.433721 
4432.494800  	92.372340 
4433.459224  	92.386295 
4434.423649  	92.479040 
4435.388073  	92.503526 
4436.352498  	92.530750 
4437.316922  	92.539096 
4438.281347  	92.523707 
4439.245771  	92.462852 
4440.210195  	92.458791 
4441.174620  	92.459312 
4442.139044  	92.476397 
4443.103469  	92.544562 
4444.067893  	92.543708 
4445.032318  	92.544546 
4445.996742  	92.590624 
4446.961167  	92.531070 
4447.925591  	92.425685 
4448.890016  	92.375503 
4449.854440  	92.368719 
4450.818864  	92.411211 
4451.783289  	92.480897 
4452.747713  	92.483438 
4453.712138  	92.474631 
4454.676562  	92.455551 
4455.640987  	92.433925 
4456.605411  	92.456400 
4457.569836  	92.511790 
4458.534260  	92.516098 
4459.498685  	92.496551 
4460.463109  	92.458187 
4461.427533  	92.413930 
4462.391958  	92.416195 
4463.356382  	92.503787 
4464.320807  	92.551352 
4465.285231  	92.501449 
4466.249656  	92.485039 
4467.214080  	92.525786 
4468.178505  	92.468140 
4469.142929  	92.474946 
4470.107354  	92.514989 
4471.071778  	92.554766 
4472.036202  	92.605113 
4473.000627  	92.632802 
4473.965051  	92.559775 
4474.929476  	92.526862 
4475.893900  	92.506933 
4476.858325  	92.514329 
4477.822749  	92.546361 
4478.787174  	92.511527 
4479.751598  	92.518739 
4480.716023  	92.573953 
4481.680447  	92.560307 
4482.644871  	92.576931 
4483.609296  	92.565146 
4484.573720  	92.528196 
4485.538145  	92.527841 
4486.502569  	92.505173 
4487.466994  	92.491272 
4488.431418  	92.518951 
4489.395843  	92.522941 
4490.360267  	92.556362 
4491.324692  	92.548858 
4492.289116  	92.479631 
4493.253541  	92.482752 
4494.217965  	92.528661 
4495.182389  	92.534987 
4496.146814  	92.521533 
4497.111238  	92.524463 
4498.075663  	92.551489 
4499.040087  	92.542771 
4500.004512  	92.585127 
4500.968936  	92.605240 
4501.933361  	92.536297 
4502.897785  	92.542966 
4503.862210  	92.571013 
4504.826634  	92.566351 
4505.791058  	92.556746 
4506.755483  	92.509552 
4507.719907  	92.509476 
4508.684332  	92.565590 
4509.648756  	92.586928 
4510.613181  	92.527077 
4511.577605  	92.583199 
4512.542030  	92.678589 
4513.506454  	92.633016 
4514.470879  	92.520793 
4515.435303  	92.460878 
4516.399727  	92.505131 
4517.364152  	92.507406 
4518.328576  	92.507316 
4519.293001  	92.571777 
4520.257425  	92.588127 
4521.221850  	92.557363 
4522.186274  	92.625324 
4523.150699  	92.637338 
4524.115123  	92.525667 
4525.079548  	92.518908 
4526.043972  	92.517024 
4527.008396  	92.479386 
4527.972821  	92.447708 
4528.937245  	92.449074 
4529.901670  	92.492217 
4530.866094  	92.574802 
4531.830519  	92.626515 
4532.794943  	92.601065 
4533.759368  	92.576948 
4534.723792  	92.565713 
4535.688217  	92.539371 
4536.652641  	92.594889 
4537.617065  	92.587025 
4538.581490  	92.562011 
4539.545914  	92.548053 
4540.510339  	92.532009 
4541.474763  	92.490811 
4542.439188  	92.519234 
4543.403612  	92.521848 
4544.368037  	92.475172 
4545.332461  	92.512977 
4546.296886  	92.543561 
4547.261310  	92.460512 
4548.225734  	92.493355 
4549.190159  	92.617625 
4550.154583  	92.624810 
4551.119008  	92.493115 
4552.083432  	92.467832 
4553.047857  	92.503543 
4554.012281  	92.567629 
4554.976706  	92.641569 
4555.941130  	92.617647 
4556.905555  	92.513358 
4557.869979  	92.585432 
4558.834404  	92.641189 
4559.798828  	92.522979 
4560.763252  	92.373540 
4561.727677  	92.427760 
4562.692101  	92.529343 
4563.656526  	92.628174 
4564.620950  	92.628426 
4565.585375  	92.563947 
4566.549799  	92.603647 
4567.514224  	92.704183 
4568.478648  	92.633924 
4569.443073  	92.531498 
4570.407497  	92.485574 
4571.371921  	92.569852 
4572.336346  	92.617681 
4573.300770  	92.571588 
4574.265195  	92.509522 
4575.229619  	92.513756 
4576.194044  	92.520413 
4577.158468  	92.525108 
4578.122893  	92.591725 
4579.087317  	92.635362 
4580.051742  	92.594205 
4581.016166  	92.566155 
4581.980590  	92.608181 
4582.945015  	92.712049 
4583.909439  	92.681781 
4584.873864  	92.560244 
4585.838288  	92.441383 
4586.802713  	92.414456 
4587.767137  	92.443870 
4588.731562  	92.530183 
4589.695986  	92.592996 
4590.660411  	92.594210 
4591.624835  	92.546274 
4592.589259  	92.579087 
4593.553684  	92.599677 
4594.518108  	92.537218 
4595.482533  	92.482606 
4596.446957  	92.504846 
4597.411382  	92.514725 
4598.375806  	92.533615 
4599.340231  	92.623677 
4600.304655  	92.614770 
4601.269080  	92.511223 
4602.233504  	92.493124 
4603.197928  	92.523746 
4604.162353  	92.529572 
4605.126777  	92.554055 
4606.091202  	92.571779 
4607.055626  	92.584291 
4608.020051  	92.583246 
4608.984475  	92.540662 
4609.948900  	92.557011 
4610.913324  	92.572072 
4611.877749  	92.545219 
4612.842173  	92.552778 
4613.806598  	92.585225 
4614.771022  	92.594741 
4615.735446  	92.590269 
4616.699871  	92.545706 
4617.664295  	92.517290 
4618.628720  	92.527635 
4619.593144  	92.512778 
4620.557569  	92.565576 
4621.521993  	92.600243 
4622.486418  	92.553178 
4623.450842  	92.605083 
4624.415267  	92.603679 
4625.379691  	92.558185 
4626.344115  	92.455616 
4627.308540  	92.474310 
4628.272964  	92.500240 
4629.237389  	92.577666 
4630.201813  	92.565608 
4631.166238  	92.550017 
4632.130662  	92.531004 
4633.095087  	92.443891 
4634.059511  	92.451480 
4635.023936  	92.558960 
4635.988360  	92.672398 
4636.952784  	92.607902 
4637.917209  	92.503570 
4638.881633  	92.459893 
4639.846058  	92.462900 
4640.810482  	92.529876 
4641.774907  	92.535446 
4642.739331  	92.448475 
4643.703756  	92.413695 
4644.668180  	92.422045 
4645.632605  	92.391741 
4646.597029  	92.475253 
4647.561453  	92.535018 
4648.525878  	92.574520 
4649.490302  	92.610507 
4650.454727  	92.627772 
4651.419151  	92.584046 
4652.383576  	92.534992 
4653.348000  	92.549843 
4654.312425  	92.579786 
4655.276849  	92.583915 
4656.241274  	92.570491 
4657.205698  	92.547195 
4658.170122  	92.468570 
4659.134547  	92.386738 
4660.098971  	92.423444 
4661.063396  	92.544736 
4662.027820  	92.635226 
4662.992245  	92.582125 
4663.956669  	92.523579 
4664.921094  	92.539013 
4665.885518  	92.583755 
4666.849943  	92.621662 
4667.814367  	92.590141 
4668.778791  	92.598699 
4669.743216  	92.591577 
4670.707640  	92.584467 
4671.672065  	92.576423 
4672.636489  	92.493905 
4673.600914  	92.441962 
4674.565338  	92.467920 
4675.529763  	92.531701 
4676.494187  	92.597217 
4677.458612  	92.616745 
4678.423036  	92.639588 
4679.387461  	92.659696 
4680.351885  	92.609997 
4681.316309  	92.519669 
4682.280734  	92.497202 
4683.245158  	92.472219 
4684.209583  	92.474356 
4685.174007  	92.539621 
4686.138432  	92.517835 
4687.102856  	92.552701 
4688.067281  	92.572773 
4689.031705  	92.571422 
4689.996130  	92.617504 
4690.960554  	92.648714 
4691.924978  	92.561570 
4692.889403  	92.447107 
4693.853827  	92.401607 
4694.818252  	92.434649 
4695.782676  	92.484246 
4696.747101  	92.505279 
4697.711525  	92.561374 
4698.675950  	92.519418 
4699.640374  	92.428344 