##TITLE=No Description
##DATA TYPE=INFRARED SPECTRUM
##XUNITS=1/CM
##YUNITS=%T
400.236149  	150.284160 
401.200574  	99.559507 
402.164998  	80.227686 
403.129423  	82.122221 
404.093847  	82.668659 
405.058272  	79.319512 
406.022696  	82.126924 
406.987120  	98.580975 
407.951545  	105.302058 
408.915969  	85.095965 
409.880394  	82.332181 
410.844818  	88.168350 
411.809243  	98.279768 
412.773667  	110.180966 
413.738092  	99.778206 
414.702516  	84.055976 
415.666941  	83.073035 
416.631365  	89.122357 
417.595789  	89.316688 
418.560214  	87.702854 
419.524638  	90.827973 
420.489063  	88.346488 
421.453487  	86.059407 
422.417912  	85.056056 
423.382336  	84.861043 
424.346761  	82.504181 
425.311185  	81.658664 
426.275610  	82.854601 
427.240034  	82.518988 
428.204458  	81.692696 
429.168883  	79.814470 
430.133307  	78.988436 
431.097732  	80.257543 
432.062156  	79.964202 
433.026581  	78.587984 
433.991005  	80.507213 
434.955430  	81.823810 
435.919854  	80.180891 
436.884279  	78.809527 
437.848703  	80.388750 
438.813127  	81.601254 
439.777552  	80.268103 
440.741976  	81.245269 
441.706401  	84.862256 
442.670825  	85.517465 
443.635250  	83.719627 
444.599674  	84.510587 
445.564099  	84.602365 
446.528523  	83.701733 
447.492948  	82.334667 
448.457372  	83.815462 
449.421796  	84.553008 
450.386221  	83.168170 
451.350645  	83.021181 
452.315070  	84.395125 
453.279494  	84.526490 
454.243919  	84.956580 
455.208343  	85.134494 
456.172768  	85.691080 
457.137192  	86.613020 
458.101617  	85.974989 
459.066041  	85.079026 
460.030466  	85.039016 
460.994890  	84.801962 
461.959314  	85.055942 
462.923739  	84.838604 
463.888163  	84.189005 
464.852588  	84.163924 
465.817012  	85.123102 
466.781437  	84.620211 
467.745861  	83.407841 
468.710286  	83.337939 
469.674710  	82.752300 
470.639135  	81.924089 
471.603559  	82.369198 
472.567983  	83.486002 
473.532408  	83.589079 
474.496832  	83.211442 
475.461257  	83.213323 
476.425681  	82.452559 
477.390106  	83.433089 
478.354530  	83.814339 
479.318955  	82.787868 
480.283379  	83.055949 
481.247804  	83.736242 
482.212228  	82.692180 
483.176652  	82.966149 
484.141077  	83.760925 
485.105501  	83.043301 
486.069926  	81.503447 
487.034350  	81.641745 
487.998775  	82.350288 
488.963199  	82.768319 
489.927624  	82.828285 
490.892048  	81.952268 
491.856473  	81.362858 
492.820897  	82.044318 
493.785321  	82.052039 
494.749746  	81.072343 
495.714170  	81.134796 
496.678595  	81.067213 
497.643019  	80.786041 
498.607444  	80.791204 
499.571868  	80.539972 
500.536293  	80.415137 
501.500717  	79.536257 
502.465142  	78.994270 
503.429566  	79.093843 
504.393990  	78.834737 
505.358415  	78.956259 
506.322839  	78.643094 
507.287264  	78.687991 
508.251688  	80.336713 
509.216113  	81.947861 
510.180537  	82.394739 
511.144962  	82.649324 
512.109386  	83.273851 
513.073811  	83.444760 
514.038235  	83.262291 
515.002660  	82.925451 
515.967084  	82.445243 
516.931508  	82.369530 
517.895933  	83.131588 
518.860357  	82.984144 
519.824782  	82.623670 
520.789206  	82.991705 
521.753631  	83.103140 
522.718055  	82.945041 
523.682480  	83.014505 
524.646904  	83.236735 
525.611329  	82.859500 
526.575753  	82.734649 
527.540177  	83.386393 
528.504602  	83.819208 
529.469026  	83.957436 
530.433451  	83.838310 
531.397875  	83.598696 
532.362300  	83.870048 
533.326724  	84.502877 
534.291149  	84.344405 
535.255573  	84.181352 
536.219998  	84.418694 
537.184422  	84.931208 
538.148846  	84.597175 
539.113271  	84.291787 
540.077695  	84.375239 
541.042120  	84.815140 
542.006544  	84.826407 
542.970969  	84.559940 
543.935393  	84.677839 
544.899818  	84.621853 
545.864242  	84.562547 
546.828667  	84.550852 
547.793091  	84.270128 
548.757515  	84.540519 
549.721940  	85.062693 
550.686364  	85.105425 
551.650789  	85.253792 
552.615213  	84.831082 
553.579638  	84.698448 
554.544062  	84.709713 
555.508487  	84.821785 
556.472911  	84.601833 
557.437336  	84.299836 
558.401760  	84.624912 
559.366184  	84.937671 
560.330609  	84.596149 
561.295033  	84.512049 
562.259458  	84.737406 
563.223882  	84.431239 
564.188307  	84.150897 
565.152731  	84.463098 
566.117156  	84.648469 
567.081580  	84.455012 
568.046005  	84.217538 
569.010429  	83.971282 
569.974853  	83.885375 
570.939278  	83.826270 
571.903702  	83.882867 
572.868127  	84.018010 
573.832551  	84.057993 
574.796976  	84.095805 
575.761400  	83.585107 
576.725825  	83.705626 
577.690249  	84.033431 
578.654674  	84.106307 
579.619098  	83.937538 
580.583523  	83.606870 
581.547947  	83.704772 
582.512371  	83.893771 
583.476796  	83.867835 
584.441220  	83.762960 
585.405645  	83.886970 
586.370069  	84.279461 
587.334494  	84.241107 
588.298918  	84.159464 
589.263343  	83.949688 
590.227767  	83.894683 
591.192192  	83.556645 
592.156616  	83.500087 
593.121040  	83.981251 
594.085465  	84.037941 
595.049889  	83.911747 
596.014314  	83.986099 
596.978738  	83.799331 
597.943163  	83.687521 
598.907587  	83.635895 
599.872012  	83.551503 
600.836436  	83.528549 
601.800861  	83.483126 
602.765285  	83.401075 
603.729709  	83.354278 
604.694134  	83.449067 
605.658558  	83.532286 
606.622983  	83.618720 
607.587407  	83.373090 
608.551832  	83.269539 
609.516256  	83.470075 
610.480681  	83.452297 
611.445105  	83.285541 
612.409530  	83.267372 
613.373954  	83.285009 
614.338378  	83.125191 
615.302803  	82.965063 
616.267227  	82.819136 
617.231652  	82.806056 
618.196076  	82.842420 
619.160501  	82.978284 
620.124925  	82.805240 
621.089350  	82.784189 
622.053774  	82.854751 
623.018199  	82.765004 
623.982623  	82.346033 
624.947047  	82.340246 
625.911472  	82.374291 
626.875896  	82.305585 
627.840321  	82.200909 
628.804745  	82.248684 
629.769170  	81.879867 
630.733594  	81.361872 
631.698019  	81.167788 
632.662443  	81.337120 
633.626868  	81.570774 
634.591292  	81.869088 
635.555717  	81.913935 
636.520141  	82.227761 
637.484565  	82.187065 
638.448990  	82.101531 
639.413414  	81.991066 
640.377839  	81.961191 
641.342263  	81.918524 
642.306688  	81.711805 
643.271112  	81.778052 
644.235537  	81.841900 
645.199961  	81.678609 
646.164386  	81.659987 
647.128810  	81.659962 
648.093234  	81.467162 
649.057659  	81.363684 
650.022083  	81.411938 
650.986508  	81.317968 
651.950932  	81.105711 
652.915357  	81.013122 
653.879781  	80.989262 
654.844206  	80.976990 
655.808630  	80.864458 
656.773055  	80.722994 
657.737479  	80.775935 
658.701903  	80.528587 
659.666328  	80.294805 
660.630752  	80.335236 
661.595177  	80.474773 
662.559601  	80.330543 
663.524026  	80.089184 
664.488450  	80.161393 
665.452875  	80.104504 
666.417299  	79.953816 
667.381724  	79.744968 
668.346148  	77.996211 
669.310572  	78.368044 
670.274997  	78.961872 
671.239421  	79.191109 
672.203846  	79.274345 
673.168270  	79.140454 
674.132695  	78.761503 
675.097119  	78.383415 
676.061544  	78.096068 
677.025968  	77.865215 
677.990393  	77.630256 
678.954817  	77.541050 
679.919241  	77.536901 
680.883666  	77.438317 
681.848090  	77.265206 
682.812515  	77.162434 
683.776939  	77.041747 
684.741364  	76.965532 
685.705788  	76.775040 
686.670213  	76.627052 
687.634637  	76.393151 
688.599062  	76.067155 
689.563486  	75.790988 
690.527910  	75.636258 
691.492335  	75.259326 
692.456759  	74.866369 
693.421184  	74.444198 
694.385608  	74.117944 
695.350033  	73.630541 
696.314457  	73.099333 
697.278882  	72.446153 
698.243306  	71.678697 
699.207731  	70.895135 
700.172155  	70.202386 
701.136580  	69.447108 
702.101004  	68.779599 
703.065428  	68.329631 
704.029853  	67.799725 
704.994277  	67.076250 
705.958702  	66.427607 
706.923126  	65.741127 
707.887551  	64.984875 
708.851975  	64.232354 
709.816400  	63.245542 
710.780824  	62.271030 
711.745249  	61.294503 
712.709673  	60.171163 
713.674097  	58.826023 
714.638522  	57.455061 
715.602946  	56.178223 
716.567371  	54.710448 
717.531795  	53.165572 
718.496220  	51.622234 
719.460644  	50.192348 
720.425069  	48.966335 
721.389493  	48.113224 
722.353918  	47.577394 
723.318342  	47.424047 
724.282766  	48.015808 
725.247191  	49.491330 
726.211615  	51.629335 
727.176040  	54.180786 
728.140464  	56.820909 
729.104889  	59.473831 
730.069313  	62.032849 
731.033738  	64.698255 
731.998162  	67.404267 
732.962587  	70.097646 
733.927011  	72.753920 
734.891435  	75.365534 
735.855860  	77.865814 
736.820284  	80.294396 
737.784709  	82.554511 
738.749133  	84.465246 
739.713558  	85.922333 
740.677982  	87.046451 
741.642407  	87.920370 
742.606831  	88.580648 
743.571256  	88.877199 
744.535680  	89.046741 
745.500104  	89.308677 
746.464529  	89.427866 
747.428953  	89.335429 
748.393378  	89.245168 
749.357802  	89.081398 
750.322227  	88.892305 
751.286651  	88.831290 
752.251076  	88.739642 
753.215500  	88.681573 
754.179925  	88.560464 
755.144349  	88.348559 
756.108774  	88.232514 
757.073198  	88.103131 
758.037622  	87.941226 
759.002047  	87.664790 
759.966471  	87.547862 
760.930896  	87.454842 
761.895320  	87.311263 
762.859745  	87.271819 
763.824169  	87.257636 
764.788594  	87.134912 
765.753018  	86.965422 
766.717443  	86.699598 
767.681867  	86.524226 
768.646291  	86.283134 
769.610716  	86.059364 
770.575140  	85.938889 
771.539565  	85.849095 
772.503989  	85.655187 
773.468414  	85.516993 
774.432838  	85.373249 
775.397263  	85.118501 
776.361687  	84.935055 
777.326112  	85.004438 
778.290536  	84.929620 
779.254960  	84.836321 
780.219385  	84.673012 
781.183809  	84.517985 
782.148234  	84.014519 
783.112658  	83.695713 
784.077083  	83.481510 
785.041507  	83.433597 
786.005932  	83.329903 
786.970356  	82.929595 
787.934781  	82.558890 
788.899205  	82.407685 
789.863629  	82.232061 
790.828054  	81.900209 
791.792478  	81.553067 
792.756903  	81.458192 
793.721327  	81.654797 
794.685752  	82.070923 
795.650176  	82.649659 
796.614601  	83.150450 
797.579025  	83.575214 
798.543450  	83.619979 
799.507874  	83.605382 
800.472298  	83.751974 
801.436723  	83.786098 
802.401147  	83.637237 
803.365572  	83.502830 
804.329996  	83.483252 
805.294421  	83.441687 
806.258845  	83.315572 
807.223270  	83.255656 
808.187694  	83.229898 
809.152119  	83.243139 
810.116543  	83.262133 
811.080967  	83.189674 
812.045392  	83.080026 
813.009816  	83.054833 
813.974241  	83.087046 
814.938665  	83.047771 
815.903090  	82.991834 
816.867514  	82.891312 
817.831939  	82.856386 
818.796363  	82.835402 
819.760788  	82.756762 
820.725212  	82.733882 
821.689637  	82.703804 
822.654061  	82.640849 
823.618485  	82.507080 
824.582910  	82.296004 
825.547334  	82.025582 
826.511759  	81.879974 
827.476183  	81.797170 
828.440608  	81.645150 
829.405032  	81.437416 
830.369457  	81.208757 
831.333881  	81.043309 
832.298306  	80.872334 
833.262730  	80.650333 
834.227154  	80.467568 
835.191579  	80.251998 
836.156003  	79.956704 
837.120428  	79.652504 
838.084852  	79.278578 
839.049277  	78.976616 
840.013701  	78.668673 
840.978126  	78.313203 
841.942550  	78.079726 
842.906975  	77.819670 
843.871399  	77.510583 
844.835823  	77.214094 
845.800248  	76.974354 
846.764672  	76.971361 
847.729097  	77.194637 
848.693521  	77.434559 
849.657946  	77.822429 
850.622370  	78.246087 
851.586795  	78.565834 
852.551219  	78.689348 
853.515644  	78.845968 
854.480068  	79.042242 
855.444492  	79.154126 
856.408917  	79.221861 
857.373341  	79.357785 
858.337766  	79.488353 
859.302190  	79.645007 
860.266615  	79.686425 
861.231039  	79.559186 
862.195464  	79.356995 
863.159888  	79.127682 
864.124313  	78.855889 
865.088737  	78.341919 
866.053161  	77.694374 
867.017586  	76.896936 
867.982010  	75.788187 
868.946435  	74.407176 
869.910859  	72.771861 
870.875284  	71.062492 
871.839708  	70.270215 
872.804133  	71.108001 
873.768557  	73.060769 
874.732982  	75.015505 
875.697406  	76.516365 
876.661831  	77.610438 
877.626255  	78.517633 
878.590679  	79.365530 
879.555104  	80.112486 
880.519528  	80.769142 
881.483953  	81.295122 
882.448377  	81.768261 
883.412802  	82.223268 
884.377226  	82.544804 
885.341651  	82.729021 
886.306075  	82.862691 
887.270500  	82.955237 
888.234924  	83.033929 
889.199348  	82.976281 
890.163773  	82.886220 
891.128197  	82.851498 
892.092622  	82.833977 
893.057046  	82.776272 
894.021471  	82.662497 
894.985895  	82.597238 
895.950320  	82.530021 
896.914744  	82.396691 
897.879169  	82.316058 
898.843593  	82.349053 
899.808017  	82.449443 
900.772442  	82.517784 
901.736866  	82.506152 
902.701291  	82.607507 
903.665715  	82.760445 
904.630140  	82.837630 
905.594564  	82.897958 
906.558989  	83.058025 
907.523413  	83.224855 
908.487838  	83.237865 
909.452262  	83.269834 
910.416686  	83.384563 
911.381111  	83.473883 
912.345535  	83.463553 
913.309960  	83.392293 
914.274384  	83.345691 
915.238809  	83.312719 
916.203233  	83.271223 
917.167658  	83.277277 
918.132082  	83.256828 
919.096507  	83.176246 
920.060931  	83.117891 
921.025355  	83.083520 
921.989780  	83.006160 
922.954204  	82.887290 
923.918629  	82.767746 
924.883053  	82.710018 
925.847478  	82.688894 
926.811902  	82.601114 
927.776327  	82.487889 
928.740751  	82.376295 
929.705176  	82.304653 
930.669600  	82.200514 
931.634024  	82.113474 
932.598449  	82.060874 
933.562873  	81.994083 
934.527298  	81.887092 
935.491722  	81.732833 
936.456147  	81.647176 
937.420571  	81.594496 
938.384996  	81.449851 
939.349420  	81.306450 
940.313845  	81.216507 
941.278269  	81.157577 
942.242694  	81.043851 
943.207118  	80.896526 
944.171542  	80.785533 
945.135967  	80.678804 
946.100391  	80.531329 
947.064816  	80.355879 
948.029240  	80.235615 
948.993665  	80.100405 
949.958089  	79.922552 
950.922514  	79.756070 
951.886938  	79.630433 
952.851363  	79.453837 
953.815787  	79.225482 
954.780211  	79.047011 
955.744636  	78.904088 
956.709060  	78.703562 
957.673485  	78.491787 
958.637909  	78.273056 
959.602334  	78.024263 
960.566758  	77.764654 
961.531183  	77.461897 
962.495607  	77.177029 
963.460032  	76.939986 
964.424456  	76.700664 
965.388880  	76.427348 
966.353305  	76.224618 
967.317729  	76.098413 
968.282154  	75.929307 
969.246578  	75.830450 
970.211003  	75.873175 
971.175427  	75.995048 
972.139852  	76.151668 
973.104276  	76.400818 
974.068701  	76.749242 
975.033125  	77.105030 
975.997549  	77.449352 
976.961974  	77.771583 
977.926398  	78.053765 
978.890823  	78.299172 
979.855247  	78.503061 
980.819672  	78.631862 
981.784096  	78.695612 
982.748521  	78.756570 
983.712945  	78.707865 
984.677370  	78.601301 
985.641794  	78.511394 
986.606218  	78.428744 
987.570643  	78.351662 
988.535067  	78.307084 
989.499492  	78.273670 
990.463916  	78.204883 
991.428341  	78.091732 
992.392765  	77.934786 
993.357190  	77.781506 
994.321614  	77.630622 
995.286039  	77.466168 
996.250463  	77.263881 
997.214888  	77.058741 
998.179312  	76.859461 
999.143736  	76.618228 
1000.108161  	76.308265 
1001.072585  	76.006534 
1002.037010  	75.743636 
1003.001434  	75.434063 
1003.965859  	75.063077 
1004.930283  	74.643463 
1005.894708  	74.143647 
1006.859132  	73.563084 
1007.823557  	72.902224 
1008.787981  	72.138348 
1009.752405  	71.318859 
1010.716830  	70.354846 
1011.681254  	69.177056 
1012.645679  	67.903199 
1013.610103  	66.568273 
1014.574528  	65.199834 
1015.538952  	64.155556 
1016.503377  	63.791873 
1017.467801  	64.117917 
1018.432226  	65.000695 
1019.396650  	66.287622 
1020.361074  	67.807726 
1021.325499  	69.355761 
1022.289923  	70.818031 
1023.254348  	72.329235 
1024.218772  	74.023686 
1025.183197  	75.818086 
1026.147621  	77.385338 
1027.112046  	78.454319 
1028.076470  	78.966120 
1029.040895  	79.029981 
1030.005319  	78.838562 
1030.969743  	78.514157 
1031.934168  	78.184951 
1032.898592  	77.883249 
1033.863017  	77.528779 
1034.827441  	77.115694 
1035.791866  	76.759322 
1036.756290  	76.490599 
1037.720715  	76.194992 
1038.685139  	75.906399 
1039.649564  	75.680648 
1040.613988  	75.491463 
1041.578412  	75.267442 
1042.542837  	75.126393 
1043.507261  	75.058678 
1044.471686  	74.947445 
1045.436110  	74.779530 
1046.400535  	74.720258 
1047.364959  	74.753115 
1048.329384  	74.706373 
1049.293808  	74.643939 
1050.258233  	74.627962 
1051.222657  	74.578162 
1052.187081  	74.509013 
1053.151506  	74.392308 
1054.115930  	74.304268 
1055.080355  	74.159938 
1056.044779  	73.905826 
1057.009204  	73.641305 
1057.973628  	73.419967 
1058.938053  	73.162325 
1059.902477  	72.726064 
1060.866902  	72.273913 
1061.831326  	71.951508 
1062.795751  	71.611753 
1063.760175  	71.148250 
1064.724599  	70.674880 
1065.689024  	70.231454 
1066.653448  	69.770956 
1067.617873  	69.247081 
1068.582297  	68.689568 
1069.546722  	68.107786 
1070.511146  	67.549915 
1071.475571  	66.933275 
1072.439995  	66.276413 
1073.404420  	65.622061 
1074.368844  	64.923521 
1075.333268  	64.188954 
1076.297693  	63.447393 
1077.262117  	62.683033 
1078.226542  	61.933240 
1079.190966  	61.214026 
1080.155391  	60.529652 
1081.119815  	59.944013 
1082.084240  	59.444081 
1083.048664  	59.006426 
1084.013089  	58.649733 
1084.977513  	58.331836 
1085.941937  	57.995706 
1086.906362  	57.709496 
1087.870786  	57.457583 
1088.835211  	57.243673 
1089.799635  	57.021110 
1090.764060  	56.789764 
1091.728484  	56.605391 
1092.692909  	56.516915 
1093.657333  	56.465327 
1094.621758  	56.401066 
1095.586182  	56.458662 
1096.550606  	56.652089 
1097.515031  	56.904338 
1098.479455  	57.198010 
1099.443880  	57.523259 
1100.408304  	57.984675 
1101.372729  	58.567752 
1102.337153  	59.176737 
1103.301578  	59.819436 
1104.266002  	60.513279 
1105.230427  	61.239007 
1106.194851  	61.924112 
1107.159275  	62.623420 
1108.123700  	63.315681 
1109.088124  	63.915012 
1110.052549  	64.394237 
1111.016973  	64.772804 
1111.981398  	65.025833 
1112.945822  	65.158611 
1113.910247  	65.196943 
1114.874671  	65.134255 
1115.839096  	65.007322 
1116.803520  	64.893297 
1117.767945  	64.803818 
1118.732369  	64.881563 
1119.696793  	65.170639 
1120.661218  	65.500882 
1121.625642  	65.845110 
1122.590067  	66.363029 
1123.554491  	66.968215 
1124.518916  	67.578581 
1125.483340  	68.291497 
1126.447765  	69.073662 
1127.412189  	69.892920 
1128.376614  	70.753986 
1129.341038  	71.700748 
1130.305462  	72.748745 
1131.269887  	73.835765 
1132.234311  	74.840081 
1133.198736  	75.800999 
1134.163160  	76.798006 
1135.127585  	77.763304 
1136.092009  	78.689951 
1137.056434  	79.591344 
1138.020858  	80.446301 
1138.985283  	81.204151 
1139.949707  	81.852409 
1140.914131  	82.489342 
1141.878556  	83.115855 
1142.842980  	83.616108 
1143.807405  	84.056774 
1144.771829  	84.527027 
1145.736254  	84.938142 
1146.700678  	85.277406 
1147.665103  	85.557023 
1148.629527  	85.823305 
1149.593952  	86.102466 
1150.558376  	86.309840 
1151.522800  	86.465774 
1152.487225  	86.628013 
1153.451649  	86.761569 
1154.416074  	86.836396 
1155.380498  	86.897345 
1156.344923  	86.960137 
1157.309347  	86.991056 
1158.273772  	87.005846 
1159.238196  	86.962985 
1160.202621  	86.944499 
1161.167045  	86.931128 
1162.131469  	86.837864 
1163.095894  	86.710812 
1164.060318  	86.610332 
1165.024743  	86.469830 
1165.989167  	86.261071 
1166.953592  	86.023326 
1167.918016  	85.754635 
1168.882441  	85.428568 
1169.846865  	85.047833 
1170.811290  	84.669592 
1171.775714  	84.360930 
1172.740138  	84.128175 
1173.704563  	83.901002 
1174.668987  	83.709245 
1175.633412  	83.690211 
1176.597836  	83.698279 
1177.562261  	83.676256 
1178.526685  	83.663773 
1179.491110  	83.681063 
1180.455534  	83.685356 
1181.419959  	83.698316 
1182.384383  	83.657188 
1183.348808  	83.579029 
1184.313232  	83.476107 
1185.277656  	83.287490 
1186.242081  	83.065468 
1187.206505  	82.840539 
1188.170930  	82.609772 
1189.135354  	82.338018 
1190.099779  	82.019048 
1191.064203  	81.737121 
1192.028628  	81.408410 
1192.993052  	80.960487 
1193.957477  	80.527579 
1194.921901  	80.152159 
1195.886325  	79.727947 
1196.850750  	79.258768 
1197.815174  	78.822223 
1198.779599  	78.434077 
1199.744023  	78.037473 
1200.708448  	77.576344 
1201.672872  	77.106185 
1202.637297  	76.670917 
1203.601721  	76.244840 
1204.566146  	75.798751 
1205.530570  	75.326229 
1206.494994  	74.867877 
1207.459419  	74.438133 
1208.423843  	73.993907 
1209.388268  	73.543764 
1210.352692  	73.068571 
1211.317117  	72.542115 
1212.281541  	72.009320 
1213.245966  	71.499081 
1214.210390  	70.947425 
1215.174815  	70.341776 
1216.139239  	69.715004 
1217.103663  	69.095137 
1218.068088  	68.474846 
1219.032512  	67.782915 
1219.996937  	67.130261 
1220.961361  	66.562154 
1221.925786  	66.017970 
1222.890210  	65.491644 
1223.854635  	64.962191 
1224.819059  	64.393381 
1225.783484  	63.836471 
1226.747908  	63.280225 
1227.712332  	62.635061 
1228.676757  	61.920301 
1229.641181  	61.189102 
1230.605606  	60.437291 
1231.570030  	59.644043 
1232.534455  	58.865682 
1233.498879  	58.129299 
1234.463304  	57.404044 
1235.427728  	56.720467 
1236.392153  	56.118999 
1237.356577  	55.638060 
1238.321002  	55.285648 
1239.285426  	55.027953 
1240.249850  	54.884746 
1241.214275  	54.892455 
1242.178699  	54.995820 
1243.143124  	55.143267 
1244.107548  	55.423028 
1245.071973  	55.851124 
1246.036397  	56.288125 
1247.000822  	56.736420 
1247.965246  	57.253633 
1248.929671  	57.800982 
1249.894095  	58.303726 
1250.858519  	58.795545 
1251.822944  	59.297092 
1252.787368  	59.743153 
1253.751793  	60.121915 
1254.716217  	60.461085 
1255.680642  	60.824297 
1256.645066  	61.149422 
1257.609491  	61.381097 
1258.573915  	61.619982 
1259.538340  	61.881582 
1260.502764  	62.168492 
1261.467188  	62.626988 
1262.431613  	63.144616 
1263.396037  	63.707183 
1264.360462  	64.313051 
1265.324886  	64.950424 
1266.289311  	65.667250 
1267.253735  	66.471961 
1268.218160  	67.243919 
1269.182584  	67.985542 
1270.147009  	68.735124 
1271.111433  	69.552914 
1272.075857  	70.286645 
1273.040282  	71.047144 
1274.004706  	71.733359 
1274.969131  	72.372829 
1275.933555  	72.962490 
1276.897980  	73.510574 
1277.862404  	74.050225 
1278.826829  	74.543369 
1279.791253  	74.971873 
1280.755678  	75.443411 
1281.720102  	75.976543 
1282.684526  	76.491026 
1283.648951  	76.934961 
1284.613375  	77.370620 
1285.577800  	77.853023 
1286.542224  	78.273505 
1287.506649  	78.563576 
1288.471073  	79.007615 
1289.435498  	79.646347 
1290.399922  	80.209908 
1291.364347  	80.735467 
1292.328771  	81.316120 
1293.293195  	81.899175 
1294.257620  	82.456061 
1295.222044  	82.955526 
1296.186469  	83.441876 
1297.150893  	84.002991 
1298.115318  	84.657874 
1299.079742  	85.185465 
1300.044167  	85.687178 
1301.008591  	86.181109 
1301.973016  	86.635250 
1302.937440  	86.991445 
1303.901865  	87.276218 
1304.866289  	87.554236 
1305.830713  	87.806804 
1306.795138  	88.011569 
1307.759562  	88.181888 
1308.723987  	88.410546 
1309.688411  	88.754521 
1310.652836  	88.974465 
1311.617260  	89.036903 
1312.581685  	88.880376 
1313.546109  	89.083325 
1314.510534  	89.351073 
1315.474958  	89.605720 
1316.439382  	89.613755 
1317.403807  	89.552855 
1318.368231  	89.575767 
1319.332656  	89.524547 
1320.297080  	89.858511 
1321.261505  	90.115137 
1322.225929  	90.262668 
1323.190354  	90.259833 
1324.154778  	90.280588 
1325.119203  	90.243825 
1326.083627  	90.120232 
1327.048051  	89.926022 
1328.012476  	89.613988 
1328.976900  	89.161327 
1329.941325  	88.516028 
1330.905749  	87.764803 
1331.870174  	86.827956 
1332.834598  	85.660273 
1333.799023  	84.369177 
1334.763447  	83.036051 
1335.727872  	81.577095 
1336.692296  	80.048995 
1337.656720  	79.125971 
1338.621145  	78.181092 
1339.585569  	77.549133 
1340.549994  	78.192807 
1341.514418  	80.006795 
1342.478843  	81.562887 
1343.443267  	82.858980 
1344.407692  	84.184765 
1345.372116  	85.500649 
1346.336541  	86.706131 
1347.300965  	87.704044 
1348.265389  	88.438151 
1349.229814  	88.952201 
1350.194238  	89.514937 
1351.158663  	89.989450 
1352.123087  	90.256350 
1353.087512  	90.478543 
1354.051936  	90.503799 
1355.016361  	90.378431 
1355.980785  	90.629213 
1356.945210  	90.721629 
1357.909634  	90.596698 
1358.874059  	90.627218 
1359.838483  	90.572953 
1360.802907  	89.909642 
1361.767332  	89.355124 
1362.731756  	88.479489 
1363.696181  	88.427683 
1364.660605  	89.446750 
1365.625030  	89.528554 
1366.589454  	89.349763 
1367.553879  	88.946105 
1368.518303  	88.336923 
1369.482728  	88.324645 
1370.447152  	88.693429 
1371.411576  	88.695233 
1372.376001  	88.526728 
1373.340425  	87.852485 
1374.304850  	87.354645 
1375.269274  	87.782300 
1376.233699  	88.560498 
1377.198123  	88.700041 
1378.162548  	88.475663 
1379.126972  	88.558411 
1380.091397  	88.688259 
1381.055821  	88.846425 
1382.020245  	88.867327 
1382.984670  	88.837246 
1383.949094  	88.849667 
1384.913519  	88.836027 
1385.877943  	88.434909 
1386.842368  	87.464706 
1387.806792  	87.300267 
1388.771217  	88.296054 
1389.735641  	88.653156 
1390.700066  	88.547851 
1391.664490  	88.543191 
1392.628914  	88.502904 
1393.593339  	87.836733 
1394.557763  	86.556233 
1395.522188  	86.299514 
1396.486612  	86.777168 
1397.451037  	86.524457 
1398.415461  	85.636197 
1399.379886  	85.125364 
1400.344310  	85.458356 
1401.308735  	85.384327 
1402.273159  	84.687448 
1403.237583  	83.863331 
1404.202008  	82.540192 
1405.166432  	80.959179 
1406.130857  	80.551236 
1407.095281  	80.320543 
1408.059706  	79.919692 
1409.024130  	79.888678 
1409.988555  	80.208761 
1410.952979  	81.064832 
1411.917404  	82.225553 
1412.881828  	83.959583 
1413.846252  	85.587027 
1414.810677  	86.895045 
1415.775101  	87.619820 
1416.739526  	87.910841 
1417.703950  	88.076376 
1418.668375  	87.912705 
1419.632799  	87.938407 
1420.597224  	89.994726 
1421.561648  	90.737084 
1422.526073  	90.860789 
1423.490497  	90.044517 
1424.454922  	89.817578 
1425.419346  	90.825997 
1426.383770  	91.164466 
1427.348195  	91.094126 
1428.312619  	90.781488 
1429.277044  	90.219808 
1430.241468  	89.813369 
1431.205893  	90.233083 
1432.170317  	90.144382 
1433.134742  	89.842440 
1434.099166  	89.946915 
1435.063591  	89.645352 
1436.028015  	88.254487 
1436.992439  	87.420768 
1437.956864  	88.860056 
1438.921288  	89.425720 
1439.885713  	89.490614 
1440.850137  	89.461642 
1441.814562  	89.424278 
1442.778986  	89.416628 
1443.743411  	89.333201 
1444.707835  	89.226451 
1445.672260  	89.105011 
1446.636684  	88.856138 
1447.601108  	88.021175 
1448.565533  	87.959297 
1449.529957  	88.701175 
1450.494382  	88.778984 
1451.458806  	88.311981 
1452.423231  	88.003250 
1453.387655  	88.401498 
1454.352080  	88.003738 
1455.316504  	86.933662 
1456.280929  	85.988168 
1457.245353  	85.303729 
1458.209777  	85.553762 
1459.174202  	86.523239 
1460.138626  	88.009542 
1461.103051  	88.841611 
1462.067475  	89.060219 
1463.031900  	89.094459 
1463.996324  	88.609877 
1464.960749  	87.749462 
1465.925173  	88.383399 
1466.889598  	88.873350 
1467.854022  	88.824790 
1468.818446  	88.760871 
1469.782871  	88.498810 
1470.747295  	87.758001 
1471.711720  	86.131369 
1472.676144  	85.268557 
1473.640569  	86.091342 
1474.604993  	87.626503 
1475.569418  	87.769322 
1476.533842  	87.486858 
1477.498267  	88.846326 
1478.462691  	89.604896 
1479.427116  	89.837879 
1480.391540  	89.716822 
1481.355964  	89.361521 
1482.320389  	89.936328 
1483.284813  	90.461175 
1484.249238  	90.663338 
1485.213662  	90.600040 
1486.178087  	90.108671 
1487.142511  	89.552649 
1488.106936  	89.705456 
1489.071360  	88.809815 
1490.035785  	87.496905 
1491.000209  	88.841542 
1491.964633  	90.446115 
1492.929058  	91.013634 
1493.893482  	91.031640 
1494.857907  	90.648363 
1495.822331  	89.535612 
1496.786756  	89.036551 
1497.751180  	89.419450 
1498.715605  	88.713983 
1499.680029  	88.758197 
1500.644454  	88.854768 
1501.608878  	88.053659 
1502.573302  	87.523141 
1503.537727  	87.169633 
1504.502151  	86.248148 
1505.466576  	84.615438 
1506.431000  	82.058769 
1507.395425  	82.152564 
1508.359849  	84.477671 
1509.324274  	86.348146 
1510.288698  	87.912875 
1511.253123  	89.165658 
1512.217547  	89.130872 
1513.181971  	89.946909 
1514.146396  	90.299780 
1515.110820  	89.396667 
1516.075245  	88.341487 
1517.039669  	87.063200 
1518.004094  	88.803333 
1518.968518  	89.892172 
1519.932943  	88.849585 
1520.897367  	86.627573 
1521.861792  	87.022143 
1522.826216  	88.264103 
1523.790640  	89.225689 
1524.755065  	88.781452 
1525.719489  	88.432167 
1526.683914  	88.953373 
1527.648338  	88.578358 
1528.612763  	89.039342 
1529.577187  	90.144362 
1530.541612  	90.431545 
1531.506036  	89.669718 
1532.470461  	89.096562 
1533.434885  	88.143061 
1534.399309  	88.657856 
1535.363734  	89.567084 
1536.328158  	90.001109 
1537.292583  	90.082563 
1538.257007  	89.035969 
1539.221432  	86.562168 
1540.185856  	86.491002 
1541.150281  	87.585129 
1542.114705  	87.553850 
1543.079130  	87.853275 
1544.043554  	87.962942 
1545.007979  	87.578413 
1545.972403  	88.756785 
1546.936827  	90.132421 
1547.901252  	90.387395 
1548.865676  	89.830863 
1549.830101  	88.155563 
1550.794525  	88.742259 
1551.758950  	90.028143 
1552.723374  	89.979254 
1553.687799  	89.069100 
1554.652223  	88.277791 
1555.616648  	89.286060 
1556.581072  	89.305449 
1557.545496  	87.969842 
1558.509921  	84.470374 
1559.474345  	83.791764 
1560.438770  	86.618980 
1561.403194  	89.052533 
1562.367619  	89.781441 
1563.332043  	89.946558 
1564.296468  	89.513729 
1565.260892  	89.233747 
1566.225317  	89.791850 
1567.189741  	89.937167 
1568.154165  	89.447730 
1569.118590  	88.026591 
1570.083014  	87.818220 
1571.047439  	89.105207 
1572.011863  	89.365123 
1572.976288  	89.276491 
1573.940712  	89.135663 
1574.905137  	88.593399 
1575.869561  	87.285208 
1576.833986  	86.811493 
1577.798410  	87.736825 
1578.762834  	88.380107 
1579.727259  	88.768648 
1580.691683  	89.079321 
1581.656108  	89.279465 
1582.620532  	89.458728 
1583.584957  	89.643904 
1584.549381  	89.823678 
1585.513806  	89.931687 
1586.478230  	90.005834 
1587.442655  	90.033041 
1588.407079  	90.042336 
1589.371503  	89.933174 
1590.335928  	89.875233 
1591.300352  	89.901025 
1592.264777  	89.923944 
1593.229201  	89.897060 
1594.193626  	89.634859 
1595.158050  	89.576518 
1596.122475  	89.655280 
1597.086899  	89.700574 
1598.051324  	89.786575 
1599.015748  	89.744693 
1599.980173  	89.693852 
1600.944597  	89.482872 
1601.909021  	89.359111 
1602.873446  	89.123773 
1603.837870  	89.129696 
1604.802295  	89.300332 
1605.766719  	89.213270 
1606.731144  	88.837547 
1607.695568  	88.669699 
1608.659993  	88.618442 
1609.624417  	88.326670 
1610.588842  	88.572293 
1611.553266  	88.665422 
1612.517690  	88.551506 
1613.482115  	88.490345 
1614.446539  	88.432303 
1615.410964  	88.015701 
1616.375388  	86.988463 
1617.339813  	87.107298 
1618.304237  	88.030252 
1619.268662  	88.298129 
1620.233086  	88.363045 
1621.197511  	88.370011 
1622.161935  	87.949929 
1623.126359  	86.942961 
1624.090784  	87.173949 
1625.055208  	88.021129 
1626.019633  	88.126626 
1626.984057  	87.789981 
1627.948482  	87.286917 
1628.912906  	87.709234 
1629.877331  	87.991638 
1630.841755  	87.993555 
1631.806180  	87.944854 
1632.770604  	87.891223 
1633.735028  	87.522963 
1634.699453  	86.502957 
1635.663877  	85.048140 
1636.628302  	85.886584 
1637.592726  	85.990968 
1638.557151  	86.749785 
1639.521575  	87.173176 
1640.486000  	87.140163 
1641.450424  	87.099204 
1642.414849  	86.992617 
1643.379273  	87.020989 
1644.343697  	86.869581 
1645.308122  	85.990369 
1646.272546  	84.637086 
1647.236971  	84.038442 
1648.201395  	84.358187 
1649.165820  	85.690353 
1650.130244  	86.185606 
1651.094669  	85.851271 
1652.059093  	84.760603 
1653.023518  	81.872293 
1653.987942  	81.569650 
1654.952366  	83.761281 
1655.916791  	85.043959 
1656.881215  	85.281267 
1657.845640  	85.450702 
1658.810064  	85.523074 
1659.774489  	85.428423 
1660.738913  	85.024200 
1661.703338  	84.386892 
1662.667762  	83.593967 
1663.632187  	83.908818 
1664.596611  	84.221091 
1665.561036  	84.108695 
1666.525460  	83.940040 
1667.489884  	83.384466 
1668.454309  	82.017925 
1669.418733  	81.214755 
1670.383158  	81.875312 
1671.347582  	81.472201 
1672.312007  	81.630894 
1673.276431  	82.004427 
1674.240856  	81.454348 
1675.205280  	80.209044 
1676.169705  	80.440353 
1677.134129  	80.893480 
1678.098553  	80.714399 
1679.062978  	80.073990 
1680.027402  	78.739339 
1680.991827  	78.612428 
1681.956251  	78.898333 
1682.920676  	77.698725 
1683.885100  	74.498866 
1684.849525  	74.372696 
1685.813949  	77.192677 
1686.778374  	77.668691 
1687.742798  	77.034469 
1688.707222  	76.373608 
1689.671647  	76.204611 
1690.636071  	75.914903 
1691.600496  	75.869702 
1692.564920  	75.402181 
1693.529345  	74.615902 
1694.493769  	73.511142 
1695.458194  	71.725490 
1696.422618  	70.030188 
1697.387043  	69.970285 
1698.351467  	69.463297 
1699.315891  	68.266664 
1700.280316  	65.149880 
1701.244740  	64.715684 
1702.209165  	65.024837 
1703.173589  	64.306813 
1704.138014  	62.824920 
1705.102438  	61.347049 
1706.066863  	60.237943 
1707.031287  	58.956145 
1707.995712  	58.519704 
1708.960136  	57.927818 
1709.924560  	56.892790 
1710.888985  	56.279414 
1711.853409  	56.240249 
1712.817834  	56.008866 
1713.782258  	55.615134 
1714.746683  	55.355171 
1715.711107  	56.212770 
1716.675532  	56.912199 
1717.639956  	56.689950 
1718.604381  	58.076028 
1719.568805  	60.741418 
1720.533230  	62.350190 
1721.497654  	63.525742 
1722.462078  	64.586195 
1723.426503  	65.413974 
1724.390927  	66.708875 
1725.355352  	68.002906 
1726.319776  	69.100603 
1727.284201  	70.237250 
1728.248625  	71.340275 
1729.213050  	71.818560 
1730.177474  	72.241876 
1731.141899  	74.156709 
1732.106323  	75.221501 
1733.070747  	75.031730 
1734.035172  	74.438944 
1734.999596  	77.543997 
1735.964021  	80.066419 
1736.928445  	81.276884 
1737.892870  	82.358138 
1738.857294  	83.030579 
1739.821719  	83.511185 
1740.786143  	85.533928 
1741.750568  	86.834861 
1742.714992  	86.928243 
1743.679416  	87.088330 
1744.643841  	88.613236 
1745.608265  	89.713333 
1746.572690  	90.023567 
1747.537114  	90.092977 
1748.501539  	90.133651 
1749.465963  	90.669656 
1750.430388  	91.081236 
1751.394812  	90.581073 
1752.359237  	91.968219 
1753.323661  	93.049034 
1754.288085  	93.523272 
1755.252510  	93.580621 
1756.216934  	92.938087 
1757.181359  	92.427615 
1758.145783  	93.091042 
1759.110208  	93.506211 
1760.074632  	93.701204 
1761.039057  	93.056581 
1762.003481  	92.201319 
1762.967906  	93.205294 
1763.932330  	93.833265 
1764.896754  	93.979977 
1765.861179  	94.022323 
1766.825603  	93.795125 
1767.790028  	92.849613 
1768.754452  	92.694764 
1769.718877  	93.556892 
1770.683301  	93.196256 
1771.647726  	92.178363 
1772.612150  	91.786587 
1773.576575  	92.850468 
1774.540999  	93.364841 
1775.505423  	93.012735 
1776.469848  	93.318730 
1777.434272  	93.842220 
1778.398697  	93.641515 
1779.363121  	93.358522 
1780.327546  	92.877665 
1781.291970  	92.861150 
1782.256395  	93.533621 
1783.220819  	93.775288 
1784.185244  	93.359226 
1785.149668  	92.870915 
1786.114093  	93.419538 
1787.078517  	93.708219 
1788.042941  	93.675813 
1789.007366  	93.661042 
1789.971790  	93.340594 
1790.936215  	92.420663 
1791.900639  	91.936345 
1792.865064  	91.907363 
1793.829488  	92.874765 
1794.793913  	93.195066 
1795.758337  	92.624405 
1796.722762  	92.694934 
1797.687186  	93.370461 
1798.651610  	93.253426 
1799.616035  	92.701444 
1800.580459  	92.748708 
1801.544884  	92.512273 
1802.509308  	92.337933 
1803.473733  	93.074201 
1804.438157  	93.467861 
1805.402582  	93.452533 
1806.367006  	93.383594 
1807.331431  	93.124742 
1808.295855  	93.078737 
1809.260279  	93.301936 
1810.224704  	92.811776 
1811.189128  	92.493880 
1812.153553  	92.800455 
1813.117977  	93.097118 
1814.082402  	93.414138 
1815.046826  	93.465623 
1816.011251  	93.472023 
1816.975675  	93.226583 
1817.940100  	93.078289 
1818.904524  	93.305837 
1819.868948  	93.418272 
1820.833373  	93.332647 
1821.797797  	93.236584 
1822.762222  	93.081419 
1823.726646  	93.048138 
1824.691071  	92.461129 
1825.655495  	91.981843 
1826.619920  	92.918920 
1827.584344  	93.225070 
1828.548769  	92.779069 
1829.513193  	91.708428 
1830.477617  	91.828677 
1831.442042  	92.874309 
1832.406466  	93.133651 
1833.370891  	93.026420 
1834.335315  	93.250601 
1835.299740  	93.459550 
1836.264164  	93.271296 
1837.228589  	92.822340 
1838.193013  	93.003305 
1839.157438  	93.303512 
1840.121862  	93.413338 
1841.086287  	93.406053 
1842.050711  	93.119792 
1843.015135  	92.732237 
1843.979560  	91.904074 
1844.943984  	91.956944 
1845.908409  	92.774105 
1846.872833  	92.907004 
1847.837258  	92.537057 
1848.801682  	92.862889 
1849.766107  	93.359065 
1850.730531  	93.550524 
1851.694956  	93.575490 
1852.659380  	93.566440 
1853.623804  	93.597068 
1854.588229  	93.538802 
1855.552653  	93.511822 
1856.517078  	93.450103 
1857.481502  	93.443069 
1858.445927  	93.328224 
1859.410351  	93.256772 
1860.374776  	93.398759 
1861.339200  	93.337680 
1862.303625  	93.329329 
1863.268049  	93.492386 
1864.232473  	93.481067 
1865.196898  	93.403998 
1866.161322  	93.075160 
1867.125747  	92.713900 
1868.090171  	92.200424 
1869.054596  	91.819259 
1870.019020  	92.380826 
1870.983445  	93.047598 
1871.947869  	93.409573 
1872.912294  	93.603136 
1873.876718  	93.619707 
1874.841142  	93.522211 
1875.805567  	93.460730 
1876.769991  	93.487974 
1877.734416  	93.510329 
1878.698840  	93.463826 
1879.663265  	93.383633 
1880.627689  	93.425165 
1881.592114  	93.423505 
1882.556538  	93.428162 
1883.520963  	93.489497 
1884.485387  	93.398595 
1885.449811  	93.302300 
1886.414236  	93.484042 
1887.378660  	93.508718 
1888.343085  	93.235417 
1889.307509  	92.488941 
1890.271934  	92.582272 
1891.236358  	93.182631 
1892.200783  	93.310118 
1893.165207  	93.358176 
1894.129632  	93.176227 
1895.094056  	92.714186 
1896.058480  	92.922352 
1897.022905  	93.269305 
1897.987329  	93.211278 
1898.951754  	93.247068 
1899.916178  	93.358026 
1900.880603  	93.410201 
1901.845027  	93.282159 
1902.809452  	93.247105 
1903.773876  	93.297241 
1904.738301  	93.302055 
1905.702725  	93.265528 
1906.667150  	93.272538 
1907.631574  	93.081994 
1908.595998  	93.005603 
1909.560423  	92.867340 
1910.524847  	92.832590 
1911.489272  	93.209905 
1912.453696  	93.239586 
1913.418121  	93.209267 
1914.382545  	93.253959 
1915.346970  	93.259916 
1916.311394  	93.152949 
1917.275819  	92.629373 
1918.240243  	92.047617 
1919.204667  	92.811983 
1920.169092  	93.106530 
1921.133516  	92.977151 
1922.097941  	92.465417 
1923.062365  	92.014187 
1924.026790  	92.753633 
1924.991214  	93.230842 
1925.955639  	93.112416 
1926.920063  	93.228806 
1927.884488  	93.282707 
1928.848912  	93.272686 
1929.813336  	93.247094 
1930.777761  	93.200050 
1931.742185  	93.229945 
1932.706610  	93.299745 
1933.671034  	93.356905 
1934.635459  	93.450771 
1935.599883  	93.342275 
1936.564308  	93.172474 
1937.528732  	93.036265 
1938.493157  	93.132815 
1939.457581  	93.384134 
1940.422005  	93.330844 
1941.386430  	92.689978 
1942.350854  	91.670022 
1943.315279  	91.851305 
1944.279703  	92.656439 
1945.244128  	92.746611 
1946.208552  	92.834791 
1947.172977  	92.739859 
1948.137401  	92.842951 
1949.101826  	92.894271 
1950.066250  	92.927749 
1951.030674  	93.027007 
1951.995099  	93.100698 
1952.959523  	92.950053 
1953.923948  	92.760759 
1954.888372  	92.732535 
1955.852797  	92.831000 
1956.817221  	93.281192 
1957.781646  	93.537433 
1958.746070  	93.310747 
1959.710495  	93.176289 
1960.674919  	93.003421 
1961.639344  	92.799085 
1962.603768  	92.828300 
1963.568192  	93.074036 
1964.532617  	93.352563 
1965.497041  	93.530574 
1966.461466  	93.220880 
1967.425890  	92.625371 
1968.390315  	92.971213 
1969.354739  	93.300900 
1970.319164  	93.089308 
1971.283588  	93.309535 
1972.248013  	93.266523 
1973.212437  	93.179138 
1974.176861  	93.185546 
1975.141286  	93.180074 
1976.105710  	93.253224 
1977.070135  	93.462840 
1978.034559  	93.754640 
1978.998984  	93.337947 
1979.963408  	92.937167 
1980.927833  	92.996582 
1981.892257  	93.244225 
1982.856682  	93.264021 
1983.821106  	93.141452 
1984.785530  	93.154505 
1985.749955  	93.099477 
1986.714379  	93.190284 
1987.678804  	92.910764 
1988.643228  	92.438392 
1989.607653  	92.813980 
1990.572077  	92.930158 
1991.536502  	92.467555 
1992.500926  	92.491126 
1993.465351  	92.957616 
1994.429775  	93.299582 
1995.394199  	93.413190 
1996.358624  	93.375422 
1997.323048  	93.096156 
1998.287473  	92.780429 
1999.251897  	92.833555 
2000.216322  	93.196845 
2001.180746  	93.452876 
2002.145171  	93.537534 
2003.109595  	93.715822 
2004.074020  	93.932705 
2005.038444  	93.825328 
2006.002868  	93.731839 
2006.967293  	93.617271 
2007.931717  	93.325304 
2008.896142  	93.101184 
2009.860566  	93.202438 
2010.824991  	93.333388 
2011.789415  	93.389038 
2012.753840  	93.339534 
2013.718264  	93.563913 
2014.682689  	93.679886 
2015.647113  	93.605952 
2016.611537  	93.201713 
2017.575962  	93.194057 
2018.540386  	93.318381 
2019.504811  	93.445811 
2020.469235  	93.654800 
2021.433660  	93.817666 
2022.398084  	93.880841 
2023.362509  	94.105455 
2024.326933  	93.904432 
2025.291358  	93.304673 
2026.255782  	93.286239 
2027.220207  	93.436068 
2028.184631  	93.282619 
2029.149055  	93.446912 
2030.113480  	93.581232 
2031.077904  	93.783115 
2032.042329  	93.714820 
2033.006753  	93.541883 
2033.971178  	93.537065 
2034.935602  	93.793095 
2035.900027  	93.891471 
2036.864451  	93.831886 
2037.828876  	93.654779 
2038.793300  	93.360352 
2039.757724  	93.333964 
2040.722149  	93.212451 
2041.686573  	92.928363 
2042.650998  	93.016291 
2043.615422  	92.877839 
2044.579847  	92.933479 
2045.544271  	93.249211 
2046.508696  	93.334051 
2047.473120  	93.285800 
2048.437545  	93.371733 
2049.401969  	93.390286 
2050.366393  	92.944002 
2051.330818  	92.682955 
2052.295242  	93.095527 
2053.259667  	93.444060 
2054.224091  	93.260992 
2055.188516  	93.002924 
2056.152940  	92.946548 
2057.117365  	92.860583 
2058.081789  	92.965653 
2059.046214  	93.025669 
2060.010638  	92.869902 
2060.975062  	92.741148 
2061.939487  	92.867503 
2062.903911  	92.897785 
2063.868336  	92.755992 
2064.832760  	92.634172 
2065.797185  	92.760594 
2066.761609  	92.927341 
2067.726034  	92.957216 
2068.690458  	92.992574 
2069.654883  	92.974193 
2070.619307  	92.911166 
2071.583731  	92.919504 
2072.548156  	92.927176 
2073.512580  	92.892645 
2074.477005  	92.742325 
2075.441429  	92.836923 
2076.405854  	92.832331 
2077.370278  	92.838911 
2078.334703  	92.907358 
2079.299127  	92.830808 
2080.263552  	92.813770 
2081.227976  	92.830845 
2082.192401  	92.757955 
2083.156825  	92.729814 
2084.121249  	92.753012 
2085.085674  	92.807235 
2086.050098  	92.757671 
2087.014523  	92.755282 
2087.978947  	92.875703 
2088.943372  	92.769395 
2089.907796  	92.649008 
2090.872221  	92.819757 
2091.836645  	93.110762 
2092.801070  	93.081013 
2093.765494  	92.985294 
2094.729918  	92.889894 
2095.694343  	92.875245 
2096.658767  	92.899141 
2097.623192  	92.876621 
2098.587616  	92.868622 
2099.552041  	92.947596 
2100.516465  	92.875743 
2101.480890  	92.827548 
2102.445314  	92.783479 
2103.409739  	92.761316 
2104.374163  	92.790592 
2105.338587  	92.741740 
2106.303012  	92.704137 
2107.267436  	92.779388 
2108.231861  	92.795583 
2109.196285  	92.722157 
2110.160710  	92.825906 
2111.125134  	92.861696 
2112.089559  	92.799801 
2113.053983  	92.811795 
2114.018408  	92.799015 
2114.982832  	92.760169 
2115.947256  	92.764934 
2116.911681  	92.958884 
2117.876105  	93.038417 
2118.840530  	92.964478 
2119.804954  	92.997672 
2120.769379  	93.038329 
2121.733803  	93.042526 
2122.698228  	93.037146 
2123.662652  	93.073808 
2124.627077  	93.075128 
2125.591501  	93.203224 
2126.555925  	93.333391 
2127.520350  	93.221462 
2128.484774  	93.268186 
2129.449199  	93.408140 
2130.413623  	93.474796 
2131.378048  	93.446461 
2132.342472  	93.618994 
2133.306897  	93.764098 
2134.271321  	93.522799 
2135.235746  	93.251046 
2136.200170  	93.096098 
2137.164594  	93.262527 
2138.129019  	93.568805 
2139.093443  	93.617024 
2140.057868  	93.542748 
2141.022292  	93.518409 
2141.986717  	93.579188 
2142.951141  	93.666044 
2143.915566  	93.674521 
2144.879990  	93.496083 
2145.844415  	93.521874 
2146.808839  	93.362580 
2147.773264  	93.240989 
2148.737688  	93.439487 
2149.702112  	93.655939 
2150.666537  	93.780860 
2151.630961  	93.708311 
2152.595386  	93.715259 
2153.559810  	94.028072 
2154.524235  	94.466781 
2155.488659  	94.795663 
2156.453084  	94.758683 
2157.417508  	94.553051 
2158.381933  	94.444313 
2159.346357  	93.755992 
2160.310781  	93.214785 
2161.275206  	93.133678 
2162.239630  	93.344294 
2163.204055  	93.530749 
2164.168479  	93.411582 
2165.132904  	93.121419 
2166.097328  	93.160563 
2167.061753  	93.527957 
2168.026177  	93.577687 
2168.990602  	93.477670 
2169.955026  	93.481840 
2170.919450  	93.673274 
2171.883875  	93.580282 
2172.848299  	93.488474 
2173.812724  	93.424858 
2174.777148  	93.468300 
2175.741573  	93.439801 
2176.705997  	93.180379 
2177.670422  	93.225433 
2178.634846  	93.671859 
2179.599271  	93.655261 
2180.563695  	93.534494 
2181.528119  	93.561382 
2182.492544  	93.398275 
2183.456968  	93.118007 
2184.421393  	93.013049 
2185.385817  	93.344243 
2186.350242  	93.452027 
2187.314666  	93.163769 
2188.279091  	92.994767 
2189.243515  	92.951313 
2190.207940  	93.033111 
2191.172364  	93.338836 
2192.136788  	93.407382 
2193.101213  	93.422892 
2194.065637  	93.449649 
2195.030062  	93.152412 
2195.994486  	92.852051 
2196.958911  	92.988688 
2197.923335  	93.294540 
2198.887760  	93.337377 
2199.852184  	93.443861 
2200.816609  	93.347345 
2201.781033  	93.169006 
2202.745458  	93.226095 
2203.709882  	93.111306 
2204.674306  	92.999015 
2205.638731  	93.066903 
2206.603155  	93.109284 
2207.567580  	93.146489 
2208.532004  	93.120150 
2209.496429  	93.203797 
2210.460853  	93.130156 
2211.425278  	93.009496 
2212.389702  	92.981457 
2213.354127  	92.934970 
2214.318551  	92.890088 
2215.282975  	92.929141 
2216.247400  	92.994792 
2217.211824  	93.120657 
2218.176249  	93.020850 
2219.140673  	93.006197 
2220.105098  	92.895282 
2221.069522  	92.916862 
2222.033947  	92.991585 
2222.998371  	93.004203 
2223.962796  	93.015509 
2224.927220  	93.096418 
2225.891644  	93.025826 
2226.856069  	92.889286 
2227.820493  	92.768561 
2228.784918  	92.718530 
2229.749342  	92.749216 
2230.713767  	92.954955 
2231.678191  	92.853120 
2232.642616  	92.694496 
2233.607040  	92.926014 
2234.571465  	93.005983 
2235.535889  	92.889567 
2236.500313  	92.871751 
2237.464738  	92.902112 
2238.429162  	92.958721 
2239.393587  	92.860412 
2240.358011  	92.835051 
2241.322436  	92.882370 
2242.286860  	92.735638 
2243.251285  	92.766402 
2244.215709  	92.928634 
2245.180134  	92.848865 
2246.144558  	92.714858 
2247.108982  	92.828199 
2248.073407  	92.767193 
2249.037831  	92.706423 
2250.002256  	92.733412 
2250.966680  	92.743569 
2251.931105  	92.807572 
2252.895529  	92.812149 
2253.859954  	92.866020 
2254.824378  	92.844976 
2255.788803  	92.707607 
2256.753227  	92.645165 
2257.717651  	92.736733 
2258.682076  	92.639249 
2259.646500  	92.619315 
2260.610925  	92.605238 
2261.575349  	92.577871 
2262.539774  	92.662265 
2263.504198  	92.769396 
2264.468623  	92.703105 
2265.433047  	92.672166 
2266.397472  	92.655522 
2267.361896  	92.633723 
2268.326321  	92.610799 
2269.290745  	92.555892 
2270.255169  	92.581089 
2271.219594  	92.635855 
2272.184018  	92.650957 
2273.148443  	92.669209 
2274.112867  	92.647681 
2275.077292  	92.571396 
2276.041716  	92.518690 
2277.006141  	92.553964 
2277.970565  	92.557560 
2278.934990  	92.582320 
2279.899414  	92.519247 
2280.863838  	92.520798 
2281.828263  	92.448403 
2282.792687  	92.420435 
2283.757112  	92.413224 
2284.721536  	92.348544 
2285.685961  	92.312980 
2286.650385  	92.313091 
2287.614810  	92.316531 
2288.579234  	92.286393 
2289.543659  	92.207261 
2290.508083  	92.329652 
2291.472507  	92.332928 
2292.436932  	92.350772 
2293.401356  	92.256756 
2294.365781  	92.186805 
2295.330205  	92.250867 
2296.294630  	92.194567 
2297.259054  	92.121337 
2298.223479  	91.993524 
2299.187903  	92.025224 
2300.152328  	92.072278 
2301.116752  	92.086260 
2302.081176  	92.120606 
2303.045601  	91.957665 
2304.010025  	92.064189 
2304.974450  	91.888843 
2305.938874  	91.891166 
2306.903299  	91.685857 
2307.867723  	91.837906 
2308.832148  	91.616729 
2309.796572  	91.612947 
2310.760997  	91.514029 
2311.725421  	91.526378 
2312.689845  	91.606561 
2313.654270  	91.592303 
2314.618694  	91.611619 
2315.583119  	91.654667 
2316.547543  	91.686418 
2317.511968  	91.603244 
2318.476392  	91.577358 
2319.440817  	91.439957 
2320.405241  	91.357873 
2321.369666  	91.230781 
2322.334090  	91.258266 
2323.298515  	91.185020 
2324.262939  	91.274513 
2325.227363  	91.549623 
2326.191788  	91.860684 
2327.156212  	91.923742 
2328.120637  	91.937701 
2329.085061  	91.873349 
2330.049486  	91.978493 
2331.013910  	91.958461 
2331.978335  	92.052375 
2332.942759  	92.136553 
2333.907184  	92.254127 
2334.871608  	92.343055 
2335.836032  	92.408079 
2336.800457  	92.348398 
2337.764881  	92.480557 
2338.729306  	92.446046 
2339.693730  	92.313288 
2340.658155  	92.348263 
2341.622579  	92.443130 
2342.587004  	92.325699 
2343.551428  	92.154337 
2344.515853  	91.933766 
2345.480277  	91.854071 
2346.444701  	91.776698 
2347.409126  	91.826219 
2348.373550  	91.893845 
2349.337975  	91.836734 
2350.302399  	91.745762 
2351.266824  	91.872153 
2352.231248  	92.076884 
2353.195673  	92.122516 
2354.160097  	92.017896 
2355.124522  	92.085704 
2356.088946  	92.092042 
2357.053370  	91.973977 
2358.017795  	91.885998 
2358.982219  	92.055494 
2359.946644  	92.217996 
2360.911068  	92.206401 
2361.875493  	91.981928 
2362.839917  	91.937815 
2363.804342  	91.969496 
2364.768766  	92.120274 
2365.733191  	92.212924 
2366.697615  	92.220381 
2367.662039  	92.118293 
2368.626464  	92.033557 
2369.590888  	91.964475 
2370.555313  	91.915494 
2371.519737  	91.852445 
2372.484162  	91.836334 
2373.448586  	91.807326 
2374.413011  	91.813593 
2375.377435  	91.772880 
2376.341860  	91.750439 
2377.306284  	91.743915 
2378.270708  	91.777702 
2379.235133  	91.770238 
2380.199557  	91.888042 
2381.163982  	92.052035 
2382.128406  	92.189607 
2383.092831  	92.304504 
2384.057255  	92.410802 
2385.021680  	92.502787 
2385.986104  	92.560495 
2386.950529  	92.626789 
2387.914953  	92.701344 
2388.879378  	92.725385 
2389.843802  	92.823603 
2390.808226  	92.823712 
2391.772651  	92.753548 
2392.737075  	92.756434 
2393.701500  	92.846901 
2394.665924  	92.862269 
2395.630349  	92.793269 
2396.594773  	92.777229 
2397.559198  	92.836275 
2398.523622  	92.860365 
2399.488047  	92.848626 
2400.452471  	92.778895 
2401.416895  	92.778632 
2402.381320  	92.799874 
2403.345744  	92.845947 
2404.310169  	92.870309 
2405.274593  	92.782221 
2406.239018  	92.755592 
2407.203442  	92.832181 
2408.167867  	92.824009 
2409.132291  	92.780667 
2410.096716  	92.750187 
2411.061140  	92.713412 
2412.025564  	92.754440 
2412.989989  	92.811100 
2413.954413  	92.801933 
2414.918838  	92.840039 
2415.883262  	92.834511 
2416.847687  	92.823083 
2417.812111  	92.821398 
2418.776536  	92.816097 
2419.740960  	92.818477 
2420.705385  	92.825944 
2421.669809  	92.796660 
2422.634233  	92.824242 
2423.598658  	92.808952 
2424.563082  	92.828780 
2425.527507  	92.893816 
2426.491931  	92.852391 
2427.456356  	92.789899 
2428.420780  	92.874681 
2429.385205  	92.892145 
2430.349629  	92.895425 
2431.314054  	92.898698 
2432.278478  	92.890453 
2433.242902  	92.885134 
2434.207327  	92.855072 
2435.171751  	92.899469 
2436.136176  	92.952490 
2437.100600  	92.941752 
2438.065025  	92.865281 
2439.029449  	92.888941 
2439.993874  	92.908276 
2440.958298  	92.874790 
2441.922723  	92.829062 
2442.887147  	92.804628 
2443.851572  	92.883151 
2444.815996  	92.901715 
2445.780420  	92.864418 
2446.744845  	92.788914 
2447.709269  	92.789652 
2448.673694  	92.856138 
2449.638118  	92.856135 
2450.602543  	92.754447 
2451.566967  	92.715227 
2452.531392  	92.759598 
2453.495816  	92.778555 
2454.460241  	92.766392 
2455.424665  	92.786183 
2456.389089  	92.777133 
2457.353514  	92.808055 
2458.317938  	92.824135 
2459.282363  	92.807572 
2460.246787  	92.815986 
2461.211212  	92.820354 
2462.175636  	92.838635 
2463.140061  	92.842140 
2464.104485  	92.868095 
2465.068910  	92.894704 
2466.033334  	92.839171 
2466.997758  	92.853069 
2467.962183  	92.902374 
2468.926607  	92.834898 
2469.891032  	92.790204 
2470.855456  	92.806748 
2471.819881  	92.853580 
2472.784305  	92.897486 
2473.748730  	92.926739 
2474.713154  	92.924171 
2475.677579  	92.884212 
2476.642003  	92.853802 
2477.606427  	92.839730 
2478.570852  	92.879260 
2479.535276  	92.875404 
2480.499701  	92.790949 
2481.464125  	92.776087 
2482.428550  	92.848225 
2483.392974  	92.866649 
2484.357399  	92.878789 
2485.321823  	92.817593 
2486.286248  	92.764485 
2487.250672  	92.756292 
2488.215096  	92.816228 
2489.179521  	92.807614 
2490.143945  	92.716796 
2491.108370  	92.694427 
2492.072794  	92.768545 
2493.037219  	92.813203 
2494.001643  	92.778567 
2494.966068  	92.808438 
2495.930492  	92.872592 
2496.894917  	92.849720 
2497.859341  	92.800060 
2498.823765  	92.783304 
2499.788190  	92.839244 
2500.752614  	92.862265 
2501.717039  	92.836226 
2502.681463  	92.807820 
2503.645888  	92.818975 
2504.610312  	92.753118 
2505.574737  	92.746165 
2506.539161  	92.809900 
2507.503586  	92.878858 
2508.468010  	92.880912 
2509.432435  	92.815892 
2510.396859  	92.788111 
2511.361283  	92.806984 
2512.325708  	92.776422 
2513.290132  	92.767382 
2514.254557  	92.800432 
2515.218981  	92.799287 
2516.183406  	92.752232 
2517.147830  	92.784376 
2518.112255  	92.755438 
2519.076679  	92.760606 
2520.041104  	92.762399 
2521.005528  	92.720179 
2521.969952  	92.669190 
2522.934377  	92.648111 
2523.898801  	92.712495 
2524.863226  	92.764638 
2525.827650  	92.738544 
2526.792075  	92.741111 
2527.756499  	92.723340 
2528.720924  	92.744978 
2529.685348  	92.722685 
2530.649773  	92.684003 
2531.614197  	92.652890 
2532.578621  	92.713788 
2533.543046  	92.801297 
2534.507470  	92.840481 
2535.471895  	92.805950 
2536.436319  	92.775319 
2537.400744  	92.801109 
2538.365168  	92.768257 
2539.329593  	92.776190 
2540.294017  	92.798388 
2541.258442  	92.762375 
2542.222866  	92.753286 
2543.187290  	92.769896 
2544.151715  	92.800548 
2545.116139  	92.796266 
2546.080564  	92.746388 
2547.044988  	92.660820 
2548.009413  	92.595727 
2548.973837  	92.622177 
2549.938262  	92.680420 
2550.902686  	92.748404 
2551.867111  	92.766446 
2552.831535  	92.675967 
2553.795959  	92.647411 
2554.760384  	92.679264 
2555.724808  	92.691988 
2556.689233  	92.656821 
2557.653657  	92.667701 
2558.618082  	92.685481 
2559.582506  	92.749661 
2560.546931  	92.767465 
2561.511355  	92.683476 
2562.475780  	92.652734 
2563.440204  	92.710229 
2564.404629  	92.757727 
2565.369053  	92.762827 
2566.333477  	92.752314 
2567.297902  	92.758254 
2568.262326  	92.715014 
2569.226751  	92.619180 
2570.191175  	92.620601 
2571.155600  	92.685744 
2572.120024  	92.687221 
2573.084449  	92.708513 
2574.048873  	92.645875 
2575.013298  	92.569802 
2575.977722  	92.614180 
2576.942146  	92.696359 
2577.906571  	92.709803 
2578.870995  	92.706582 
2579.835420  	92.701342 
2580.799844  	92.734347 
2581.764269  	92.697973 
2582.728693  	92.706172 
2583.693118  	92.698890 
2584.657542  	92.669366 
2585.621967  	92.664487 
2586.586391  	92.651205 
2587.550815  	92.637073 
2588.515240  	92.644511 
2589.479664  	92.627946 
2590.444089  	92.622028 
2591.408513  	92.698695 
2592.372938  	92.707451 
2593.337362  	92.621943 
2594.301787  	92.597290 
2595.266211  	92.626525 
2596.230636  	92.694855 
2597.195060  	92.703082 
2598.159484  	92.683514 
2599.123909  	92.714473 
2600.088333  	92.722774 
2601.052758  	92.666179 
2602.017182  	92.630310 
2602.981607  	92.660104 
2603.946031  	92.679570 
2604.910456  	92.659727 
2605.874880  	92.678064 
2606.839305  	92.688345 
2607.803729  	92.654184 
2608.768153  	92.643278 
2609.732578  	92.629878 
2610.697002  	92.606715 
2611.661427  	92.610888 
2612.625851  	92.618941 
2613.590276  	92.649350 
2614.554700  	92.653289 
2615.519125  	92.599741 
2616.483549  	92.599531 
2617.447974  	92.632648 
2618.412398  	92.658314 
2619.376822  	92.653125 
2620.341247  	92.630935 
2621.305671  	92.594905 
2622.270096  	92.577786 
2623.234520  	92.619597 
2624.198945  	92.630572 
2625.163369  	92.637172 
2626.127794  	92.621262 
2627.092218  	92.602170 
2628.056643  	92.616320 
2629.021067  	92.626276 
2629.985492  	92.629410 
2630.949916  	92.662872 
2631.914340  	92.623153 
2632.878765  	92.570251 
2633.843189  	92.596855 
2634.807614  	92.627535 
2635.772038  	92.643648 
2636.736463  	92.629276 
2637.700887  	92.625507 
2638.665312  	92.644118 
2639.629736  	92.636398 
2640.594161  	92.651783 
2641.558585  	92.669311 
2642.523009  	92.645837 
2643.487434  	92.644464 
2644.451858  	92.637964 
2645.416283  	92.624409 
2646.380707  	92.625523 
2647.345132  	92.627197 
2648.309556  	92.673717 
2649.273981  	92.719685 
2650.238405  	92.734555 
2651.202830  	92.724312 
2652.167254  	92.682285 
2653.131678  	92.671711 
2654.096103  	92.667845 
2655.060527  	92.655805 
2656.024952  	92.657961 
2656.989376  	92.649178 
2657.953801  	92.644715 
2658.918225  	92.658661 
2659.882650  	92.655950 
2660.847074  	92.671567 
2661.811499  	92.723318 
2662.775923  	92.725747 
2663.740347  	92.729976 
2664.704772  	92.735089 
2665.669196  	92.769275 
2666.633621  	92.774105 
2667.598045  	92.767627 
2668.562470  	92.744272 
2669.526894  	92.744478 
2670.491319  	92.743463 
2671.455743  	92.779594 
2672.420168  	92.793660 
2673.384592  	92.769783 
2674.349016  	92.766060 
2675.313441  	92.796994 
2676.277865  	92.805006 
2677.242290  	92.798148 
2678.206714  	92.790425 
2679.171139  	92.781936 
2680.135563  	92.762527 
2681.099988  	92.775443 
2682.064412  	92.797227 
2683.028837  	92.795810 
2683.993261  	92.790018 
2684.957686  	92.789546 
2685.922110  	92.812907 
2686.886534  	92.803402 
2687.850959  	92.778675 
2688.815383  	92.790472 
2689.779808  	92.797755 
2690.744232  	92.766893 
2691.708657  	92.759153 
2692.673081  	92.786679 
2693.637506  	92.780767 
2694.601930  	92.792835 
2695.566355  	92.800146 
2696.530779  	92.767519 
2697.495203  	92.770751 
2698.459628  	92.803847 
2699.424052  	92.809021 
2700.388477  	92.782137 
2701.352901  	92.752851 
2702.317326  	92.754292 
2703.281750  	92.795281 
2704.246175  	92.803017 
2705.210599  	92.761571 
2706.175024  	92.742964 
2707.139448  	92.764239 
2708.103872  	92.784222 
2709.068297  	92.802326 
2710.032721  	92.785244 
2710.997146  	92.754891 
2711.961570  	92.743815 
2712.925995  	92.759004 
2713.890419  	92.777809 
2714.854844  	92.767799 
2715.819268  	92.795942 
2716.783693  	92.814587 
2717.748117  	92.786140 
2718.712541  	92.766170 
2719.676966  	92.767193 
2720.641390  	92.783769 
2721.605815  	92.801379 
2722.570239  	92.801085 
2723.534664  	92.799317 
2724.499088  	92.784715 
2725.463513  	92.771130 
2726.427937  	92.766601 
2727.392362  	92.781544 
2728.356786  	92.771677 
2729.321210  	92.729349 
2730.285635  	92.729541 
2731.250059  	92.734364 
2732.214484  	92.740768 
2733.178908  	92.750954 
2734.143333  	92.757122 
2735.107757  	92.742112 
2736.072182  	92.737551 
2737.036606  	92.745384 
2738.001031  	92.709339 
2738.965455  	92.692962 
2739.929879  	92.715567 
2740.894304  	92.740661 
2741.858728  	92.731071 
2742.823153  	92.700665 
2743.787577  	92.701801 
2744.752002  	92.730544 
2745.716426  	92.725955 
2746.680851  	92.708362 
2747.645275  	92.693521 
2748.609700  	92.686653 
2749.574124  	92.702589 
2750.538549  	92.698513 
2751.502973  	92.679629 
2752.467397  	92.696349 
2753.431822  	92.719825 
2754.396246  	92.711448 
2755.360671  	92.695208 
2756.325095  	92.701929 
2757.289520  	92.704838 
2758.253944  	92.716615 
2759.218369  	92.713312 
2760.182793  	92.688198 
2761.147218  	92.662887 
2762.111642  	92.652864 
2763.076066  	92.677607 
2764.040491  	92.725215 
2765.004915  	92.730307 
2765.969340  	92.719136 
2766.933764  	92.718050 
2767.898189  	92.704888 
2768.862613  	92.684139 
2769.827038  	92.668718 
2770.791462  	92.659779 
2771.755887  	92.644635 
2772.720311  	92.628390 
2773.684735  	92.641565 
2774.649160  	92.667131 
2775.613584  	92.682879 
2776.578009  	92.684862 
2777.542433  	92.694096 
2778.506858  	92.702229 
2779.471282  	92.693396 
2780.435707  	92.666239 
2781.400131  	92.654406 
2782.364556  	92.668504 
2783.328980  	92.654790 
2784.293404  	92.660463 
2785.257829  	92.679330 
2786.222253  	92.674051 
2787.186678  	92.661939 
2788.151102  	92.654082 
2789.115527  	92.681996 
2790.079951  	92.666240 
2791.044376  	92.640285 
2792.008800  	92.621424 
2792.973225  	92.617105 
2793.937649  	92.636459 
2794.902073  	92.630285 
2795.866498  	92.634225 
2796.830922  	92.647293 
2797.795347  	92.634873 
2798.759771  	92.611405 
2799.724196  	92.575164 
2800.688620  	92.548872 
2801.653045  	92.561607 
2802.617469  	92.570664 
2803.581894  	92.570138 
2804.546318  	92.577904 
2805.510743  	92.585613 
2806.475167  	92.562630 
2807.439591  	92.540268 
2808.404016  	92.531062 
2809.368440  	92.570053 
2810.332865  	92.613105 
2811.297289  	92.561363 
2812.261714  	92.519631 
2813.226138  	92.538035 
2814.190563  	92.560071 
2815.154987  	92.611984 
2816.119412  	92.624720 
2817.083836  	92.580662 
2818.048260  	92.546325 
2819.012685  	92.555122 
2819.977109  	92.586787 
2820.941534  	92.567133 
2821.905958  	92.574308 
2822.870383  	92.557995 
2823.834807  	92.530098 
2824.799232  	92.508330 
2825.763656  	92.522234 
2826.728081  	92.533306 
2827.692505  	92.517073 
2828.656929  	92.542346 
2829.621354  	92.580275 
2830.585778  	92.559469 
2831.550203  	92.526266 
2832.514627  	92.472215 
2833.479052  	92.446893 
2834.443476  	92.477319 
2835.407901  	92.505938 
2836.372325  	92.493477 
2837.336750  	92.475900 
2838.301174  	92.431623 
2839.265598  	92.378293 
2840.230023  	92.382396 
2841.194447  	92.416861 
2842.158872  	92.367435 
2843.123296  	92.313927 
2844.087721  	92.273687 
2845.052145  	92.238273 
2846.016570  	92.180040 
2846.980994  	92.121327 
2847.945419  	92.063420 
2848.909843  	92.006832 
2849.874267  	91.958477 
2850.838692  	91.938557 
2851.803116  	91.889148 
2852.767541  	91.882806 
2853.731965  	91.961022 
2854.696390  	92.026062 
2855.660814  	92.068745 
2856.625239  	92.071840 
2857.589663  	92.060434 
2858.554088  	92.102320 
2859.518512  	92.138483 
2860.482936  	92.139818 
2861.447361  	92.102475 
2862.411785  	92.125149 
2863.376210  	92.162757 
2864.340634  	92.152486 
2865.305059  	92.153152 
2866.269483  	92.176168 
2867.233908  	92.141681 
2868.198332  	92.111982 
2869.162757  	92.121618 
2870.127181  	92.152337 
2871.091606  	92.115180 
2872.056030  	92.105609 
2873.020454  	92.155393 
2873.984879  	92.158558 
2874.949303  	92.109536 
2875.913728  	92.102241 
2876.878152  	92.092253 
2877.842577  	92.049764 
2878.807001  	92.069509 
2879.771426  	92.107621 
2880.735850  	92.061092 
2881.700275  	92.033646 
2882.664699  	92.028751 
2883.629123  	92.013256 
2884.593548  	92.015765 
2885.557972  	91.997172 
2886.522397  	91.962591 
2887.486821  	91.955128 
2888.451246  	91.947838 
2889.415670  	91.932232 
2890.380095  	91.910478 
2891.344519  	91.914938 
2892.308944  	91.941775 
2893.273368  	91.944385 
2894.237792  	91.935505 
2895.202217  	91.876591 
2896.166641  	91.835844 
2897.131066  	91.829273 
2898.095490  	91.821794 
2899.059915  	91.792126 
2900.024339  	91.713521 
2900.988764  	91.688991 
2901.953188  	91.705366 
2902.917613  	91.654470 
2903.882037  	91.577220 
2904.846461  	91.551021 
2905.810886  	91.503614 
2906.775310  	91.466471 
2907.739735  	91.410644 
2908.704159  	91.365145 
2909.668584  	91.364053 
2910.633008  	91.369994 
2911.597433  	91.406895 
2912.561857  	91.433324 
2913.526282  	91.422451 
2914.490706  	91.418288 
2915.455130  	91.412432 
2916.419555  	91.426016 
2917.383979  	91.425394 
2918.348404  	91.432645 
2919.312828  	91.474288 
2920.277253  	91.465786 
2921.241677  	91.453877 
2922.206102  	91.484571 
2923.170526  	91.518787 
2924.134951  	91.578313 
2925.099375  	91.610672 
2926.063800  	91.634124 
2927.028224  	91.677588 
2927.992648  	91.710497 
2928.957073  	91.714323 
2929.921497  	91.716781 
2930.885922  	91.743291 
2931.850346  	91.797149 
2932.814771  	91.833461 
2933.779195  	91.828176 
2934.743620  	91.823413 
2935.708044  	91.777722 
2936.672469  	91.770097 
2937.636893  	91.815794 
2938.601317  	91.834744 
2939.565742  	91.849009 
2940.530166  	91.844694 
2941.494591  	91.819022 
2942.459015  	91.764571 
2943.423440  	91.719247 
2944.387864  	91.706136 
2945.352289  	91.696146 
2946.316713  	91.687992 
2947.281138  	91.654969 
2948.245562  	91.609323 
2949.209986  	91.526313 
2950.174411  	91.452328 
2951.138835  	91.453724 
2952.103260  	91.428716 
2953.067684  	91.359346 
2954.032109  	91.324682 
2954.996533  	91.289390 
2955.960958  	91.214792 
2956.925382  	91.149909 
2957.889807  	91.166426 
2958.854231  	91.154408 
2959.818655  	91.114294 
2960.783080  	91.101772 
2961.747504  	91.095009 
2962.711929  	91.101094 
2963.676353  	91.060275 
2964.640778  	90.970129 
2965.605202  	90.900344 
2966.569627  	90.890837 
2967.534051  	90.947882 
2968.498476  	90.989870 
2969.462900  	90.999713 
2970.427324  	91.005510 
2971.391749  	91.026223 
2972.356173  	91.100083 
2973.320598  	91.183485 
2974.285022  	91.256079 
2975.249447  	91.248475 
2976.213871  	91.300036 
2977.178296  	91.400243 
2978.142720  	91.471936 
2979.107145  	91.522798 
2980.071569  	91.600225 
2981.035993  	91.651929 
2982.000418  	91.747514 
2982.964842  	91.829315 
2983.929267  	91.850977 
2984.893691  	91.860644 
2985.858116  	91.880204 
2986.822540  	91.912570 
2987.786965  	91.940529 
2988.751389  	91.972674 
2989.715814  	92.031334 
2990.680238  	92.081340 
2991.644663  	92.120674 
2992.609087  	92.120579 
2993.573511  	92.119305 
2994.537936  	92.123028 
2995.502360  	92.156813 
2996.466785  	92.173507 
2997.431209  	92.174621 
2998.395634  	92.176032 
2999.360058  	92.171489 
3000.324483  	92.210218 
3001.288907  	92.223917 
3002.253332  	92.230695 
3003.217756  	92.230248 
3004.182180  	92.200560 
3005.146605  	92.208233 
3006.111029  	92.245285 
3007.075454  	92.291452 
3008.039878  	92.319429 
3009.004303  	92.349051 
3009.968727  	92.358101 
3010.933152  	92.321184 
3011.897576  	92.286277 
3012.862001  	92.254780 
3013.826425  	92.359764 
3014.790849  	92.442248 
3015.755274  	92.418499 
3016.719698  	92.453542 
3017.684123  	92.515986 
3018.648547  	92.530453 
3019.612972  	92.539383 
3020.577396  	92.614818 
3021.541821  	92.644030 
3022.506245  	92.605870 
3023.470670  	92.614530 
3024.435094  	92.632977 
3025.399518  	92.611136 
3026.363943  	92.623470 
3027.328367  	92.675157 
3028.292792  	92.697680 
3029.257216  	92.721568 
3030.221641  	92.689471 
3031.186065  	92.598453 
3032.150490  	92.551796 
3033.114914  	92.661656 
3034.079339  	92.700413 
3035.043763  	92.669340 
3036.008187  	92.701231 
3036.972612  	92.729299 
3037.937036  	92.687194 
3038.901461  	92.673220 
3039.865885  	92.657694 
3040.830310  	92.655984 
3041.794734  	92.697882 
3042.759159  	92.712952 
3043.723583  	92.690128 
3044.688008  	92.679434 
3045.652432  	92.702581 
3046.616857  	92.663965 
3047.581281  	92.644316 
3048.545705  	92.566587 
3049.510130  	92.496843 
3050.474554  	92.473659 
3051.438979  	92.480282 
3052.403403  	92.486144 
3053.367828  	92.450623 
3054.332252  	92.420110 
3055.296677  	92.460291 
3056.261101  	92.379937 
3057.225526  	92.362802 
3058.189950  	92.472420 
3059.154374  	92.510377 
3060.118799  	92.512991 
3061.083223  	92.517640 
3062.047648  	92.543646 
3063.012072  	92.543294 
3063.976497  	92.459408 
3064.940921  	92.426748 
3065.905346  	92.478576 
3066.869770  	92.470136 
3067.834195  	92.485422 
3068.798619  	92.519900 
3069.763043  	92.550098 
3070.727468  	92.593796 
3071.691892  	92.604487 
3072.656317  	92.541160 
3073.620741  	92.523236 
3074.585166  	92.553788 
3075.549590  	92.548858 
3076.514015  	92.568400 
3077.478439  	92.528998 
3078.442864  	92.503551 
3079.407288  	92.495159 
3080.371712  	92.490444 
3081.336137  	92.487594 
3082.300561  	92.468265 
3083.264986  	92.528628 
3084.229410  	92.592120 
3085.193835  	92.583361 
3086.158259  	92.617205 
3087.122684  	92.606914 
3088.087108  	92.565930 
3089.051533  	92.598743 
3090.015957  	92.613741 
3090.980381  	92.652944 
3091.944806  	92.701539 
3092.909230  	92.705972 
3093.873655  	92.656427 
3094.838079  	92.607799 
3095.802504  	92.585925 
3096.766928  	92.618080 
3097.731353  	92.637353 
3098.695777  	92.639777 
3099.660202  	92.623699 
3100.624626  	92.529758 
3101.589050  	92.483536 
3102.553475  	92.542847 
3103.517899  	92.570969 
3104.482324  	92.637151 
3105.446748  	92.664585 
3106.411173  	92.624423 
3107.375597  	92.611906 
3108.340022  	92.610619 
3109.304446  	92.622293 
3110.268871  	92.612438 
3111.233295  	92.620740 
3112.197720  	92.617724 
3113.162144  	92.623658 
3114.126568  	92.667131 
3115.090993  	92.665105 
3116.055417  	92.635254 
3117.019842  	92.658224 
3117.984266  	92.658654 
3118.948691  	92.619778 
3119.913115  	92.713493 
3120.877540  	92.807851 
3121.841964  	92.738680 
3122.806389  	92.708784 
3123.770813  	92.756976 
3124.735237  	92.744895 
3125.699662  	92.720367 
3126.664086  	92.722609 
3127.628511  	92.775357 
3128.592935  	92.754795 
3129.557360  	92.674994 
3130.521784  	92.692518 
3131.486209  	92.773148 
3132.450633  	92.732858 
3133.415058  	92.638255 
3134.379482  	92.738476 
3135.343906  	92.812758 
3136.308331  	92.792106 
3137.272755  	92.739375 
3138.237180  	92.775704 
3139.201604  	92.859436 
3140.166029  	92.836345 
3141.130453  	92.830727 
3142.094878  	92.794503 
3143.059302  	92.758552 
3144.023727  	92.819987 
3144.988151  	92.853554 
3145.952575  	92.813290 
3146.917000  	92.775704 
3147.881424  	92.792535 
3148.845849  	92.863045 
3149.810273  	92.852087 
3150.774698  	92.813761 
3151.739122  	92.798450 
3152.703547  	92.804474 
3153.667971  	92.795604 
3154.632396  	92.831198 
3155.596820  	92.850947 
3156.561244  	92.787379 
3157.525669  	92.801669 
3158.490093  	92.790583 
3159.454518  	92.783582 
3160.418942  	92.815897 
3161.383367  	92.850351 
3162.347791  	92.788305 
3163.312216  	92.733673 
3164.276640  	92.775374 
3165.241065  	92.827874 
3166.205489  	92.822428 
3167.169914  	92.817698 
3168.134338  	92.762772 
3169.098762  	92.737231 
3170.063187  	92.714456 
3171.027611  	92.737387 
3171.992036  	92.780441 
3172.956460  	92.784275 
3173.920885  	92.737960 
3174.885309  	92.686855 
3175.849734  	92.741899 
3176.814158  	92.773034 
3177.778583  	92.717174 
3178.743007  	92.712192 
3179.707431  	92.759108 
3180.671856  	92.773332 
3181.636280  	92.819068 
3182.600705  	92.869293 
3183.565129  	92.809585 
3184.529554  	92.746379 
3185.493978  	92.763357 
3186.458403  	92.791394 
3187.422827  	92.776186 
3188.387252  	92.762468 
3189.351676  	92.790430 
3190.316100  	92.779171 
3191.280525  	92.738290 
3192.244949  	92.763123 
3193.209374  	92.805567 
3194.173798  	92.757882 
3195.138223  	92.750521 
3196.102647  	92.746755 
3197.067072  	92.653996 
3198.031496  	92.625008 
3198.995921  	92.721318 
3199.960345  	92.792313 
3200.924769  	92.869604 
3201.889194  	92.916451 
3202.853618  	92.852561 
3203.818043  	92.752358 
3204.782467  	92.728277 
3205.746892  	92.764022 
3206.711316  	92.704214 
3207.675741  	92.676992 
3208.640165  	92.703468 
3209.604590  	92.723407 
3210.569014  	92.736254 
3211.533438  	92.772971 
3212.497863  	92.769209 
3213.462287  	92.752126 
3214.426712  	92.690423 
3215.391136  	92.699441 
3216.355561  	92.710764 
3217.319985  	92.710917 
3218.284410  	92.748709 
3219.248834  	92.719154 
3220.213259  	92.709656 
3221.177683  	92.787185 
3222.142107  	92.809340 
3223.106532  	92.822629 
3224.070956  	92.829438 
3225.035381  	92.760354 
3225.999805  	92.738282 
3226.964230  	92.728849 
3227.928654  	92.692897 
3228.893079  	92.712115 
3229.857503  	92.710733 
3230.821928  	92.711715 
3231.786352  	92.745497 
3232.750777  	92.716502 
3233.715201  	92.737404 
3234.679625  	92.758433 
3235.644050  	92.760617 
3236.608474  	92.752567 
3237.572899  	92.739994 
3238.537323  	92.799005 
3239.501748  	92.778405 
3240.466172  	92.696148 
3241.430597  	92.766473 
3242.395021  	92.799476 
3243.359446  	92.720181 
3244.323870  	92.685042 
3245.288294  	92.656247 
3246.252719  	92.712493 
3247.217143  	92.773936 
3248.181568  	92.783750 
3249.145992  	92.727411 
3250.110417  	92.714765 
3251.074841  	92.753895 
3252.039266  	92.783581 
3253.003690  	92.758336 
3253.968115  	92.644329 
3254.932539  	92.629757 
3255.896963  	92.675805 
3256.861388  	92.633104 
3257.825812  	92.681048 
3258.790237  	92.695030 
3259.754661  	92.666416 
3260.719086  	92.671115 
3261.683510  	92.729510 
3262.647935  	92.748801 
3263.612359  	92.707779 
3264.576784  	92.713549 
3265.541208  	92.698253 
3266.505632  	92.703467 
3267.470057  	92.732792 
3268.434481  	92.748090 
3269.398906  	92.735068 
3270.363330  	92.703458 
3271.327755  	92.710836 
3272.292179  	92.684136 
3273.256604  	92.646138 
3274.221028  	92.631667 
3275.185453  	92.710860 
3276.149877  	92.689310 
3277.114301  	92.692981 
3278.078726  	92.705794 
3279.043150  	92.645542 
3280.007575  	92.632658 
3280.971999  	92.638170 
3281.936424  	92.654743 
3282.900848  	92.678501 
3283.865273  	92.657984 
3284.829697  	92.668240 
3285.794122  	92.704641 
3286.758546  	92.696081 
3287.722971  	92.661614 
3288.687395  	92.666177 
3289.651819  	92.728958 
3290.616244  	92.750873 
3291.580668  	92.673524 
3292.545093  	92.587220 
3293.509517  	92.565644 
3294.473942  	92.618431 
3295.438366  	92.615857 
3296.402791  	92.624459 
3297.367215  	92.603743 
3298.331640  	92.640980 
3299.296064  	92.723245 
3300.260488  	92.739992 
3301.224913  	92.783331 
3302.189337  	92.815918 
3303.153762  	92.775780 
3304.118186  	92.712695 
3305.082611  	92.688919 
3306.047035  	92.696828 
3307.011460  	92.757751 
3307.975884  	92.739412 
3308.940309  	92.642882 
3309.904733  	92.690327 
3310.869157  	92.711981 
3311.833582  	92.697028 
3312.798006  	92.736583 
3313.762431  	92.755671 
3314.726855  	92.721633 
3315.691280  	92.707732 
3316.655704  	92.705405 
3317.620129  	92.702298 
3318.584553  	92.729443 
3319.548978  	92.720036 
3320.513402  	92.712224 
3321.477826  	92.738092 
3322.442251  	92.734658 
3323.406675  	92.752720 
3324.371100  	92.719700 
3325.335524  	92.743871 
3326.299949  	92.821973 
3327.264373  	92.759272 
3328.228798  	92.728875 
3329.193222  	92.703898 
3330.157647  	92.618442 
3331.122071  	92.641864 
3332.086495  	92.765143 
3333.050920  	92.797124 
3334.015344  	92.679423 
3334.979769  	92.577963 
3335.944193  	92.682424 
3336.908618  	92.666618 
3337.873042  	92.661754 
3338.837467  	92.724863 
3339.801891  	92.728939 
3340.766316  	92.759282 
3341.730740  	92.708201 
3342.695164  	92.665057 
3343.659589  	92.714556 
3344.624013  	92.827674 
3345.588438  	92.860427 
3346.552862  	92.810884 
3347.517287  	92.753719 
3348.481711  	92.721373 
3349.446136  	92.721573 
3350.410560  	92.746240 
3351.374985  	92.824540 
3352.339409  	92.844695 
3353.303834  	92.757549 
3354.268258  	92.768696 
3355.232682  	92.749682 
3356.197107  	92.639111 
3357.161531  	92.649864 
3358.125956  	92.733107 
3359.090380  	92.759523 
3360.054805  	92.645055 
3361.019229  	92.589311 
3361.983654  	92.637252 
3362.948078  	92.757880 
3363.912503  	92.786742 
3364.876927  	92.672078 
3365.841351  	92.680728 
3366.805776  	92.746196 
3367.770200  	92.700308 
3368.734625  	92.668984 
3369.699049  	92.704511 
3370.663474  	92.736180 
3371.627898  	92.770147 
3372.592323  	92.761062 
3373.556747  	92.730277 
3374.521172  	92.740388 
3375.485596  	92.812041 
3376.450020  	92.814101 
3377.414445  	92.824187 
3378.378869  	92.819880 
3379.343294  	92.769004 
3380.307718  	92.812936 
3381.272143  	92.909061 
3382.236567  	92.851279 
3383.200992  	92.737398 
3384.165416  	92.676867 
3385.129841  	92.666637 
3386.094265  	92.697217 
3387.058689  	92.717097 
3388.023114  	92.719512 
3388.987538  	92.766958 
3389.951963  	92.788347 
3390.916387  	92.743510 
3391.880812  	92.648690 
3392.845236  	92.556485 
3393.809661  	92.625819 
3394.774085  	92.767121 
3395.738510  	92.764217 
3396.702934  	92.679038 
3397.667358  	92.582349 
3398.631783  	92.705887 
3399.596207  	92.806366 
3400.560632  	92.759696 
3401.525056  	92.712360 
3402.489481  	92.750246 
3403.453905  	92.737237 
3404.418330  	92.736596 
3405.382754  	92.741798 
3406.347179  	92.715185 
3407.311603  	92.707048 
3408.276028  	92.726628 
3409.240452  	92.667762 
3410.204876  	92.598613 
3411.169301  	92.632566 
3412.133725  	92.695939 
3413.098150  	92.712411 
3414.062574  	92.693248 
3415.026999  	92.664690 
3415.991423  	92.604028 
3416.955848  	92.559007 
3417.920272  	92.509767 
3418.884697  	92.495885 
3419.849121  	92.320048 
3420.813545  	92.063170 
3421.777970  	92.107704 
3422.742394  	92.181726 
3423.706819  	92.300107 
3424.671243  	92.406547 
3425.635668  	92.398999 
3426.600092  	92.373156 
3427.564517  	92.409064 
3428.528941  	92.456635 
3429.493366  	92.475676 
3430.457790  	92.428488 
3431.422214  	92.398024 
3432.386639  	92.423869 
3433.351063  	92.514724 
3434.315488  	92.571110 
3435.279912  	92.536654 
3436.244337  	92.513104 
3437.208761  	92.552734 
3438.173186  	92.575550 
3439.137610  	92.548554 
3440.102035  	92.573626 
3441.066459  	92.595024 
3442.030883  	92.460938 
3442.995308  	92.301605 
3443.959732  	92.496455 
3444.924157  	92.540395 
3445.888581  	92.499477 
3446.853006  	92.155184 
3447.817430  	91.992581 
3448.781855  	92.463336 
3449.746279  	92.657244 
3450.710704  	92.695719 
3451.675128  	92.708629 
3452.639552  	92.729781 
3453.603977  	92.726928 
3454.568401  	92.765314 
3455.532826  	92.716477 
3456.497250  	92.679141 
3457.461675  	92.679419 
3458.426099  	92.688810 
3459.390524  	92.733229 
3460.354948  	92.796023 
3461.319373  	92.708322 
3462.283797  	92.624338 
3463.248221  	92.605120 
3464.212646  	92.763461 
3465.177070  	92.799829 
3466.141495  	92.787514 
3467.105919  	92.645476 
3468.070344  	92.792305 
3469.034768  	92.912365 
3469.999193  	92.823061 
3470.963617  	92.749767 
3471.928042  	92.791729 
3472.892466  	92.874559 
3473.856891  	92.858302 
3474.821315  	92.657132 
3475.785739  	92.726866 
3476.750164  	92.876397 
3477.714588  	92.954361 
3478.679013  	92.981502 
3479.643437  	92.785393 
3480.607862  	92.457202 
3481.572286  	92.349832 
3482.536711  	92.243800 
3483.501135  	92.513372 
3484.465560  	92.800633 
3485.429984  	92.826315 
3486.394408  	92.817979 
3487.358833  	92.723054 
3488.323257  	92.426860 
3489.287682  	92.536127 
3490.252106  	92.705066 
3491.216531  	92.649095 
3492.180955  	92.735756 
3493.145380  	92.861187 
3494.109804  	92.937687 
3495.074229  	92.779159 
3496.038653  	92.500157 
3497.003077  	92.456014 
3497.967502  	92.633280 
3498.931926  	92.718843 
3499.896351  	92.612233 
3500.860775  	92.559262 
3501.825200  	92.254071 
3502.789624  	91.815902 
3503.754049  	91.714801 
3504.718473  	92.144271 
3505.682898  	92.480198 
3506.647322  	92.687174 
3507.611746  	92.790047 
3508.576171  	92.557659 
3509.540595  	91.989784 
3510.505020  	92.180546 
3511.469444  	92.549384 
3512.433869  	92.585394 
3513.398293  	92.612657 
3514.362718  	92.749955 
3515.327142  	92.914526 
3516.291567  	92.868622 
3517.255991  	92.668260 
3518.220415  	92.584162 
3519.184840  	92.581407 
3520.149264  	92.704398 
3521.113689  	92.826664 
3522.078113  	92.641906 
3523.042538  	91.940707 
3524.006962  	91.598634 
3524.971387  	91.941299 
3525.935811  	92.110776 
3526.900236  	91.962759 
3527.864660  	91.783020 
3528.829085  	91.911573 
3529.793509  	92.178650 
3530.757933  	92.395470 
3531.722358  	92.412049 
3532.686782  	92.647478 
3533.651207  	92.778512 
3534.615631  	92.804951 
3535.580056  	92.544023 
3536.544480  	91.988752 
3537.508905  	92.213420 
3538.473329  	92.634756 
3539.437754  	92.591710 
3540.402178  	92.602622 
3541.366602  	92.645803 
3542.331027  	92.658207 
3543.295451  	92.430605 
3544.259876  	92.097228 
3545.224300  	91.359500 
3546.188725  	91.135348 
3547.153149  	91.107682 
3548.117574  	91.569207 
3549.081998  	92.321460 
3550.046423  	92.539293 
3551.010847  	92.488726 
3551.975271  	91.999037 
3552.939696  	91.728199 
3553.904120  	91.995706 
3554.868545  	92.378310 
3555.832969  	92.711353 
3556.797394  	92.666919 
3557.761818  	92.681742 
3558.726243  	92.788552 
3559.690667  	92.330256 
3560.655092  	91.873895 
3561.619516  	92.296757 
3562.583940  	92.332508 
3563.548365  	92.218592 
3564.512789  	92.166449 
3565.477214  	91.401653 
3566.441638  	89.480206 
3567.406063  	89.362805 
3568.370487  	89.741344 
3569.334912  	91.217695 
3570.299336  	92.138514 
3571.263761  	92.310267 
3572.228185  	92.681167 
3573.192609  	92.703191 
3574.157034  	92.563192 
3575.121458  	92.529652 
3576.085883  	92.655032 
3577.050307  	92.528994 
3578.014732  	92.496467 
3578.979156  	92.547203 
3579.943581  	92.261548 
3580.908005  	92.290151 
3581.872430  	92.606870 
3582.836854  	92.556691 
3583.801278  	92.458991 
3584.765703  	92.594074 
3585.730127  	92.172221 
3586.694552  	90.613249 
3587.658976  	89.857571 
3588.623401  	90.064293 
3589.587825  	91.170281 
3590.552250  	92.338036 
3591.516674  	92.592358 
3592.481099  	92.465341 
3593.445523  	91.911733 
3594.409948  	91.935366 
3595.374372  	91.389636 
3596.338796  	91.358158 
3597.303221  	92.114421 
3598.267645  	92.080180 
3599.232070  	91.862460 
3600.196494  	91.912313 
3601.160919  	91.580439 
3602.125343  	91.922265 
3603.089768  	92.212342 
3604.054192  	92.498141 
3605.018617  	92.660996 
3605.983041  	92.475509 
3606.947465  	91.506156 
3607.911890  	91.183339 
3608.876314  	91.245546 
3609.840739  	90.984148 
3610.805163  	92.029073 
3611.769588  	91.893167 
3612.734012  	90.808432 
3613.698437  	91.016230 
3614.662861  	91.028741 
3615.627286  	91.159862 
3616.591710  	92.079678 
3617.556134  	91.513010 
3618.520559  	90.830744 
3619.484983  	90.678331 
3620.449408  	90.750979 
3621.413832  	91.445084 
3622.378257  	92.029670 
3623.342681  	92.424700 
3624.307106  	92.629306 
3625.271530  	92.569417 
3626.235955  	92.127677 
3627.200379  	91.885796 
3628.164803  	90.955655 
3629.129228  	88.505895 
3630.093652  	89.214683 
3631.058077  	91.341114 
3632.022501  	92.185937 
3632.986926  	92.162405 
3633.951350  	91.481735 
3634.915775  	91.925341 
3635.880199  	92.531233 
3636.844624  	92.620936 
3637.809048  	92.428697 
3638.773472  	92.390396 
3639.737897  	92.667860 
3640.702321  	92.675617 
3641.666746  	92.378081 
3642.631170  	92.005673 
3643.595595  	92.314664 
3644.560019  	92.739275 
3645.524444  	92.495301 
3646.488868  	91.387374 
3647.453293  	89.852569 
3648.417717  	90.151414 
3649.382142  	89.716368 
3650.346566  	88.816277 
3651.310990  	89.013342 
3652.275415  	91.109197 
3653.239839  	92.333369 
3654.204264  	92.692047 
3655.168688  	92.520766 
3656.133113  	91.533993 
3657.097537  	91.531574 
3658.061962  	92.531639 
3659.026386  	92.617431 
3659.990811  	92.542161 
3660.955235  	92.756837 
3661.919659  	92.990656 
3662.884084  	92.977269 
3663.848508  	92.936820 
3664.812933  	92.859601 
3665.777357  	92.905972 
3666.741782  	92.976056 
3667.706206  	92.901016 
3668.670631  	92.009857 
3669.635055  	90.998350 
3670.599480  	90.168041 
3671.563904  	90.830060 
3672.528328  	92.302740 
3673.492753  	92.492857 
3674.457177  	91.378752 
3675.421602  	88.777274 
3676.386026  	89.544542 
3677.350451  	91.237567 
3678.314875  	91.794799 
3679.279300  	91.683527 
3680.243724  	91.862698 
3681.208149  	92.654142 
3682.172573  	92.907525 
3683.136997  	92.905240 
3684.101422  	92.797495 
3685.065846  	92.738168 
3686.030271  	92.917161 
3686.994695  	92.764331 
3687.959120  	91.908747 
3688.923544  	91.139976 
3689.887969  	91.602264 
3690.852393  	90.718778 
3691.816818  	90.777914 
3692.781242  	92.358297 
3693.745666  	92.691505 
3694.710091  	92.782587 
3695.674515  	92.853120 
3696.638940  	92.715300 
3697.603364  	92.813779 
3698.567789  	93.032996 
3699.532213  	93.020585 
3700.496638  	92.961993 
3701.461062  	92.151970 
3702.425487  	91.689544 
3703.389911  	92.619990 
3704.354335  	92.892213 
3705.318760  	92.781388 
3706.283184  	92.839606 
3707.247609  	92.988540 
3708.212033  	92.903386 
3709.176458  	92.193108 
3710.140882  	91.770360 
3711.105307  	91.468802 
3712.069731  	90.236763 
3713.034156  	90.776686 
3713.998580  	92.086511 
3714.963005  	92.056195 
3715.927429  	92.411282 
3716.891853  	93.004441 
3717.856278  	92.977505 
3718.820702  	92.319780 
3719.785127  	92.186155 
3720.749551  	92.738682 
3721.713976  	92.165483 
3722.678400  	91.063090 
3723.642825  	91.823198 
3724.607249  	92.017654 
3725.571674  	91.370782 
3726.536098  	91.122993 
3727.500522  	91.398671 
3728.464947  	92.307191 
3729.429371  	92.855195 
3730.393796  	92.789536 
3731.358220  	92.281190 
3732.322645  	91.573786 
3733.287069  	92.005748 
3734.251494  	91.170517 
3735.215918  	88.174966 
3736.180343  	88.602474 
3737.144767  	90.116837 
3738.109191  	91.034031 
3739.073616  	91.481323 
3740.038040  	92.052857 
3741.002465  	91.689417 
3741.966889  	91.955957 
3742.931314  	92.438843 
3743.895738  	91.235654 
3744.860163  	88.030605 
3745.824587  	90.755872 
3746.789012  	91.538507 
3747.753436  	91.487875 
3748.717860  	91.274435 
3749.682285  	90.846490 
3750.646709  	91.010225 
3751.611134  	90.326677 
3752.575558  	89.251451 
3753.539983  	91.137912 
3754.504407  	92.006781 
3755.468832  	92.383973 
3756.433256  	92.107189 
3757.397681  	92.298958 
3758.362105  	92.446269 
3759.326529  	91.389543 
3760.290954  	91.130324 
3761.255378  	92.561632 
3762.219803  	92.827541 
3763.184227  	92.893702 
3764.148652  	92.942767 
3765.113076  	92.477758 
3766.077501  	91.675500 
3767.041925  	92.485913 
3768.006350  	92.932849 
3768.970774  	92.517296 
3769.935199  	91.552007 
3770.899623  	91.974451 
3771.864047  	92.630312 
3772.828472  	92.916147 
3773.792896  	93.079795 
3774.757321  	93.175533 
3775.721745  	93.303070 
3776.686170  	93.444709 
3777.650594  	93.323292 
3778.615019  	92.818918 
3779.579443  	91.956840 
3780.543868  	92.261667 
3781.508292  	92.931841 
3782.472716  	93.014190 
3783.437141  	93.089014 
3784.401565  	92.685373 
3785.365990  	92.245576 
3786.330414  	92.608843 
3787.294839  	92.919471 
3788.259263  	93.109843 
3789.223688  	93.169509 
3790.188112  	93.180814 
3791.152537  	93.245783 
3792.116961  	93.239591 
3793.081385  	93.236931 
3794.045810  	93.283668 
3795.010234  	93.156522 
3795.974659  	92.545672 
3796.939083  	91.862380 
3797.903508  	92.271906 
3798.867932  	92.685462 
3799.832357  	92.741119 
3800.796781  	91.671557 
3801.761206  	90.332110 
3802.725630  	91.020740 
3803.690054  	91.963774 
3804.654479  	92.788077 
3805.618903  	92.853900 
3806.583328  	92.050944 
3807.547752  	91.611177 
3808.512177  	92.673227 
3809.476601  	92.904475 
3810.441026  	92.943299 
3811.405450  	93.125703 
3812.369875  	93.248441 
3813.334299  	93.284823 
3814.298723  	93.131020 
3815.263148  	92.349077 
3816.227572  	90.983300 
3817.191997  	91.843759 
3818.156421  	92.570001 
3819.120846  	92.386919 
3820.085270  	91.667082 
3821.049695  	90.109964 
3822.014119  	90.237940 
3822.978544  	91.936766 
3823.942968  	92.404049 
3824.907392  	92.669416 
3825.871817  	92.616297 
3826.836241  	92.055598 
3827.800666  	92.201160 
3828.765090  	92.781158 
3829.729515  	93.040921 
3830.693939  	92.838623 
3831.658364  	92.033229 
3832.622788  	92.330055 
3833.587213  	92.876947 
3834.551637  	92.290980 
3835.516062  	91.878165 
3836.480486  	92.506788 
3837.444910  	91.790602 
3838.409335  	90.936167 
3839.373759  	91.564566 
3840.338184  	90.831085 
3841.302608  	90.994312 
3842.267033  	92.334103 
3843.231457  	92.203473 
3844.195882  	91.522993 
3845.160306  	92.496126 
3846.124731  	92.954291 
3847.089155  	93.038000 
3848.053579  	93.121446 
3849.018004  	92.913460 
3849.982428  	92.464218 
3850.946853  	92.427357 
3851.911277  	91.604329 
3852.875702  	90.307585 
3853.840126  	89.305308 
3854.804551  	89.983501 
3855.768975  	92.042601 
3856.733400  	91.856204 
3857.697824  	91.481882 
3858.662248  	92.552419 
3859.626673  	93.102563 
3860.591097  	93.039595 
3861.555522  	92.401820 
3862.519946  	92.015675 
3863.484371  	92.339014 
3864.448795  	91.419996 
3865.413220  	90.527171 
3866.377644  	92.059884 
3867.342069  	92.913989 
3868.306493  	92.755208 
3869.270917  	91.451766 
3870.235342  	89.712386 
3871.199766  	91.183914 
3872.164191  	92.264746 
3873.128615  	92.416940 
3874.093040  	91.158692 
3875.057464  	91.365678 
3876.021889  	92.836011 
3876.986313  	93.131964 
3877.950738  	93.258610 
3878.915162  	93.197823 
3879.879586  	92.105978 
3880.844011  	90.573776 
3881.808435  	91.866428 
3882.772860  	92.591882 
3883.737284  	92.352498 
3884.701709  	92.258860 
3885.666133  	91.290327 
3886.630558  	91.309682 
3887.594982  	92.712181 
3888.559407  	93.080746 
3889.523831  	93.146738 
3890.488256  	92.684768 
3891.452680  	91.464642 
3892.417104  	91.623195 
3893.381529  	92.403032 
3894.345953  	92.311192 
3895.310378  	92.688723 
3896.274802  	93.171234 
3897.239227  	93.167594 
3898.203651  	92.504364 
3899.168076  	91.498393 
3900.132500  	91.656596 
3901.096925  	92.180009 
3902.061349  	90.933737 
3903.025773  	91.194830 
3903.990198  	91.359985 
3904.954622  	90.952578 
3905.919047  	91.293909 
3906.883471  	92.046128 
3907.847896  	92.975806 
3908.812320  	93.236984 
3909.776745  	93.246629 
3910.741169  	93.268843 
3911.705594  	93.283958 
3912.670018  	93.261921 
3913.634442  	93.285127 
3914.598867  	93.329922 
3915.563291  	93.158788 
3916.527716  	92.248168 
3917.492140  	91.616731 
3918.456565  	92.533925 
3919.420989  	92.654463 
3920.385414  	92.040850 
3921.349838  	92.678948 
3922.314263  	93.264742 
3923.278687  	92.948743 
3924.243111  	92.182914 
3925.207536  	91.746000 
3926.171960  	92.445619 
3927.136385  	93.172243 
3928.100809  	93.186535 
3929.065234  	92.971832 
3930.029658  	92.684516 
3930.994083  	92.525265 
3931.958507  	92.060443 
3932.922932  	91.762814 
3933.887356  	92.530851 
3934.851780  	92.872448 
3935.816205  	93.130284 
3936.780629  	93.290007 
3937.745054  	93.243948 
3938.709478  	93.070049 
3939.673903  	93.261806 
3940.638327  	93.357047 
3941.602752  	93.118910 
3942.567176  	92.248484 
3943.531601  	91.962855 
3944.496025  	92.697295 
3945.460449  	93.068397 
3946.424874  	93.154790 
3947.389298  	92.644061 
3948.353723  	92.405306 
3949.318147  	92.606680 
3950.282572  	92.318042 
3951.246996  	92.709841 
3952.211421  	93.178400 
3953.175845  	93.033951 
3954.140270  	93.110462 
3955.104694  	93.265190 
3956.069119  	93.224975 
3957.033543  	93.065302 
3957.997967  	93.049370 
3958.962392  	93.128439 
3959.926816  	93.180603 
3960.891241  	93.151330 
3961.855665  	92.781046 
3962.820090  	92.794251 
3963.784514  	93.261514 
3964.748939  	93.320940 
3965.713363  	93.337563 
3966.677788  	93.339875 
3967.642212  	93.316069 
3968.606636  	93.149584 
3969.571061  	92.989112 
3970.535485  	93.143625 
3971.499910  	93.244083 
3972.464334  	93.087824 
3973.428759  	93.176636 
3974.393183  	93.253193 
3975.357608  	93.096784 
3976.322032  	92.963226 
3977.286457  	93.127166 
3978.250881  	93.328779 
3979.215305  	93.347847 
3980.179730  	93.328744 
3981.144154  	93.298429 
3982.108579  	93.217344 
3983.073003  	93.246954 
3984.037428  	93.383828 
3985.001852  	93.345746 
3985.966277  	93.297236 
3986.930701  	93.366509 
3987.895126  	93.404414 
3988.859550  	93.354369 
3989.823974  	93.235583 
3990.788399  	93.052834 
3991.752823  	93.148447 
3992.717248  	93.267421 
3993.681672  	93.265869 
3994.646097  	93.188932 
3995.610521  	93.104279 
3996.574946  	93.271510 
3997.539370  	93.371847 
3998.503795  	93.386526 
3999.468219  	93.378243 
4000.432643  	93.404179 
4001.397068  	93.387364 
4002.361492  	93.384501 
4003.325917  	93.338713 
4004.290341  	93.353869 
4005.254766  	93.375701 
4006.219190  	93.366255 
4007.183615  	93.319962 
4008.148039  	93.232320 
4009.112464  	93.122064 
4010.076888  	93.229518 
4011.041313  	93.318733 
4012.005737  	93.368420 
4012.970161  	93.321608 
4013.934586  	93.327432 
4014.899010  	93.348749 
4015.863435  	93.312175 
4016.827859  	93.306325 
4017.792284  	93.349330 
4018.756708  	93.365206 
4019.721133  	93.295100 
4020.685557  	93.300058 
4021.649982  	93.387499 
4022.614406  	93.469814 
4023.578830  	93.416493 
4024.543255  	93.334263 
4025.507679  	93.246117 
4026.472104  	93.280098 
4027.436528  	93.369260 
4028.400953  	93.354646 
4029.365377  	93.316416 
4030.329802  	93.347487 
4031.294226  	93.385076 
4032.258651  	93.352734 
4033.223075  	93.415898 
4034.187499  	93.435111 
4035.151924  	93.371315 
4036.116348  	93.352250 
4037.080773  	93.405480 
4038.045197  	93.421831 
4039.009622  	93.376400 
4039.974046  	93.359401 
4040.938471  	93.412064 
4041.902895  	93.424699 
4042.867320  	93.430379 
4043.831744  	93.339597 
4044.796168  	93.236114 
4045.760593  	93.238142 
4046.725017  	93.344249 
4047.689442  	93.363049 
4048.653866  	93.385964 
4049.618291  	93.399339 
4050.582715  	93.396354 
4051.547140  	93.360132 
4052.511564  	93.346565 
4053.475989  	93.386235 
4054.440413  	93.409977 
4055.404837  	93.387351 
4056.369262  	93.381107 
4057.333686  	93.418295 
4058.298111  	93.412307 
4059.262535  	93.337842 
4060.226960  	93.303532 
4061.191384  	93.308069 
4062.155809  	93.400039 
4063.120233  	93.477073 
4064.084658  	93.455829 
4065.049082  	93.388350 
4066.013506  	93.383308 
4066.977931  	93.350439 
4067.942355  	93.318788 
4068.906780  	93.349387 
4069.871204  	93.390033 
4070.835629  	93.352167 
4071.800053  	93.314565 
4072.764478  	93.269930 
4073.728902  	93.271144 
4074.693327  	93.322905 
4075.657751  	93.394346 
4076.622176  	93.380599 
4077.586600  	93.356265 
4078.551024  	93.351937 
4079.515449  	93.307249 
4080.479873  	93.273531 
4081.444298  	93.317746 
4082.408722  	93.332301 
4083.373147  	93.316877 
4084.337571  	93.323838 
4085.301996  	93.334468 
4086.266420  	93.322801 
4087.230845  	93.282746 
4088.195269  	93.273033 
4089.159693  	93.335903 
4090.124118  	93.359224 
4091.088542  	93.365105 
4092.052967  	93.419211 
4093.017391  	93.408301 
4093.981816  	93.352789 
4094.946240  	93.360177 
4095.910665  	93.405501 
4096.875089  	93.453437 
4097.839514  	93.388075 
4098.803938  	93.308208 
4099.768362  	93.351822 
4100.732787  	93.406103 
4101.697211  	93.423192 
4102.661636  	93.424748 
4103.626060  	93.423163 
4104.590485  	93.384661 
4105.554909  	93.340088 
4106.519334  	93.362738 
4107.483758  	93.348681 
4108.448183  	93.365143 
4109.412607  	93.389123 
4110.377031  	93.371015 
4111.341456  	93.367299 
4112.305880  	93.371515 
4113.270305  	93.402080 
4114.234729  	93.424547 
4115.199154  	93.425347 
4116.163578  	93.448184 
4117.128003  	93.486484 
4118.092427  	93.451750 
4119.056852  	93.380654 
4120.021276  	93.336096 
4120.985700  	93.345060 
4121.950125  	93.389775 
4122.914549  	93.370082 
4123.878974  	93.360131 
4124.843398  	93.363775 
4125.807823  	93.371427 
4126.772247  	93.362931 
4127.736672  	93.353899 
4128.701096  	93.377342 
4129.665521  	93.391967 
4130.629945  	93.378602 
4131.594370  	93.429050 
4132.558794  	93.487669 
4133.523218  	93.454123 
4134.487643  	93.448571 
4135.452067  	93.468531 
4136.416492  	93.469803 
4137.380916  	93.471119 
4138.345341  	93.419350 
4139.309765  	93.366574 
4140.274190  	93.349790 
4141.238614  	93.343822 
4142.203039  	93.377749 
4143.167463  	93.476321 
4144.131887  	93.459754 
4145.096312  	93.442026 
4146.060736  	93.445451 
4147.025161  	93.410998 
4147.989585  	93.383731 
4148.954010  	93.389396 
4149.918434  	93.382161 
4150.882859  	93.374678 
4151.847283  	93.417377 
4152.811708  	93.439068 
4153.776132  	93.434708 
4154.740556  	93.478860 
4155.704981  	93.457215 
4156.669405  	93.442348 
4157.633830  	93.462323 
4158.598254  	93.452494 
4159.562679  	93.401993 
4160.527103  	93.402453 
4161.491528  	93.427897 
4162.455952  	93.424167 
4163.420377  	93.451923 
4164.384801  	93.451900 
4165.349225  	93.429944 
4166.313650  	93.410878 
4167.278074  	93.375891 
4168.242499  	93.423034 
4169.206923  	93.467506 
4170.171348  	93.473722 
4171.135772  	93.468745 
4172.100197  	93.423832 
4173.064621  	93.412773 
4174.029046  	93.456711 
4174.993470  	93.466460 
4175.957894  	93.473614 
4176.922319  	93.528846 
4177.886743  	93.544273 
4178.851168  	93.467270 
4179.815592  	93.375738 
4180.780017  	93.403193 
4181.744441  	93.492390 
4182.708866  	93.472949 
4183.673290  	93.457784 
4184.637715  	93.447237 
4185.602139  	93.423486 
4186.566563  	93.413501 
4187.530988  	93.451125 
4188.495412  	93.485249 
4189.459837  	93.513974 
4190.424261  	93.493384 
4191.388686  	93.467581 
4192.353110  	93.498861 
4193.317535  	93.477070 
4194.281959  	93.430365 
4195.246384  	93.481294 
4196.210808  	93.470889 
4197.175233  	93.412559 
4198.139657  	93.438600 
4199.104081  	93.441945 
4200.068506  	93.428127 
4201.032930  	93.490630 
4201.997355  	93.549425 
4202.961779  	93.548613 
4203.926204  	93.485417 
4204.890628  	93.451718 
4205.855053  	93.465835 
4206.819477  	93.472305 
4207.783902  	93.482109 
4208.748326  	93.486756 
4209.712750  	93.499582 
4210.677175  	93.510996 
4211.641599  	93.498419 
4212.606024  	93.501295 
4213.570448  	93.553703 
4214.534873  	93.586931 
4215.499297  	93.500687 
4216.463722  	93.464042 
4217.428146  	93.403127 
4218.392571  	93.412017 
4219.356995  	93.451861 
4220.321419  	93.491250 
4221.285844  	93.530526 
4222.250268  	93.550275 
4223.214693  	93.455342 
4224.179117  	93.418399 
4225.143542  	93.479425 
4226.107966  	93.516057 
4227.072391  	93.507486 
4228.036815  	93.451562 
4229.001240  	93.447799 
4229.965664  	93.430845 
4230.930088  	93.424410 
4231.894513  	93.467401 
4232.858937  	93.475172 
4233.823362  	93.473272 
4234.787786  	93.452061 
4235.752211  	93.459781 
4236.716635  	93.504655 
4237.681060  	93.518597 
4238.645484  	93.480611 
4239.609909  	93.461684 
4240.574333  	93.463664 
4241.538757  	93.517199 
4242.503182  	93.559736 
4243.467606  	93.533825 
4244.432031  	93.447357 
4245.396455  	93.437519 
4246.360880  	93.498751 
4247.325304  	93.537677 
4248.289729  	93.525058 
4249.254153  	93.503144 
4250.218578  	93.521152 
4251.183002  	93.581845 
4252.147427  	93.558687 
4253.111851  	93.510406 
4254.076275  	93.460208 
4255.040700  	93.418860 
4256.005124  	93.409805 
4256.969549  	93.523789 
4257.933973  	93.601365 
4258.898398  	93.550035 
4259.862822  	93.490892 
4260.827247  	93.451893 
4261.791671  	93.467801 
4262.756096  	93.531359 
4263.720520  	93.512493 
4264.684944  	93.455167 
4265.649369  	93.422121 
4266.613793  	93.476788 
4267.578218  	93.489408 
4268.542642  	93.487955 
4269.507067  	93.472272 
4270.471491  	93.476816 
4271.435916  	93.458349 
4272.400340  	93.419421 
4273.364765  	93.454601 
4274.329189  	93.507277 
4275.293613  	93.481010 
4276.258038  	93.482147 
4277.222462  	93.503248 
4278.186887  	93.455055 
4279.151311  	93.395634 
4280.115736  	93.362130 
4281.080160  	93.425728 
4282.044585  	93.458285 
4283.009009  	93.398406 
4283.973434  	93.410599 
4284.937858  	93.429500 
4285.902282  	93.429863 
4286.866707  	93.428064 
4287.831131  	93.455731 
4288.795556  	93.510098 
4289.759980  	93.513233 
4290.724405  	93.461233 
4291.688829  	93.419199 
4292.653254  	93.447347 
4293.617678  	93.513643 
4294.582103  	93.540555 
4295.546527  	93.566442 
4296.510951  	93.527358 
4297.475376  	93.491762 
4298.439800  	93.489598 
4299.404225  	93.512277 
4300.368649  	93.513747 
4301.333074  	93.444535 
4302.297498  	93.311977 
4303.261923  	93.314593 
4304.226347  	93.439337 
4305.190772  	93.593596 
4306.155196  	93.541826 
4307.119620  	93.498311 
4308.084045  	93.504048 
4309.048469  	93.522382 
4310.012894  	93.511623 
4310.977318  	93.517553 
4311.941743  	93.494136 
4312.906167  	93.434516 
4313.870592  	93.430919 
4314.835016  	93.552689 
4315.799441  	93.555429 
4316.763865  	93.514932 
4317.728290  	93.576178 
4318.692714  	93.614795 
4319.657138  	93.555497 
4320.621563  	93.521665 
4321.585987  	93.476628 
4322.550412  	93.472334 
4323.514836  	93.476759 
4324.479261  	93.483163 
4325.443685  	93.506185 
4326.408110  	93.550203 
4327.372534  	93.557809 
4328.336959  	93.590671 
4329.301383  	93.558790 
4330.265807  	93.534022 
4331.230232  	93.534088 
4332.194656  	93.503717 
4333.159081  	93.581094 
4334.123505  	93.612591 
4335.087930  	93.596867 
4336.052354  	93.559432 
4337.016779  	93.534389 
4337.981203  	93.509915 
4338.945628  	93.484784 
4339.910052  	93.496345 
4340.874476  	93.538433 
4341.838901  	93.567386 
4342.803325  	93.527430 
4343.767750  	93.483719 
4344.732174  	93.495832 
4345.696599  	93.492797 
4346.661023  	93.457945 
4347.625448  	93.419295 
4348.589872  	93.441925 
4349.554297  	93.482244 
4350.518721  	93.544295 
4351.483145  	93.576918 
4352.447570  	93.574402 
4353.411994  	93.574691 
4354.376419  	93.535020 
4355.340843  	93.573741 
4356.305268  	93.595588 
4357.269692  	93.556237 
4358.234117  	93.565849 
4359.198541  	93.553769 
4360.162966  	93.556108 
4361.127390  	93.572542 
4362.091814  	93.564974 
4363.056239  	93.518213 
4364.020663  	93.542196 
4364.985088  	93.526260 
4365.949512  	93.463593 
4366.913937  	93.506480 
4367.878361  	93.506799 
4368.842786  	93.536991 
4369.807210  	93.608807 
4370.771635  	93.571319 
4371.736059  	93.514741 
4372.700484  	93.511841 
4373.664908  	93.538080 
4374.629332  	93.559011 
4375.593757  	93.569242 
4376.558181  	93.595019 
4377.522606  	93.611536 
4378.487030  	93.582135 
4379.451455  	93.535958 
4380.415879  	93.487094 
4381.380304  	93.468527 
4382.344728  	93.536557 
4383.309153  	93.565471 
4384.273577  	93.582874 
4385.238001  	93.567963 
4386.202426  	93.585796 
4387.166850  	93.590800 
4388.131275  	93.555367 
4389.095699  	93.573427 
4390.060124  	93.570837 
4391.024548  	93.520350 
4391.988973  	93.556023 
4392.953397  	93.581570 
4393.917822  	93.521355 
4394.882246  	93.480358 
4395.846670  	93.500660 
4396.811095  	93.522228 
4397.775519  	93.534064 
4398.739944  	93.583225 
4399.704368  	93.657859 
4400.668793  	93.674124 
4401.633217  	93.514333 
4402.597642  	93.472033 
4403.562066  	93.607533 
4404.526491  	93.581916 
4405.490915  	93.555154 
4406.455339  	93.518146 
4407.419764  	93.540197 
4408.384188  	93.626738 
4409.348613  	93.668361 
4410.313037  	93.655467 
4411.277462  	93.511985 
4412.241886  	93.461712 
4413.206311  	93.503319 
4414.170735  	93.552510 
4415.135160  	93.570704 
4416.099584  	93.526990 
4417.064008  	93.487840 
4418.028433  	93.471667 
4418.992857  	93.524891 
4419.957282  	93.490374 
4420.921706  	93.465694 
4421.886131  	93.491911 
4422.850555  	93.453304 
4423.814980  	93.468665 
4424.779404  	93.507244 
4425.743829  	93.447293 
4426.708253  	93.416886 
4427.672677  	93.430864 
4428.637102  	93.500273 
4429.601526  	93.572706 
4430.565951  	93.549350 
4431.530375  	93.485020 
4432.494800  	93.413663 
4433.459224  	93.394980 
4434.423649  	93.410603 
4435.388073  	93.445712 
4436.352498  	93.541209 
4437.316922  	93.580939 
4438.281347  	93.570095 
4439.245771  	93.511985 
4440.210195  	93.529654 
4441.174620  	93.528250 
4442.139044  	93.504408 
4443.103469  	93.501960 
4444.067893  	93.515377 
4445.032318  	93.528900 
4445.996742  	93.530828 
4446.961167  	93.485442 
4447.925591  	93.432761 
4448.890016  	93.477940 
4449.854440  	93.514251 
4450.818864  	93.521851 
4451.783289  	93.468771 
4452.747713  	93.407614 
4453.712138  	93.465768 
4454.676562  	93.480434 
4455.640987  	93.467607 
4456.605411  	93.542205 
4457.569836  	93.595780 
4458.534260  	93.566264 
4459.498685  	93.535344 
4460.463109  	93.458976 
4461.427533  	93.469975 
4462.391958  	93.493928 
4463.356382  	93.485956 
4464.320807  	93.579723 
4465.285231  	93.572117 
4466.249656  	93.504041 
4467.214080  	93.462523 
4468.178505  	93.472489 
4469.142929  	93.566347 
4470.107354  	93.608261 
4471.071778  	93.613516 
4472.036202  	93.618147 
4473.000627  	93.633271 
4473.965051  	93.564338 
4474.929476  	93.489401 
4475.893900  	93.491435 
4476.858325  	93.501261 
4477.822749  	93.485112 
4478.787174  	93.513633 
4479.751598  	93.538970 
4480.716023  	93.585838 
4481.680447  	93.563781 
4482.644871  	93.507232 
4483.609296  	93.473250 
4484.573720  	93.464344 
4485.538145  	93.504363 
4486.502569  	93.584455 
4487.466994  	93.594704 
4488.431418  	93.600194 
4489.395843  	93.554859 
4490.360267  	93.564487 
4491.324692  	93.621509 
4492.289116  	93.636413 
4493.253541  	93.619479 
4494.217965  	93.611393 
4495.182389  	93.603338 
4496.146814  	93.577686 
4497.111238  	93.585986 
4498.075663  	93.610660 
4499.040087  	93.618943 
4500.004512  	93.596487 
4500.968936  	93.585938 
4501.933361  	93.581700 
4502.897785  	93.608580 
4503.862210  	93.624767 
4504.826634  	93.619240 
4505.791058  	93.600771 
4506.755483  	93.587254 
4507.719907  	93.617326 
4508.684332  	93.645586 
4509.648756  	93.569221 
4510.613181  	93.506753 
4511.577605  	93.573429 
4512.542030  	93.649989 
4513.506454  	93.694592 
4514.470879  	93.639430 
4515.435303  	93.532846 
4516.399727  	93.505428 
4517.364152  	93.533515 
4518.328576  	93.587709 
4519.293001  	93.639274 
4520.257425  	93.640656 
4521.221850  	93.593850 
4522.186274  	93.632985 
4523.150699  	93.607114 
4524.115123  	93.572014 
4525.079548  	93.612265 
4526.043972  	93.603485 
4527.008396  	93.580155 
4527.972821  	93.536587 
4528.937245  	93.531377 
4529.901670  	93.546685 
4530.866094  	93.615012 
4531.830519  	93.615799 
4532.794943  	93.531023 
4533.759368  	93.525472 
4534.723792  	93.563956 
4535.688217  	93.528254 
4536.652641  	93.557478 
4537.617065  	93.582966 
4538.581490  	93.657457 
4539.545914  	93.687350 
4540.510339  	93.680427 
4541.474763  	93.565624 
4542.439188  	93.511625 
4543.403612  	93.601372 
4544.368037  	93.612069 
4545.332461  	93.494917 
4546.296886  	93.490015 
4547.261310  	93.520776 
4548.225734  	93.551603 
4549.190159  	93.574522 
4550.154583  	93.620122 
4551.119008  	93.511847 
4552.083432  	93.444412 
4553.047857  	93.559514 
4554.012281  	93.683459 
4554.976706  	93.664065 
4555.941130  	93.607689 
4556.905555  	93.566629 
4557.869979  	93.625288 
4558.834404  	93.711270 
4559.798828  	93.655521 
4560.763252  	93.493890 
4561.727677  	93.493857 
4562.692101  	93.523508 
4563.656526  	93.584076 
4564.620950  	93.611696 
4565.585375  	93.552525 
4566.549799  	93.491347 
4567.514224  	93.580365 
4568.478648  	93.635047 
4569.443073  	93.650834 
4570.407497  	93.616497 
4571.371921  	93.579152 
4572.336346  	93.544957 
4573.300770  	93.572222 
4574.265195  	93.560915 
4575.229619  	93.570459 
4576.194044  	93.549583 
4577.158468  	93.536176 
4578.122893  	93.645803 
4579.087317  	93.661236 
4580.051742  	93.618047 
4581.016166  	93.629141 
4581.980590  	93.642336 
4582.945015  	93.656885 
4583.909439  	93.667012 
4584.873864  	93.674115 
4585.838288  	93.565548 
4586.802713  	93.620566 
4587.767137  	93.620437 
4588.731562  	93.538982 
4589.695986  	93.553587 
4590.660411  	93.568280 
4591.624835  	93.594672 
4592.589259  	93.631342 
4593.553684  	93.632913 
4594.518108  	93.522749 
4595.482533  	93.461627 
4596.446957  	93.551945 
4597.411382  	93.566367 
4598.375806  	93.550362 
4599.340231  	93.637961 
4600.304655  	93.668752 
4601.269080  	93.592656 
4602.233504  	93.593574 
4603.197928  	93.684445 
4604.162353  	93.706709 
4605.126777  	93.648013 
4606.091202  	93.659088 
4607.055626  	93.684294 
4608.020051  	93.687112 
4608.984475  	93.595678 
4609.948900  	93.575810 
4610.913324  	93.627958 
4611.877749  	93.624706 
4612.842173  	93.541913 
4613.806598  	93.566763 
4614.771022  	93.605892 
4615.735446  	93.593704 
4616.699871  	93.563742 
4617.664295  	93.527189 
4618.628720  	93.517064 
4619.593144  	93.481753 
4620.557569  	93.568152 
4621.521993  	93.559144 
4622.486418  	93.487781 
4623.450842  	93.568179 
4624.415267  	93.586774 
4625.379691  	93.598643 
4626.344115  	93.602244 
4627.308540  	93.581107 
4628.272964  	93.559276 
4629.237389  	93.527745 
4630.201813  	93.545131 
4631.166238  	93.586380 
4632.130662  	93.591140 
4633.095087  	93.596992 
4634.059511  	93.575409 
4635.023936  	93.610044 
4635.988360  	93.604841 
4636.952784  	93.553138 
4637.917209  	93.527785 
4638.881633  	93.461999 
4639.846058  	93.437375 
4640.810482  	93.533234 
4641.774907  	93.578696 
4642.739331  	93.551790 
4643.703756  	93.559996 
4644.668180  	93.640334 
4645.632605  	93.591191 
4646.597029  	93.600282 
4647.561453  	93.639987 
4648.525878  	93.686223 
4649.490302  	93.686804 
4650.454727  	93.626590 
4651.419151  	93.527207 
4652.383576  	93.491439 
4653.348000  	93.578086 
4654.312425  	93.671071 
4655.276849  	93.706512 
4656.241274  	93.604565 
4657.205698  	93.570954 
4658.170122  	93.539518 
4659.134547  	93.485518 
4660.098971  	93.493527 
4661.063396  	93.578354 
4662.027820  	93.583863 
4662.992245  	93.545469 
4663.956669  	93.602809 
4664.921094  	93.658147 
4665.885518  	93.686293 
4666.849943  	93.658751 
4667.814367  	93.595940 
4668.778791  	93.626912 
4669.743216  	93.685628 
4670.707640  	93.670255 
4671.672065  	93.559042 
4672.636489  	93.442047 
4673.600914  	93.508746 
4674.565338  	93.619276 
4675.529763  	93.658953 
4676.494187  	93.656462 
4677.458612  	93.669229 
4678.423036  	93.630441 
4679.387461  	93.634891 
4680.351885  	93.607460 
4681.316309  	93.525881 
4682.280734  	93.499084 
4683.245158  	93.497358 
4684.209583  	93.516050 
4685.174007  	93.633216 
4686.138432  	93.641498 
4687.102856  	93.577792 
4688.067281  	93.541116 
4689.031705  	93.594229 
4689.996130  	93.665132 
4690.960554  	93.668554 
4691.924978  	93.609145 
4692.889403  	93.535489 
4693.853827  	93.528376 
4694.818252  	93.562727 
4695.782676  	93.640324 
4696.747101  	93.625106 
4697.711525  	93.596917 
4698.675950  	93.624999 
4699.640374  	93.538821 