##TITLE=No Description
##DATA TYPE=INFRARED SPECTRUM
##XUNITS=1/CM
##YUNITS=%T
400.236149  	138.087850 
401.200574  	118.246141 
402.164998  	94.825466 
403.129423  	82.995139 
404.093847  	86.229063 
405.058272  	89.753879 
406.022696  	84.203339 
406.987120  	79.296687 
407.951545  	89.599679 
408.915969  	91.843191 
409.880394  	88.197078 
410.844818  	90.923941 
411.809243  	99.737861 
412.773667  	98.920248 
413.738092  	89.018503 
414.702516  	82.275451 
415.666941  	82.789812 
416.631365  	87.868957 
417.595789  	97.579136 
418.560214  	103.980579 
419.524638  	89.755362 
420.489063  	80.821998 
421.453487  	84.159055 
422.417912  	86.369000 
423.382336  	83.770889 
424.346761  	82.028101 
425.311185  	80.980266 
426.275610  	80.835822 
427.240034  	81.383471 
428.204458  	80.343080 
429.168883  	80.081733 
430.133307  	81.362690 
431.097732  	80.274998 
432.062156  	77.249910 
433.026581  	76.640259 
433.991005  	78.218954 
434.955430  	78.674787 
435.919854  	79.158723 
436.884279  	78.725719 
437.848703  	78.260463 
438.813127  	79.912956 
439.777552  	81.284071 
440.741976  	81.821632 
441.706401  	82.214893 
442.670825  	81.980597 
443.635250  	82.618416 
444.599674  	84.388920 
445.564099  	85.055195 
446.528523  	84.793709 
447.492948  	84.737299 
448.457372  	85.389033 
449.421796  	84.626698 
450.386221  	84.398238 
451.350645  	85.030850 
452.315070  	84.102749 
453.279494  	83.253259 
454.243919  	84.394764 
455.208343  	84.618177 
456.172768  	83.619570 
457.137192  	83.687086 
458.101617  	84.737314 
459.066041  	85.107162 
460.030466  	84.657991 
460.994890  	84.404135 
461.959314  	84.557070 
462.923739  	83.285829 
463.888163  	81.985550 
464.852588  	82.116664 
465.817012  	83.579790 
466.781437  	83.556855 
467.745861  	82.437156 
468.710286  	82.514819 
469.674710  	82.193019 
470.639135  	82.074736 
471.603559  	82.111167 
472.567983  	82.435741 
473.532408  	83.498769 
474.496832  	83.030346 
475.461257  	82.292730 
476.425681  	81.873809 
477.390106  	83.199637 
478.354530  	84.105960 
479.318955  	83.578361 
480.283379  	82.307844 
481.247804  	82.083242 
482.212228  	81.894226 
483.176652  	82.185653 
484.141077  	82.850248 
485.105501  	82.318600 
486.069926  	81.565707 
487.034350  	82.151707 
487.998775  	82.309099 
488.963199  	82.127717 
489.927624  	82.569754 
490.892048  	81.979760 
491.856473  	80.999544 
492.820897  	81.604541 
493.785321  	81.413075 
494.749746  	80.791402 
495.714170  	81.165381 
496.678595  	81.017889 
497.643019  	80.620059 
498.607444  	80.484507 
499.571868  	79.598045 
500.536293  	79.060853 
501.500717  	78.539182 
502.465142  	78.293749 
503.429566  	79.017336 
504.393990  	78.794539 
505.358415  	78.556370 
506.322839  	78.448638 
507.287264  	79.134149 
508.251688  	80.605953 
509.216113  	81.621368 
510.180537  	82.080659 
511.144962  	82.494988 
512.109386  	82.685557 
513.073811  	82.905365 
514.038235  	83.026711 
515.002660  	82.755517 
515.967084  	82.285303 
516.931508  	82.012331 
517.895933  	82.378767 
518.860357  	82.397503 
519.824782  	82.058956 
520.789206  	82.358321 
521.753631  	82.742274 
522.718055  	82.999788 
523.682480  	83.005272 
524.646904  	82.700490 
525.611329  	82.175455 
526.575753  	82.072686 
527.540177  	82.707875 
528.504602  	83.221473 
529.469026  	83.222946 
530.433451  	83.118463 
531.397875  	83.287895 
532.362300  	83.575667 
533.326724  	84.121168 
534.291149  	84.064207 
535.255573  	83.519626 
536.219998  	83.533844 
537.184422  	84.083485 
538.148846  	84.245776 
539.113271  	84.213736 
540.077695  	83.705688 
541.042120  	83.740994 
542.006544  	84.055303 
542.970969  	84.296594 
543.935393  	84.298955 
544.899818  	84.150840 
545.864242  	84.179281 
546.828667  	84.244064 
547.793091  	84.023968 
548.757515  	84.044397 
549.721940  	84.449054 
550.686364  	84.448986 
551.650789  	84.542219 
552.615213  	84.231871 
553.579638  	84.256759 
554.544062  	84.440507 
555.508487  	84.510565 
556.472911  	84.204518 
557.437336  	83.951374 
558.401760  	84.128428 
559.366184  	84.269008 
560.330609  	84.008508 
561.295033  	83.903482 
562.259458  	84.041987 
563.223882  	83.704670 
564.188307  	83.550429 
565.152731  	84.049047 
566.117156  	84.218966 
567.081580  	83.742959 
568.046005  	83.640890 
569.010429  	83.613566 
569.974853  	83.859856 
570.939278  	84.020395 
571.903702  	83.764712 
572.868127  	83.664672 
573.832551  	83.578190 
574.796976  	83.448227 
575.761400  	82.912413 
576.725825  	83.096873 
577.690249  	83.475889 
578.654674  	83.529550 
579.619098  	83.357729 
580.583523  	83.051127 
581.547947  	83.300956 
582.512371  	83.729726 
583.476796  	83.612911 
584.441220  	83.193830 
585.405645  	83.229645 
586.370069  	83.636193 
587.334494  	83.741449 
588.298918  	83.641341 
589.263343  	83.487333 
590.227767  	83.656426 
591.192192  	83.298980 
592.156616  	82.807397 
593.121040  	83.021234 
594.085465  	83.294439 
595.049889  	83.406717 
596.014314  	83.405356 
596.978738  	83.398038 
597.943163  	83.292871 
598.907587  	83.053627 
599.872012  	82.779767 
600.836436  	82.882239 
601.800861  	83.146219 
602.765285  	83.155076 
603.729709  	83.206163 
604.694134  	83.218483 
605.658558  	83.104579 
606.622983  	83.076881 
607.587407  	82.847543 
608.551832  	82.792509 
609.516256  	82.983258 
610.480681  	82.964674 
611.445105  	82.933578 
612.409530  	83.059717 
613.373954  	83.020248 
614.338378  	82.686196 
615.302803  	82.357716 
616.267227  	82.429705 
617.231652  	82.773772 
618.196076  	82.607877 
619.160501  	82.432949 
620.124925  	82.250219 
621.089350  	82.209036 
622.053774  	82.178260 
623.018199  	82.467802 
623.982623  	82.311907 
624.947047  	82.040966 
625.911472  	81.928893 
626.875896  	81.985043 
627.840321  	81.836004 
628.804745  	81.849140 
629.769170  	81.570458 
630.733594  	81.095426 
631.698019  	80.910700 
632.662443  	81.091305 
633.626868  	81.367219 
634.591292  	81.578093 
635.555717  	81.553329 
636.520141  	81.720413 
637.484565  	81.761317 
638.448990  	81.791352 
639.413414  	81.714946 
640.377839  	81.696469 
641.342263  	81.663380 
642.306688  	81.498781 
643.271112  	81.438849 
644.235537  	81.507929 
645.199961  	81.501473 
646.164386  	81.535352 
647.128810  	81.470106 
648.093234  	81.337509 
649.057659  	81.192354 
650.022083  	81.186697 
650.986508  	81.256952 
651.950932  	81.167811 
652.915357  	80.947469 
653.879781  	80.900161 
654.844206  	80.897154 
655.808630  	80.731761 
656.773055  	80.639374 
657.737479  	80.670732 
658.701903  	80.463145 
659.666328  	80.321004 
660.630752  	80.389954 
661.595177  	80.377694 
662.559601  	80.188079 
663.524026  	80.058014 
664.488450  	80.075178 
665.452875  	79.970201 
666.417299  	79.864157 
667.381724  	80.002794 
668.346148  	79.287660 
669.310572  	78.871672 
670.274997  	79.092043 
671.239421  	79.178642 
672.203846  	79.134812 
673.168270  	78.972883 
674.132695  	78.591721 
675.097119  	78.348873 
676.061544  	78.117929 
677.025968  	77.977229 
677.990393  	77.821865 
678.954817  	77.653992 
679.919241  	77.593973 
680.883666  	77.521399 
681.848090  	77.427209 
682.812515  	77.347546 
683.776939  	77.232649 
684.741364  	77.173989 
685.705788  	77.012829 
686.670213  	76.878295 
687.634637  	76.656134 
688.599062  	76.398581 
689.563486  	76.099122 
690.527910  	75.773367 
691.492335  	75.464582 
692.456759  	75.121137 
693.421184  	74.646633 
694.385608  	74.323644 
695.350033  	73.922314 
696.314457  	73.271661 
697.278882  	72.602639 
698.243306  	72.002044 
699.207731  	71.432718 
700.172155  	70.958291 
701.136580  	70.265073 
702.101004  	69.614447 
703.065428  	69.076355 
704.029853  	68.556587 
704.994277  	67.976889 
705.958702  	67.398680 
706.923126  	66.743724 
707.887551  	66.019031 
708.851975  	65.343006 
709.816400  	64.556038 
710.780824  	63.636844 
711.745249  	62.636453 
712.709673  	61.542405 
713.674097  	60.349154 
714.638522  	59.098893 
715.602946  	57.716634 
716.567371  	56.229467 
717.531795  	54.769876 
718.496220  	53.226960 
719.460644  	51.768945 
720.425069  	50.511349 
721.389493  	49.563518 
722.353918  	48.903077 
723.318342  	48.690529 
724.282766  	49.302468 
725.247191  	50.845891 
726.211615  	52.926621 
727.176040  	55.364860 
728.140464  	57.857072 
729.104889  	60.406539 
730.069313  	62.963791 
731.033738  	65.473664 
731.998162  	67.957361 
732.962587  	70.536316 
733.927011  	73.177785 
734.891435  	75.703169 
735.855860  	78.114655 
736.820284  	80.432401 
737.784709  	82.459881 
738.749133  	84.246481 
739.713558  	85.743195 
740.677982  	86.879970 
741.642407  	87.620034 
742.606831  	88.169354 
743.571256  	88.523647 
744.535680  	88.699022 
745.500104  	88.825971 
746.464529  	88.846083 
747.428953  	88.766268 
748.393378  	88.676464 
749.357802  	88.484209 
750.322227  	88.316414 
751.286651  	88.167969 
752.251076  	88.091450 
753.215500  	88.043032 
754.179925  	87.892617 
755.144349  	87.733996 
756.108774  	87.746752 
757.073198  	87.686804 
758.037622  	87.504348 
759.002047  	87.206433 
759.966471  	87.023835 
760.930896  	86.830416 
761.895320  	86.719889 
762.859745  	86.704399 
763.824169  	86.625028 
764.788594  	86.373997 
765.753018  	86.120909 
766.717443  	85.990802 
767.681867  	85.814876 
768.646291  	85.521234 
769.610716  	85.443046 
770.575140  	85.352435 
771.539565  	85.211026 
772.503989  	85.037744 
773.468414  	84.990202 
774.432838  	84.912319 
775.397263  	84.796871 
776.361687  	84.646210 
777.326112  	84.496895 
778.290536  	84.351064 
779.254960  	84.271370 
780.219385  	84.156156 
781.183809  	84.057836 
782.148234  	83.667276 
783.112658  	83.312713 
784.077083  	83.218911 
785.041507  	83.204973 
786.005932  	83.027809 
786.970356  	82.566958 
787.934781  	82.188812 
788.899205  	82.016898 
789.863629  	81.905171 
790.828054  	81.689464 
791.792478  	81.404826 
792.756903  	81.256810 
793.721327  	81.418944 
794.685752  	81.693842 
795.650176  	82.243307 
796.614601  	82.822212 
797.579025  	83.198613 
798.543450  	83.255192 
799.507874  	83.178148 
800.472298  	83.260088 
801.436723  	83.311164 
802.401147  	83.206875 
803.365572  	83.113105 
804.329996  	83.082538 
805.294421  	83.065533 
806.258845  	83.051066 
807.223270  	82.983193 
808.187694  	82.916109 
809.152119  	82.934059 
810.116543  	82.880222 
811.080967  	82.768368 
812.045392  	82.740402 
813.009816  	82.794588 
813.974241  	82.780654 
814.938665  	82.728196 
815.903090  	82.758161 
816.867514  	82.702876 
817.831939  	82.612849 
818.796363  	82.626204 
819.760788  	82.578478 
820.725212  	82.442149 
821.689637  	82.316957 
822.654061  	82.224342 
823.618485  	82.114804 
824.582910  	82.056870 
825.547334  	81.827163 
826.511759  	81.654569 
827.476183  	81.598939 
828.440608  	81.493775 
829.405032  	81.379903 
830.369457  	81.232291 
831.333881  	81.057946 
832.298306  	80.900588 
833.262730  	80.649866 
834.227154  	80.436015 
835.191579  	80.213553 
836.156003  	79.940025 
837.120428  	79.587858 
838.084852  	79.262578 
839.049277  	79.045566 
840.013701  	78.836761 
840.978126  	78.469402 
841.942550  	78.185487 
842.906975  	77.934324 
843.871399  	77.623813 
844.835823  	77.345647 
845.800248  	77.224355 
846.764672  	77.235845 
847.729097  	77.353900 
848.693521  	77.511673 
849.657946  	77.804773 
850.622370  	78.222593 
851.586795  	78.639583 
852.551219  	78.754653 
853.515644  	78.897061 
854.480068  	79.072498 
855.444492  	79.194590 
856.408917  	79.276482 
857.373341  	79.384111 
858.337766  	79.546234 
859.302190  	79.617231 
860.266615  	79.621811 
861.231039  	79.585556 
862.195464  	79.409763 
863.159888  	79.149542 
864.124313  	78.914416 
865.088737  	78.531170 
866.053161  	77.958551 
867.017586  	77.179304 
867.982010  	76.180080 
868.946435  	74.904994 
869.910859  	73.328192 
870.875284  	71.738479 
871.839708  	70.946398 
872.804133  	71.724302 
873.768557  	73.628442 
874.732982  	75.509099 
875.697406  	76.990580 
876.661831  	78.057575 
877.626255  	78.906700 
878.590679  	79.661582 
879.555104  	80.318669 
880.519528  	80.872090 
881.483953  	81.311105 
882.448377  	81.652889 
883.412802  	82.007707 
884.377226  	82.336340 
885.341651  	82.572741 
886.306075  	82.663944 
887.270500  	82.740936 
888.234924  	82.856775 
889.199348  	82.823444 
890.163773  	82.712314 
891.128197  	82.676867 
892.092622  	82.670924 
893.057046  	82.552101 
894.021471  	82.420891 
894.985895  	82.396373 
895.950320  	82.317319 
896.914744  	82.247798 
897.879169  	82.190341 
898.843593  	82.167408 
899.808017  	82.200640 
900.772442  	82.266845 
901.736866  	82.338306 
902.701291  	82.458520 
903.665715  	82.587871 
904.630140  	82.678567 
905.594564  	82.672584 
906.558989  	82.746915 
907.523413  	82.902292 
908.487838  	82.979987 
909.452262  	83.063963 
910.416686  	83.186353 
911.381111  	83.230888 
912.345535  	83.200403 
913.309960  	83.145070 
914.274384  	83.111738 
915.238809  	83.100586 
916.203233  	83.021831 
917.167658  	82.975024 
918.132082  	82.960210 
919.096507  	82.932725 
920.060931  	82.888122 
921.025355  	82.825658 
921.989780  	82.734530 
922.954204  	82.654902 
923.918629  	82.556914 
924.883053  	82.459074 
925.847478  	82.370663 
926.811902  	82.279779 
927.776327  	82.242136 
928.740751  	82.167951 
929.705176  	82.083905 
930.669600  	82.000343 
931.634024  	81.912985 
932.598449  	81.820684 
933.562873  	81.752495 
934.527298  	81.671524 
935.491722  	81.520106 
936.456147  	81.406587 
937.420571  	81.381175 
938.384996  	81.309126 
939.349420  	81.143856 
940.313845  	81.006460 
941.278269  	80.946956 
942.242694  	80.877067 
943.207118  	80.744529 
944.171542  	80.637402 
945.135967  	80.545950 
946.100391  	80.391681 
947.064816  	80.209085 
948.029240  	80.071835 
948.993665  	79.952806 
949.958089  	79.803850 
950.922514  	79.639424 
951.886938  	79.513455 
952.851363  	79.338374 
953.815787  	79.127011 
954.780211  	78.963798 
955.744636  	78.826729 
956.709060  	78.676621 
957.673485  	78.459605 
958.637909  	78.188962 
959.602334  	77.929587 
960.566758  	77.701850 
961.531183  	77.469663 
962.495607  	77.234740 
963.460032  	76.997288 
964.424456  	76.759982 
965.388880  	76.465384 
966.353305  	76.221760 
967.317729  	76.107035 
968.282154  	75.995859 
969.246578  	75.914121 
970.211003  	75.942326 
971.175427  	76.054257 
972.139852  	76.218924 
973.104276  	76.460711 
974.068701  	76.783684 
975.033125  	77.154099 
975.997549  	77.477524 
976.961974  	77.764959 
977.926398  	78.048378 
978.890823  	78.266335 
979.855247  	78.408780 
980.819672  	78.526063 
981.784096  	78.641936 
982.748521  	78.711272 
983.712945  	78.691075 
984.677370  	78.592573 
985.641794  	78.524290 
986.606218  	78.447206 
987.570643  	78.335309 
988.535067  	78.256936 
989.499492  	78.219695 
990.463916  	78.155876 
991.428341  	78.050067 
992.392765  	77.907612 
993.357190  	77.761368 
994.321614  	77.627271 
995.286039  	77.481919 
996.250463  	77.307896 
997.214888  	77.072560 
998.179312  	76.848876 
999.143736  	76.610400 
1000.108161  	76.335963 
1001.072585  	76.047761 
1002.037010  	75.740317 
1003.001434  	75.415726 
1003.965859  	75.098571 
1004.930283  	74.700590 
1005.894708  	74.191642 
1006.859132  	73.631649 
1007.823557  	72.994706 
1008.787981  	72.289843 
1009.752405  	71.491169 
1010.716830  	70.572423 
1011.681254  	69.515166 
1012.645679  	68.296246 
1013.610103  	66.992671 
1014.574528  	65.726083 
1015.538952  	64.783568 
1016.503377  	64.427540 
1017.467801  	64.725276 
1018.432226  	65.608526 
1019.396650  	66.873305 
1020.361074  	68.286578 
1021.325499  	69.731880 
1022.289923  	71.076823 
1023.254348  	72.486310 
1024.218772  	74.118291 
1025.183197  	75.845834 
1026.147621  	77.351402 
1027.112046  	78.410591 
1028.076470  	78.893732 
1029.040895  	78.925185 
1030.005319  	78.769093 
1030.969743  	78.525365 
1031.934168  	78.233583 
1032.898592  	77.946065 
1033.863017  	77.620414 
1034.827441  	77.212903 
1035.791866  	76.797121 
1036.756290  	76.498116 
1037.720715  	76.288687 
1038.685139  	76.046993 
1039.649564  	75.834305 
1040.613988  	75.666230 
1041.578412  	75.477970 
1042.542837  	75.278765 
1043.507261  	75.183838 
1044.471686  	75.143383 
1045.436110  	75.084618 
1046.400535  	75.029709 
1047.364959  	74.975221 
1048.329384  	74.924426 
1049.293808  	74.917289 
1050.258233  	74.907812 
1051.222657  	74.882693 
1052.187081  	74.805404 
1053.151506  	74.661324 
1054.115930  	74.539790 
1055.080355  	74.415883 
1056.044779  	74.208180 
1057.009204  	73.982222 
1057.973628  	73.732610 
1058.938053  	73.465624 
1059.902477  	73.129760 
1060.866902  	72.739878 
1061.831326  	72.388371 
1062.795751  	72.047259 
1063.760175  	71.636679 
1064.724599  	71.200514 
1065.689024  	70.775219 
1066.653448  	70.348539 
1067.617873  	69.848554 
1068.582297  	69.329590 
1069.546722  	68.827751 
1070.511146  	68.287339 
1071.475571  	67.690328 
1072.439995  	67.067792 
1073.404420  	66.481299 
1074.368844  	65.843089 
1075.333268  	65.129527 
1076.297693  	64.362840 
1077.262117  	63.623389 
1078.226542  	62.973264 
1079.190966  	62.325403 
1080.155391  	61.654569 
1081.119815  	61.082195 
1082.084240  	60.596738 
1083.048664  	60.152199 
1084.013089  	59.789097 
1084.977513  	59.459671 
1085.941937  	59.106825 
1086.906362  	58.777030 
1087.870786  	58.552242 
1088.835211  	58.366734 
1089.799635  	58.109137 
1090.764060  	57.860635 
1091.728484  	57.716193 
1092.692909  	57.597673 
1093.657333  	57.479850 
1094.621758  	57.412370 
1095.586182  	57.465855 
1096.550606  	57.610740 
1097.515031  	57.836348 
1098.479455  	58.103638 
1099.443880  	58.463133 
1100.408304  	58.924732 
1101.372729  	59.408472 
1102.337153  	59.953563 
1103.301578  	60.568645 
1104.266002  	61.218316 
1105.230427  	61.885852 
1106.194851  	62.580360 
1107.159275  	63.262815 
1108.123700  	63.863310 
1109.088124  	64.431387 
1110.052549  	64.928410 
1111.016973  	65.317441 
1111.981398  	65.573280 
1112.945822  	65.726777 
1113.910247  	65.779698 
1114.874671  	65.707904 
1115.839096  	65.563803 
1116.803520  	65.431457 
1117.767945  	65.374648 
1118.732369  	65.457536 
1119.696793  	65.631014 
1120.661218  	65.885810 
1121.625642  	66.238992 
1122.590067  	66.684371 
1123.554491  	67.238496 
1124.518916  	67.855670 
1125.483340  	68.549271 
1126.447765  	69.286154 
1127.412189  	70.089802 
1128.376614  	70.939249 
1129.341038  	71.839831 
1130.305462  	72.780364 
1131.269887  	73.747834 
1132.234311  	74.746119 
1133.198736  	75.747628 
1134.163160  	76.717499 
1135.127585  	77.666270 
1136.092009  	78.559329 
1137.056434  	79.435417 
1138.020858  	80.296656 
1138.985283  	81.037717 
1139.949707  	81.689217 
1140.914131  	82.330322 
1141.878556  	82.895063 
1142.842980  	83.383374 
1143.807405  	83.859745 
1144.771829  	84.336533 
1145.736254  	84.746870 
1146.700678  	85.093823 
1147.665103  	85.373284 
1148.629527  	85.629462 
1149.593952  	85.859985 
1150.558376  	86.069805 
1151.522800  	86.255345 
1152.487225  	86.405415 
1153.451649  	86.497148 
1154.416074  	86.597334 
1155.380498  	86.650543 
1156.344923  	86.678670 
1157.309347  	86.714031 
1158.273772  	86.708887 
1159.238196  	86.636617 
1160.202621  	86.600637 
1161.167045  	86.586999 
1162.131469  	86.521388 
1163.095894  	86.405723 
1164.060318  	86.271377 
1165.024743  	86.107464 
1165.989167  	85.940358 
1166.953592  	85.747626 
1167.918016  	85.448869 
1168.882441  	85.105244 
1169.846865  	84.757273 
1170.811290  	84.412382 
1171.775714  	84.092876 
1172.740138  	83.845611 
1173.704563  	83.638060 
1174.668987  	83.448148 
1175.633412  	83.376466 
1176.597836  	83.375707 
1177.562261  	83.379955 
1178.526685  	83.380081 
1179.491110  	83.368483 
1180.455534  	83.348742 
1181.419959  	83.353631 
1182.384383  	83.300011 
1183.348808  	83.187720 
1184.313232  	83.093159 
1185.277656  	82.941180 
1186.242081  	82.724188 
1187.206505  	82.501211 
1188.170930  	82.283892 
1189.135354  	81.982099 
1190.099779  	81.667179 
1191.064203  	81.387775 
1192.028628  	81.058705 
1192.993052  	80.684933 
1193.957477  	80.301388 
1194.921901  	79.897760 
1195.886325  	79.488351 
1196.850750  	79.074586 
1197.815174  	78.634306 
1198.779599  	78.216458 
1199.744023  	77.833683 
1200.708448  	77.392116 
1201.672872  	76.934847 
1202.637297  	76.544337 
1203.601721  	76.155272 
1204.566146  	75.719404 
1205.530570  	75.292369 
1206.494994  	74.864352 
1207.459419  	74.439278 
1208.423843  	74.007826 
1209.388268  	73.558199 
1210.352692  	73.096829 
1211.317117  	72.611025 
1212.281541  	72.093510 
1213.245966  	71.625327 
1214.210390  	71.125152 
1215.174815  	70.571369 
1216.139239  	69.975474 
1217.103663  	69.376697 
1218.068088  	68.780038 
1219.032512  	68.169106 
1219.996937  	67.570310 
1220.961361  	67.015543 
1221.925786  	66.494881 
1222.890210  	65.991254 
1223.854635  	65.505198 
1224.819059  	64.963187 
1225.783484  	64.418137 
1226.747908  	63.889064 
1227.712332  	63.301033 
1228.676757  	62.640381 
1229.641181  	61.928261 
1230.605606  	61.220774 
1231.570030  	60.490044 
1232.534455  	59.721162 
1233.498879  	58.968547 
1234.463304  	58.286061 
1235.427728  	57.646315 
1236.392153  	57.074355 
1237.356577  	56.586245 
1238.321002  	56.227434 
1239.285426  	55.985982 
1240.249850  	55.840542 
1241.214275  	55.790518 
1242.178699  	55.853509 
1243.143124  	56.026727 
1244.107548  	56.282762 
1245.071973  	56.643919 
1246.036397  	57.067517 
1247.000822  	57.513805 
1247.965246  	57.990692 
1248.929671  	58.458964 
1249.894095  	58.943579 
1250.858519  	59.449679 
1251.822944  	59.921383 
1252.787368  	60.340259 
1253.751793  	60.743289 
1254.716217  	61.099928 
1255.680642  	61.405298 
1256.645066  	61.701295 
1257.609491  	61.945856 
1258.573915  	62.129674 
1259.538340  	62.307980 
1260.502764  	62.585479 
1261.467188  	63.062999 
1262.431613  	63.550072 
1263.396037  	64.075211 
1264.360462  	64.680276 
1265.324886  	65.320718 
1266.289311  	66.000946 
1267.253735  	66.768629 
1268.218160  	67.539935 
1269.182584  	68.279602 
1270.147009  	68.995611 
1271.111433  	69.740024 
1272.075857  	70.471488 
1273.040282  	71.253291 
1274.004706  	71.920748 
1274.969131  	72.527845 
1275.933555  	73.128907 
1276.897980  	73.692348 
1277.862404  	74.198713 
1278.826829  	74.701263 
1279.791253  	75.152048 
1280.755678  	75.599310 
1281.720102  	76.081513 
1282.684526  	76.554536 
1283.648951  	76.994582 
1284.613375  	77.415984 
1285.577800  	77.826901 
1286.542224  	78.203016 
1287.506649  	78.507732 
1288.471073  	78.925542 
1289.435498  	79.512324 
1290.399922  	80.054976 
1291.364347  	80.569673 
1292.328771  	81.128603 
1293.293195  	81.661757 
1294.257620  	82.189875 
1295.222044  	82.687444 
1296.186469  	83.145869 
1297.150893  	83.668214 
1298.115318  	84.323746 
1299.079742  	84.855611 
1300.044167  	85.353114 
1301.008591  	85.840564 
1301.973016  	86.275133 
1302.937440  	86.612444 
1303.901865  	86.909802 
1304.866289  	87.200109 
1305.830713  	87.466363 
1306.795138  	87.683181 
1307.759562  	87.838293 
1308.723987  	88.041437 
1309.688411  	88.370194 
1310.652836  	88.605628 
1311.617260  	88.678705 
1312.581685  	88.480473 
1313.546109  	88.659070 
1314.510534  	88.950775 
1315.474958  	89.239072 
1316.439382  	89.231898 
1317.403807  	89.169982 
1318.368231  	89.212575 
1319.332656  	89.147421 
1320.297080  	89.500367 
1321.261505  	89.776599 
1322.225929  	89.941325 
1323.190354  	89.947355 
1324.154778  	89.952648 
1325.119203  	89.931656 
1326.083627  	89.822012 
1327.048051  	89.633247 
1328.012476  	89.365197 
1328.976900  	88.958566 
1329.941325  	88.361994 
1330.905749  	87.685231 
1331.870174  	86.854956 
1332.834598  	85.764707 
1333.799023  	84.506354 
1334.763447  	83.204725 
1335.727872  	81.763705 
1336.692296  	80.205188 
1337.656720  	79.253203 
1338.621145  	78.245123 
1339.585569  	77.536289 
1340.549994  	78.140983 
1341.514418  	79.940125 
1342.478843  	81.456338 
1343.443267  	82.694085 
1344.407692  	84.000457 
1345.372116  	85.303011 
1346.336541  	86.461203 
1347.300965  	87.439160 
1348.265389  	88.188332 
1349.229814  	88.674191 
1350.194238  	89.209126 
1351.158663  	89.671891 
1352.123087  	89.941747 
1353.087512  	90.168237 
1354.051936  	90.192477 
1355.016361  	90.042344 
1355.980785  	90.296888 
1356.945210  	90.424378 
1357.909634  	90.300656 
1358.874059  	90.296782 
1359.838483  	90.238333 
1360.802907  	89.542774 
1361.767332  	88.947562 
1362.731756  	88.066610 
1363.696181  	87.988803 
1364.660605  	89.082648 
1365.625030  	89.219908 
1366.589454  	89.059059 
1367.553879  	88.669145 
1368.518303  	88.033361 
1369.482728  	88.012869 
1370.447152  	88.397144 
1371.411576  	88.380582 
1372.376001  	88.217971 
1373.340425  	87.539908 
1374.304850  	86.991296 
1375.269274  	87.444215 
1376.233699  	88.269081 
1377.198123  	88.435998 
1378.162548  	88.189932 
1379.126972  	88.255385 
1380.091397  	88.388853 
1381.055821  	88.559485 
1382.020245  	88.603799 
1382.984670  	88.583410 
1383.949094  	88.582778 
1384.913519  	88.568244 
1385.877943  	88.152067 
1386.842368  	87.159579 
1387.806792  	86.955001 
1388.771217  	87.983184 
1389.735641  	88.414146 
1390.700066  	88.333568 
1391.664490  	88.304003 
1392.628914  	88.255121 
1393.593339  	87.645299 
1394.557763  	86.340154 
1395.522188  	86.035786 
1396.486612  	86.571738 
1397.451037  	86.357483 
1398.415461  	85.499774 
1399.379886  	85.015473 
1400.344310  	85.372867 
1401.308735  	85.381048 
1402.273159  	84.746827 
1403.237583  	83.930543 
1404.202008  	82.649384 
1405.166432  	81.106224 
1406.130857  	80.746180 
1407.095281  	80.553064 
1408.059706  	80.127389 
1409.024130  	80.057044 
1409.988555  	80.311231 
1410.952979  	81.079121 
1411.917404  	82.151809 
1412.881828  	83.858706 
1413.846252  	85.456139 
1414.810677  	86.708370 
1415.775101  	87.402976 
1416.739526  	87.672306 
1417.703950  	87.798155 
1418.668375  	87.734701 
1419.632799  	87.714808 
1420.597224  	89.705571 
1421.561648  	90.508913 
1422.526073  	90.638230 
1423.490497  	89.811207 
1424.454922  	89.536202 
1425.419346  	90.630681 
1426.383770  	90.979576 
1427.348195  	90.875007 
1428.312619  	90.564699 
1429.277044  	90.066635 
1430.241468  	89.635679 
1431.205893  	90.044198 
1432.170317  	90.025450 
1433.134742  	89.702573 
1434.099166  	89.750704 
1435.063591  	89.462459 
1436.028015  	88.132291 
1436.992439  	87.173638 
1437.956864  	88.636640 
1438.921288  	89.307710 
1439.885713  	89.377146 
1440.850137  	89.347062 
1441.814562  	89.304378 
1442.778986  	89.301714 
1443.743411  	89.235287 
1444.707835  	89.142089 
1445.672260  	88.995868 
1446.636684  	88.729910 
1447.601108  	87.903389 
1448.565533  	87.807339 
1449.529957  	88.607548 
1450.494382  	88.761535 
1451.458806  	88.301145 
1452.423231  	87.923302 
1453.387655  	88.309197 
1454.352080  	87.940588 
1455.316504  	86.816202 
1456.280929  	85.906129 
1457.245353  	85.286233 
1458.209777  	85.554604 
1459.174202  	86.495234 
1460.138626  	87.971547 
1461.103051  	88.827499 
1462.067475  	89.041481 
1463.031900  	89.063444 
1463.996324  	88.619955 
1464.960749  	87.707577 
1465.925173  	88.246074 
1466.889598  	88.804419 
1467.854022  	88.791053 
1468.818446  	88.714064 
1469.782871  	88.393297 
1470.747295  	87.681966 
1471.711720  	86.028230 
1472.676144  	85.015527 
1473.640569  	85.862416 
1474.604993  	87.448761 
1475.569418  	87.669166 
1476.533842  	87.288703 
1477.498267  	88.644571 
1478.462691  	89.464270 
1479.427116  	89.665692 
1480.391540  	89.520083 
1481.355964  	89.123185 
1482.320389  	89.703547 
1483.284813  	90.275723 
1484.249238  	90.444203 
1485.213662  	90.303359 
1486.178087  	89.819909 
1487.142511  	89.283390 
1488.106936  	89.395576 
1489.071360  	88.546226 
1490.035785  	87.195867 
1491.000209  	88.409878 
1491.964633  	90.048816 
1492.929058  	90.690598 
1493.893482  	90.689133 
1494.857907  	90.331013 
1495.822331  	89.279866 
1496.786756  	88.639061 
1497.751180  	89.111290 
1498.715605  	88.476696 
1499.680029  	88.424036 
1500.644454  	88.577148 
1501.608878  	87.795437 
1502.573302  	87.273022 
1503.537727  	86.967485 
1504.502151  	86.094808 
1505.466576  	84.407763 
1506.431000  	81.606630 
1507.395425  	81.578316 
1508.359849  	84.077261 
1509.324274  	85.983703 
1510.288698  	87.447893 
1511.253123  	88.785573 
1512.217547  	88.766746 
1513.181971  	89.504713 
1514.146396  	89.951340 
1515.110820  	89.029336 
1516.075245  	87.949106 
1517.039669  	86.670437 
1518.004094  	88.353699 
1518.968518  	89.556613 
1519.932943  	88.577948 
1520.897367  	86.188472 
1521.861792  	86.537033 
1522.826216  	87.817015 
1523.790640  	88.829688 
1524.755065  	88.451771 
1525.719489  	87.995084 
1526.683914  	88.564999 
1527.648338  	88.248784 
1528.612763  	88.684146 
1529.577187  	89.748977 
1530.541612  	90.084561 
1531.506036  	89.324218 
1532.470461  	88.772107 
1533.434885  	87.904561 
1534.399309  	88.290561 
1535.363734  	89.209057 
1536.328158  	89.664742 
1537.292583  	89.768876 
1538.257007  	88.754443 
1539.221432  	86.188455 
1540.185856  	86.006727 
1541.150281  	87.349049 
1542.114705  	87.309651 
1543.079130  	87.353354 
1544.043554  	87.511001 
1545.007979  	87.226655 
1545.972403  	88.374162 
1546.936827  	89.754740 
1547.901252  	89.991766 
1548.865676  	89.474311 
1549.830101  	87.782033 
1550.794525  	88.245604 
1551.758950  	89.616922 
1552.723374  	89.632455 
1553.687799  	88.753048 
1554.652223  	87.788039 
1555.616648  	88.756131 
1556.581072  	88.920497 
1557.545496  	87.675977 
1558.509921  	83.914253 
1559.474345  	83.334510 
1560.438770  	86.198462 
1561.403194  	88.583902 
1562.367619  	89.349507 
1563.332043  	89.508988 
1564.296468  	89.115525 
1565.260892  	88.811015 
1566.225317  	89.340397 
1567.189741  	89.497284 
1568.154165  	89.056605 
1569.118590  	87.696467 
1570.083014  	87.359488 
1571.047439  	88.655061 
1572.011863  	88.980529 
1572.976288  	88.850762 
1573.940712  	88.647486 
1574.905137  	88.142787 
1575.869561  	86.980888 
1576.833986  	86.391142 
1577.798410  	87.298560 
1578.762834  	87.973555 
1579.727259  	88.341198 
1580.691683  	88.626541 
1581.656108  	88.838204 
1582.620532  	89.018756 
1583.584957  	89.192861 
1584.549381  	89.372803 
1585.513806  	89.486682 
1586.478230  	89.573420 
1587.442655  	89.619330 
1588.407079  	89.601031 
1589.371503  	89.432751 
1590.335928  	89.354063 
1591.300352  	89.405673 
1592.264777  	89.437009 
1593.229201  	89.421722 
1594.193626  	89.148833 
1595.158050  	89.052185 
1596.122475  	89.158431 
1597.086899  	89.219867 
1598.051324  	89.308849 
1599.015748  	89.266973 
1599.980173  	89.208081 
1600.944597  	88.980951 
1601.909021  	88.838697 
1602.873446  	88.618545 
1603.837870  	88.608862 
1604.802295  	88.795863 
1605.766719  	88.736239 
1606.731144  	88.359967 
1607.695568  	88.157359 
1608.659993  	88.124275 
1609.624417  	87.778556 
1610.588842  	87.980069 
1611.553266  	88.132626 
1612.517690  	88.093199 
1613.482115  	88.076771 
1614.446539  	87.960051 
1615.410964  	87.553116 
1616.375388  	86.637377 
1617.339813  	86.580937 
1618.304237  	87.552248 
1619.268662  	87.914453 
1620.233086  	87.938396 
1621.197511  	87.891556 
1622.161935  	87.479773 
1623.126359  	86.548927 
1624.090784  	86.662191 
1625.055208  	87.493368 
1626.019633  	87.657310 
1626.984057  	87.369020 
1627.948482  	86.856843 
1628.912906  	87.292057 
1629.877331  	87.622798 
1630.841755  	87.594436 
1631.806180  	87.526658 
1632.770604  	87.456556 
1633.735028  	87.118360 
1634.699453  	86.160020 
1635.663877  	84.515727 
1636.628302  	85.420654 
1637.592726  	85.676335 
1638.557151  	86.379728 
1639.521575  	86.806760 
1640.486000  	86.790404 
1641.450424  	86.781564 
1642.414849  	86.679723 
1643.379273  	86.679612 
1644.343697  	86.576519 
1645.308122  	85.794540 
1646.272546  	84.315951 
1647.236971  	83.715681 
1648.201395  	84.080539 
1649.165820  	85.394603 
1650.130244  	85.914912 
1651.094669  	85.618405 
1652.059093  	84.590954 
1653.023518  	81.657504 
1653.987942  	81.396084 
1654.952366  	83.527131 
1655.916791  	84.815756 
1656.881215  	85.096040 
1657.845640  	85.246275 
1658.810064  	85.316226 
1659.774489  	85.225485 
1660.738913  	84.799315 
1661.703338  	84.200858 
1662.667762  	83.441389 
1663.632187  	83.625223 
1664.596611  	83.992032 
1665.561036  	83.923905 
1666.525460  	83.736741 
1667.489884  	83.168060 
1668.454309  	81.810993 
1669.418733  	80.902476 
1670.383158  	81.616890 
1671.347582  	81.338533 
1672.312007  	81.394964 
1673.276431  	81.718844 
1674.240856  	81.248555 
1675.205280  	80.036601 
1676.169705  	80.162728 
1677.134129  	80.658152 
1678.098553  	80.487821 
1679.062978  	79.817189 
1680.027402  	78.413598 
1680.991827  	78.243577 
1681.956251  	78.577859 
1682.920676  	77.428045 
1683.885100  	74.258976 
1684.849525  	74.185140 
1685.813949  	76.871820 
1686.778374  	77.334829 
1687.742798  	76.676232 
1688.707222  	75.963654 
1689.671647  	75.804994 
1690.636071  	75.517642 
1691.600496  	75.491869 
1692.564920  	75.054327 
1693.529345  	74.253188 
1694.493769  	73.150773 
1695.458194  	71.403065 
1696.422618  	69.759235 
1697.387043  	69.761083 
1698.351467  	69.246263 
1699.315891  	68.024109 
1700.280316  	64.944672 
1701.244740  	64.921154 
1702.209165  	65.218818 
1703.173589  	64.491105 
1704.138014  	63.068672 
1705.102438  	61.764719 
1706.066863  	60.760640 
1707.031287  	59.719983 
1707.995712  	59.366107 
1708.960136  	58.820177 
1709.924560  	57.882620 
1710.888985  	57.368458 
1711.853409  	57.343142 
1712.817834  	57.020940 
1713.782258  	56.554482 
1714.746683  	56.288284 
1715.711107  	57.147204 
1716.675532  	57.688008 
1717.639956  	57.367279 
1718.604381  	58.950524 
1719.568805  	61.610448 
1720.533230  	63.109636 
1721.497654  	64.207481 
1722.462078  	65.177290 
1723.426503  	65.958143 
1724.390927  	67.270011 
1725.355352  	68.567717 
1726.319776  	69.636787 
1727.284201  	70.700486 
1728.248625  	71.746486 
1729.213050  	72.177297 
1730.177474  	72.539630 
1731.141899  	74.436254 
1732.106323  	75.491084 
1733.070747  	75.268192 
1734.035172  	74.633534 
1734.999596  	77.717980 
1735.964021  	80.284813 
1736.928445  	81.486743 
1737.892870  	82.475080 
1738.857294  	83.169060 
1739.821719  	83.619601 
1740.786143  	85.457439 
1741.750568  	86.764981 
1742.714992  	86.851126 
1743.679416  	86.901877 
1744.643841  	88.410499 
1745.608265  	89.513194 
1746.572690  	89.756042 
1747.537114  	89.762708 
1748.501539  	89.773554 
1749.465963  	90.195252 
1750.430388  	90.684645 
1751.394812  	90.158554 
1752.359237  	91.366991 
1753.323661  	92.532021 
1754.288085  	93.030981 
1755.252510  	93.111399 
1756.216934  	92.503678 
1757.181359  	91.904326 
1758.145783  	92.543917 
1759.110208  	92.991912 
1760.074632  	93.147618 
1761.039057  	92.568675 
1762.003481  	91.656663 
1762.967906  	92.610224 
1763.932330  	93.303335 
1764.896754  	93.427934 
1765.861179  	93.435083 
1766.825603  	93.253612 
1767.790028  	92.379544 
1768.754452  	92.111670 
1769.718877  	92.993780 
1770.683301  	92.719061 
1771.647726  	91.677103 
1772.612150  	91.241728 
1773.576575  	92.214842 
1774.540999  	92.817691 
1775.505423  	92.444289 
1776.469848  	92.675534 
1777.434272  	93.294055 
1778.398697  	93.107332 
1779.363121  	92.767167 
1780.327546  	92.326088 
1781.291970  	92.291274 
1782.256395  	92.953580 
1783.220819  	93.234229 
1784.185244  	92.906102 
1785.149668  	92.366745 
1786.114093  	92.830853 
1787.078517  	93.194735 
1788.042941  	93.194824 
1789.007366  	93.131952 
1789.971790  	92.799089 
1790.936215  	91.875697 
1791.900639  	91.458578 
1792.865064  	91.443264 
1793.829488  	92.280003 
1794.793913  	92.620652 
1795.758337  	91.991842 
1796.722762  	92.062704 
1797.687186  	92.798541 
1798.651610  	92.765094 
1799.616035  	92.150947 
1800.580459  	92.096178 
1801.544884  	91.915293 
1802.509308  	91.741791 
1803.473733  	92.474688 
1804.438157  	92.901440 
1805.402582  	92.861010 
1806.367006  	92.821163 
1807.331431  	92.569805 
1808.295855  	92.450575 
1809.260279  	92.719406 
1810.224704  	92.282825 
1811.189128  	91.886023 
1812.153553  	92.217961 
1813.117977  	92.591512 
1814.082402  	92.903696 
1815.046826  	92.907191 
1816.011251  	92.907042 
1816.975675  	92.648396 
1817.940100  	92.506034 
1818.904524  	92.794022 
1819.868948  	92.887432 
1820.833373  	92.814878 
1821.797797  	92.739442 
1822.762222  	92.520512 
1823.726646  	92.499472 
1824.691071  	91.962879 
1825.655495  	91.400136 
1826.619920  	92.358957 
1827.584344  	92.706715 
1828.548769  	92.238968 
1829.513193  	91.148699 
1830.477617  	91.220382 
1831.442042  	92.355786 
1832.406466  	92.676188 
1833.370891  	92.528879 
1834.335315  	92.701941 
1835.299740  	92.885373 
1836.264164  	92.720314 
1837.228589  	92.274475 
1838.193013  	92.471273 
1839.157438  	92.815005 
1840.121862  	92.871991 
1841.086287  	92.807636 
1842.050711  	92.468182 
1843.015135  	92.142583 
1843.979560  	91.442354 
1844.943984  	91.329109 
1845.908409  	92.157607 
1846.872833  	92.373095 
1847.837258  	91.960714 
1848.801682  	92.232482 
1849.766107  	92.823629 
1850.730531  	93.039261 
1851.694956  	93.008731 
1852.659380  	92.985875 
1853.623804  	93.039405 
1854.588229  	93.027251 
1855.552653  	93.014164 
1856.517078  	92.984229 
1857.481502  	92.985187 
1858.445927  	92.857493 
1859.410351  	92.789778 
1860.374776  	92.798385 
1861.339200  	92.687877 
1862.303625  	92.721314 
1863.268049  	92.853900 
1864.232473  	92.877768 
1865.196898  	92.901076 
1866.161322  	92.602580 
1867.125747  	92.197557 
1868.090171  	91.645922 
1869.054596  	91.186136 
1870.019020  	91.669533 
1870.983445  	92.420919 
1871.947869  	92.867518 
1872.912294  	93.096032 
1873.876718  	93.062708 
1874.841142  	92.979128 
1875.805567  	92.944381 
1876.769991  	92.955557 
1877.734416  	92.996412 
1878.698840  	92.919373 
1879.663265  	92.773211 
1880.627689  	92.857009 
1881.592114  	92.959444 
1882.556538  	92.911225 
1883.520963  	92.921054 
1884.485387  	92.837851 
1885.449811  	92.703974 
1886.414236  	92.898529 
1887.378660  	92.969785 
1888.343085  	92.736377 
1889.307509  	91.959184 
1890.271934  	91.914171 
1891.236358  	92.574885 
1892.200783  	92.759489 
1893.165207  	92.794511 
1894.129632  	92.714456 
1895.094056  	92.248747 
1896.058480  	92.346842 
1897.022905  	92.795947 
1897.987329  	92.817395 
1898.951754  	92.729718 
1899.916178  	92.790766 
1900.880603  	92.773696 
1901.845027  	92.670017 
1902.809452  	92.799998 
1903.773876  	92.830891 
1904.738301  	92.780942 
1905.702725  	92.780033 
1906.667150  	92.740071 
1907.631574  	92.494089 
1908.595998  	92.427711 
1909.560423  	92.322422 
1910.524847  	92.232892 
1911.489272  	92.605613 
1912.453696  	92.706031 
1913.418121  	92.688621 
1914.382545  	92.621149 
1915.346970  	92.697139 
1916.311394  	92.677779 
1917.275819  	92.203177 
1918.240243  	91.593475 
1919.204667  	92.181930 
1920.169092  	92.550071 
1921.133516  	92.441169 
1922.097941  	91.941393 
1923.062365  	91.474699 
1924.026790  	92.181017 
1924.991214  	92.660051 
1925.955639  	92.565723 
1926.920063  	92.637448 
1927.884488  	92.679176 
1928.848912  	92.645742 
1929.813336  	92.664691 
1930.777761  	92.713504 
1931.742185  	92.640941 
1932.706610  	92.725312 
1933.671034  	92.832263 
1934.635459  	92.769283 
1935.599883  	92.670398 
1936.564308  	92.701536 
1937.528732  	92.639388 
1938.493157  	92.609379 
1939.457581  	92.654687 
1940.422005  	92.640183 
1941.386430  	92.369230 
1942.350854  	91.401022 
1943.315279  	91.488904 
1944.279703  	92.299083 
1945.244128  	92.300366 
1946.208552  	92.219511 
1947.172977  	92.094472 
1948.137401  	92.136944 
1949.101826  	92.242384 
1950.066250  	92.442243 
1951.030674  	92.557681 
1951.995099  	92.651142 
1952.959523  	92.545744 
1953.923948  	92.373465 
1954.888372  	92.265446 
1955.852797  	92.384292 
1956.817221  	92.663124 
1957.781646  	92.849377 
1958.746070  	92.715631 
1959.710495  	92.574166 
1960.674919  	92.444619 
1961.639344  	92.365178 
1962.603768  	92.141583 
1963.568192  	92.226884 
1964.532617  	92.698399 
1965.497041  	92.926209 
1966.461466  	92.413354 
1967.425890  	92.167931 
1968.390315  	92.629112 
1969.354739  	92.793264 
1970.319164  	92.616986 
1971.283588  	92.856763 
1972.248013  	93.092593 
1973.212437  	93.163569 
1974.176861  	93.029634 
1975.141286  	92.827056 
1976.105710  	93.162924 
1977.070135  	93.408944 
1978.034559  	93.099911 
1978.998984  	92.235947 
1979.963408  	91.803343 
1980.927833  	92.217295 
1981.892257  	92.515367 
1982.856682  	92.612019 
1983.821106  	92.562363 
1984.785530  	92.574544 
1985.749955  	92.471627 
1986.714379  	92.561723 
1987.678804  	92.440306 
1988.643228  	92.268313 
1989.607653  	92.693738 
1990.572077  	92.810083 
1991.536502  	92.298615 
1992.500926  	92.089209 
1993.465351  	92.526207 
1994.429775  	92.691917 
1995.394199  	92.504183 
1996.358624  	92.405527 
1997.323048  	92.501565 
1998.287473  	92.547512 
1999.251897  	92.873431 
2000.216322  	93.245626 
2001.180746  	93.197124 
2002.145171  	93.042424 
2003.109595  	93.245602 
2004.074020  	93.318710 
2005.038444  	93.389409 
2006.002868  	93.242625 
2006.967293  	93.069552 
2007.931717  	92.917680 
2008.896142  	92.985303 
2009.860566  	93.058331 
2010.824991  	92.912650 
2011.789415  	92.981169 
2012.753840  	93.176878 
2013.718264  	93.144473 
2014.682689  	92.954999 
2015.647113  	93.217315 
2016.611537  	93.038256 
2017.575962  	92.669597 
2018.540386  	92.788802 
2019.504811  	93.102759 
2020.469235  	93.193059 
2021.433660  	93.193456 
2022.398084  	93.176940 
2023.362509  	93.247389 
2024.326933  	93.093955 
2025.291358  	92.863181 
2026.255782  	92.879643 
2027.220207  	92.829127 
2028.184631  	92.863030 
2029.149055  	93.325540 
2030.113480  	93.676777 
2031.077904  	93.669299 
2032.042329  	93.303011 
2033.006753  	93.139395 
2033.971178  	93.099595 
2034.935602  	93.067153 
2035.900027  	92.807621 
2036.864451  	92.498238 
2037.828876  	92.848392 
2038.793300  	93.057115 
2039.757724  	92.889827 
2040.722149  	92.888318 
2041.686573  	92.686575 
2042.650998  	92.656620 
2043.615422  	92.429806 
2044.579847  	92.502584 
2045.544271  	92.786560 
2046.508696  	92.901970 
2047.473120  	92.844421 
2048.437545  	92.773965 
2049.401969  	92.709259 
2050.366393  	92.438555 
2051.330818  	92.350528 
2052.295242  	92.739609 
2053.259667  	93.100036 
2054.224091  	92.831415 
2055.188516  	92.530961 
2056.152940  	92.630076 
2057.117365  	92.577263 
2058.081789  	92.544378 
2059.046214  	92.630067 
2060.010638  	92.534603 
2060.975062  	92.356297 
2061.939487  	92.495041 
2062.903911  	92.630035 
2063.868336  	92.526112 
2064.832760  	92.228264 
2065.797185  	92.171157 
2066.761609  	92.310638 
2067.726034  	92.419803 
2068.690458  	92.316931 
2069.654883  	92.233677 
2070.619307  	92.281849 
2071.583731  	92.338879 
2072.548156  	92.412395 
2073.512580  	92.373972 
2074.477005  	92.251825 
2075.441429  	92.282536 
2076.405854  	92.318600 
2077.370278  	92.284149 
2078.334703  	92.177581 
2079.299127  	92.211182 
2080.263552  	92.174192 
2081.227976  	92.156940 
2082.192401  	92.329797 
2083.156825  	92.346467 
2084.121249  	92.346165 
2085.085674  	92.474995 
2086.050098  	92.465479 
2087.014523  	92.384010 
2087.978947  	92.381216 
2088.943372  	92.360180 
2089.907796  	92.186863 
2090.872221  	92.244556 
2091.836645  	92.541484 
2092.801070  	92.492629 
2093.765494  	92.465416 
2094.729918  	92.509118 
2095.694343  	92.441949 
2096.658767  	92.260509 
2097.623192  	92.190437 
2098.587616  	92.295724 
2099.552041  	92.403647 
2100.516465  	92.444962 
2101.480890  	92.514843 
2102.445314  	92.360521 
2103.409739  	92.182477 
2104.374163  	92.138729 
2105.338587  	92.146463 
2106.303012  	92.106471 
2107.267436  	92.173773 
2108.231861  	92.144430 
2109.196285  	92.107134 
2110.160710  	92.228510 
2111.125134  	92.361399 
2112.089559  	92.366318 
2113.053983  	92.354846 
2114.018408  	92.287536 
2114.982832  	92.194925 
2115.947256  	92.204565 
2116.911681  	92.239580 
2117.876105  	92.355597 
2118.840530  	92.442643 
2119.804954  	92.470647 
2120.769379  	92.473259 
2121.733803  	92.492024 
2122.698228  	92.560404 
2123.662652  	92.531138 
2124.627077  	92.588032 
2125.591501  	92.799654 
2126.555925  	92.908971 
2127.520350  	92.793966 
2128.484774  	92.686146 
2129.449199  	92.836739 
2130.413623  	92.969678 
2131.378048  	92.915961 
2132.342472  	93.022934 
2133.306897  	93.148592 
2134.271321  	93.047097 
2135.235746  	92.841191 
2136.200170  	92.793997 
2137.164594  	92.969245 
2138.129019  	92.994263 
2139.093443  	93.094995 
2140.057868  	93.120658 
2141.022292  	92.952518 
2141.986717  	92.860723 
2142.951141  	93.015329 
2143.915566  	93.255080 
2144.879990  	93.083131 
2145.844415  	93.088695 
2146.808839  	93.039140 
2147.773264  	93.296890 
2148.737688  	93.358742 
2149.702112  	93.096924 
2150.666537  	93.258093 
2151.630961  	93.281538 
2152.595386  	93.238837 
2153.559810  	93.336652 
2154.524235  	93.650420 
2155.488659  	93.810684 
2156.453084  	93.996705 
2157.417508  	94.069751 
2158.381933  	94.019392 
2159.346357  	93.200445 
2160.310781  	92.499860 
2161.275206  	92.596092 
2162.239630  	92.815170 
2163.204055  	92.854214 
2164.168479  	92.867486 
2165.132904  	92.517872 
2166.097328  	92.608278 
2167.061753  	92.979051 
2168.026177  	92.783362 
2168.990602  	92.519920 
2169.955026  	92.499303 
2170.919450  	92.955991 
2171.883875  	93.005819 
2172.848299  	92.572355 
2173.812724  	92.514999 
2174.777148  	92.887378 
2175.741573  	92.933268 
2176.705997  	92.625478 
2177.670422  	92.810765 
2178.634846  	92.967749 
2179.599271  	93.027120 
2180.563695  	93.149267 
2181.528119  	93.259662 
2182.492544  	93.108925 
2183.456968  	92.574873 
2184.421393  	92.265911 
2185.385817  	92.757457 
2186.350242  	93.007384 
2187.314666  	92.649266 
2188.279091  	92.393830 
2189.243515  	92.470972 
2190.207940  	92.643666 
2191.172364  	92.759195 
2192.136788  	92.887293 
2193.101213  	93.015377 
2194.065637  	92.978284 
2195.030062  	92.612935 
2195.994486  	92.196495 
2196.958911  	92.190689 
2197.923335  	92.393842 
2198.887760  	92.600290 
2199.852184  	92.697237 
2200.816609  	92.820498 
2201.781033  	92.897866 
2202.745458  	92.861193 
2203.709882  	92.696129 
2204.674306  	92.495169 
2205.638731  	92.408804 
2206.603155  	92.465259 
2207.567580  	92.554678 
2208.532004  	92.594103 
2209.496429  	92.515871 
2210.460853  	92.472470 
2211.425278  	92.526830 
2212.389702  	92.577323 
2213.354127  	92.473521 
2214.318551  	92.389777 
2215.282975  	92.376447 
2216.247400  	92.403431 
2217.211824  	92.565269 
2218.176249  	92.772027 
2219.140673  	92.760459 
2220.105098  	92.546497 
2221.069522  	92.480871 
2222.033947  	92.608173 
2222.998371  	92.513305 
2223.962796  	92.389283 
2224.927220  	92.513016 
2225.891644  	92.425348 
2226.856069  	92.307013 
2227.820493  	92.374977 
2228.784918  	92.494403 
2229.749342  	92.427389 
2230.713767  	92.528512 
2231.678191  	92.550274 
2232.642616  	92.409727 
2233.607040  	92.522636 
2234.571465  	92.566195 
2235.535889  	92.345546 
2236.500313  	92.319158 
2237.464738  	92.343307 
2238.429162  	92.450017 
2239.393587  	92.447619 
2240.358011  	92.364638 
2241.322436  	92.566009 
2242.286860  	92.601578 
2243.251285  	92.508387 
2244.215709  	92.483656 
2245.180134  	92.343998 
2246.144558  	92.229554 
2247.108982  	92.343131 
2248.073407  	92.437260 
2249.037831  	92.488207 
2250.002256  	92.352079 
2250.966680  	92.234069 
2251.931105  	92.303267 
2252.895529  	92.430629 
2253.859954  	92.483000 
2254.824378  	92.392496 
2255.788803  	92.227458 
2256.753227  	92.118467 
2257.717651  	92.155461 
2258.682076  	92.130592 
2259.646500  	92.157150 
2260.610925  	92.173465 
2261.575349  	92.158843 
2262.539774  	92.216643 
2263.504198  	92.244987 
2264.468623  	92.115610 
2265.433047  	92.106108 
2266.397472  	92.171504 
2267.361896  	92.174491 
2268.326321  	92.145251 
2269.290745  	92.164136 
2270.255169  	92.206447 
2271.219594  	92.181293 
2272.184018  	92.052426 
2273.148443  	91.979306 
2274.112867  	91.975989 
2275.077292  	92.041869 
2276.041716  	92.024231 
2277.006141  	92.019851 
2277.970565  	92.126032 
2278.934990  	92.078720 
2279.899414  	91.968572 
2280.863838  	92.011250 
2281.828263  	92.047214 
2282.792687  	92.003036 
2283.757112  	91.981253 
2284.721536  	91.906549 
2285.685961  	91.866445 
2286.650385  	91.854225 
2287.614810  	91.811695 
2288.579234  	91.830216 
2289.543659  	91.804813 
2290.508083  	91.827859 
2291.472507  	91.811522 
2292.436932  	91.842969 
2293.401356  	91.829313 
2294.365781  	91.735617 
2295.330205  	91.761583 
2296.294630  	91.744836 
2297.259054  	91.798870 
2298.223479  	91.718374 
2299.187903  	91.714844 
2300.152328  	91.741192 
2301.116752  	91.720684 
2302.081176  	91.762434 
2303.045601  	91.633713 
2304.010025  	91.726271 
2304.974450  	91.572553 
2305.938874  	91.548617 
2306.903299  	91.440765 
2307.867723  	91.480913 
2308.832148  	91.360421 
2309.796572  	91.415913 
2310.760997  	91.403540 
2311.725421  	91.363428 
2312.689845  	91.387952 
2313.654270  	91.355655 
2314.618694  	91.435050 
2315.583119  	91.534695 
2316.547543  	91.638741 
2317.511968  	91.669938 
2318.476392  	91.609871 
2319.440817  	91.494189 
2320.405241  	91.444054 
2321.369666  	91.484154 
2322.334090  	91.547879 
2323.298515  	91.470703 
2324.262939  	91.422812 
2325.227363  	91.683300 
2326.191788  	92.067602 
2327.156212  	92.286779 
2328.120637  	92.367648 
2329.085061  	92.314197 
2330.049486  	92.327669 
2331.013910  	92.383078 
2331.978335  	92.480780 
2332.942759  	92.570633 
2333.907184  	92.750563 
2334.871608  	92.862158 
2335.836032  	92.932073 
2336.800457  	93.004029 
2337.764881  	93.044925 
2338.729306  	92.952765 
2339.693730  	92.885576 
2340.658155  	92.976623 
2341.622579  	93.064679 
2342.587004  	92.979696 
2343.551428  	92.829531 
2344.515853  	92.622994 
2345.480277  	92.427900 
2346.444701  	92.255276 
2347.409126  	92.122950 
2348.373550  	91.919516 
2349.337975  	91.846341 
2350.302399  	91.974754 
2351.266824  	92.307676 
2352.231248  	92.696248 
2353.195673  	92.861399 
2354.160097  	92.786910 
2355.124522  	92.724065 
2356.088946  	92.822304 
2357.053370  	92.921746 
2358.017795  	93.034252 
2358.982219  	93.045106 
2359.946644  	93.153063 
2360.911068  	93.282155 
2361.875493  	93.136647 
2362.839917  	93.055956 
2363.804342  	93.074276 
2364.768766  	93.018744 
2365.733191  	93.033530 
2366.697615  	92.972614 
2367.662039  	92.780908 
2368.626464  	92.620338 
2369.590888  	92.417576 
2370.555313  	92.227788 
2371.519737  	92.130564 
2372.484162  	92.073070 
2373.448586  	92.037989 
2374.413011  	91.935663 
2375.377435  	91.799574 
2376.341860  	91.686821 
2377.306284  	91.603081 
2378.270708  	91.559147 
2379.235133  	91.482536 
2380.199557  	91.557750 
2381.163982  	91.715936 
2382.128406  	91.834284 
2383.092831  	91.882699 
2384.057255  	91.938123 
2385.021680  	92.029765 
2385.986104  	92.100128 
2386.950529  	92.136714 
2387.914953  	92.185190 
2388.879378  	92.207531 
2389.843802  	92.262833 
2390.808226  	92.282443 
2391.772651  	92.272933 
2392.737075  	92.299385 
2393.701500  	92.334424 
2394.665924  	92.326921 
2395.630349  	92.279003 
2396.594773  	92.247145 
2397.559198  	92.255677 
2398.523622  	92.292604 
2399.488047  	92.327462 
2400.452471  	92.304495 
2401.416895  	92.265705 
2402.381320  	92.290605 
2403.345744  	92.363879 
2404.310169  	92.363205 
2405.274593  	92.315996 
2406.239018  	92.302639 
2407.203442  	92.298738 
2408.167867  	92.318138 
2409.132291  	92.321825 
2410.096716  	92.274294 
2411.061140  	92.241436 
2412.025564  	92.286866 
2412.989989  	92.284538 
2413.954413  	92.276102 
2414.918838  	92.355422 
2415.883262  	92.357069 
2416.847687  	92.325465 
2417.812111  	92.346162 
2418.776536  	92.360167 
2419.740960  	92.366461 
2420.705385  	92.349722 
2421.669809  	92.259855 
2422.634233  	92.264087 
2423.598658  	92.237135 
2424.563082  	92.231662 
2425.527507  	92.301098 
2426.491931  	92.293550 
2427.456356  	92.272255 
2428.420780  	92.341056 
2429.385205  	92.327455 
2430.349629  	92.294043 
2431.314054  	92.317018 
2432.278478  	92.369102 
2433.242902  	92.361339 
2434.207327  	92.315467 
2435.171751  	92.336857 
2436.136176  	92.382612 
2437.100600  	92.406103 
2438.065025  	92.367913 
2439.029449  	92.379991 
2439.993874  	92.410863 
2440.958298  	92.331213 
2441.922723  	92.295950 
2442.887147  	92.283147 
2443.851572  	92.333446 
2444.815996  	92.390417 
2445.780420  	92.321138 
2446.744845  	92.193651 
2447.709269  	92.215289 
2448.673694  	92.282889 
2449.638118  	92.321879 
2450.602543  	92.296384 
2451.566967  	92.249530 
2452.531392  	92.253297 
2453.495816  	92.243330 
2454.460241  	92.245518 
2455.424665  	92.247783 
2456.389089  	92.221865 
2457.353514  	92.284128 
2458.317938  	92.298032 
2459.282363  	92.274312 
2460.246787  	92.313195 
2461.211212  	92.319786 
2462.175636  	92.336332 
2463.140061  	92.359355 
2464.104485  	92.357835 
2465.068910  	92.325815 
2466.033334  	92.288160 
2466.997758  	92.269992 
2467.962183  	92.290373 
2468.926607  	92.330173 
2469.891032  	92.306859 
2470.855456  	92.307504 
2471.819881  	92.337363 
2472.784305  	92.325366 
2473.748730  	92.309112 
2474.713154  	92.387637 
2475.677579  	92.396455 
2476.642003  	92.358022 
2477.606427  	92.332956 
2478.570852  	92.361766 
2479.535276  	92.357805 
2480.499701  	92.334333 
2481.464125  	92.314408 
2482.428550  	92.331099 
2483.392974  	92.387042 
2484.357399  	92.384492 
2485.321823  	92.274812 
2486.286248  	92.214347 
2487.250672  	92.207570 
2488.215096  	92.251595 
2489.179521  	92.262372 
2490.143945  	92.237563 
2491.108370  	92.191118 
2492.072794  	92.201338 
2493.037219  	92.257405 
2494.001643  	92.284606 
2494.966068  	92.296041 
2495.930492  	92.322360 
2496.894917  	92.286831 
2497.859341  	92.249887 
2498.823765  	92.204597 
2499.788190  	92.211305 
2500.752614  	92.256342 
2501.717039  	92.260761 
2502.681463  	92.225433 
2503.645888  	92.217670 
2504.610312  	92.194925 
2505.574737  	92.179591 
2506.539161  	92.244626 
2507.503586  	92.306104 
2508.468010  	92.266202 
2509.432435  	92.234211 
2510.396859  	92.235427 
2511.361283  	92.253782 
2512.325708  	92.249330 
2513.290132  	92.234002 
2514.254557  	92.279589 
2515.218981  	92.287319 
2516.183406  	92.217041 
2517.147830  	92.209136 
2518.112255  	92.185347 
2519.076679  	92.173774 
2520.041104  	92.216445 
2521.005528  	92.228456 
2521.969952  	92.207299 
2522.934377  	92.235571 
2523.898801  	92.285371 
2524.863226  	92.272331 
2525.827650  	92.209105 
2526.792075  	92.230115 
2527.756499  	92.190372 
2528.720924  	92.174069 
2529.685348  	92.166954 
2530.649773  	92.199228 
2531.614197  	92.204586 
2532.578621  	92.166347 
2533.543046  	92.190754 
2534.507470  	92.205915 
2535.471895  	92.186257 
2536.436319  	92.190401 
2537.400744  	92.197625 
2538.365168  	92.162749 
2539.329593  	92.175240 
2540.294017  	92.169576 
2541.258442  	92.158237 
2542.222866  	92.170539 
2543.187290  	92.193821 
2544.151715  	92.229047 
2545.116139  	92.243581 
2546.080564  	92.200993 
2547.044988  	92.104260 
2548.009413  	92.044440 
2548.973837  	92.139799 
2549.938262  	92.200448 
2550.902686  	92.198190 
2551.867111  	92.175287 
2552.831535  	92.151595 
2553.795959  	92.133666 
2554.760384  	92.164065 
2555.724808  	92.160907 
2556.689233  	92.127246 
2557.653657  	92.137066 
2558.618082  	92.139750 
2559.582506  	92.210163 
2560.546931  	92.220454 
2561.511355  	92.169122 
2562.475780  	92.180948 
2563.440204  	92.161166 
2564.404629  	92.128048 
2565.369053  	92.177279 
2566.333477  	92.199156 
2567.297902  	92.157044 
2568.262326  	92.119583 
2569.226751  	92.037731 
2570.191175  	92.032436 
2571.155600  	92.129983 
2572.120024  	92.175055 
2573.084449  	92.187741 
2574.048873  	92.140143 
2575.013298  	92.072487 
2575.977722  	92.120632 
2576.942146  	92.180029 
2577.906571  	92.153253 
2578.870995  	92.135016 
2579.835420  	92.110801 
2580.799844  	92.153034 
2581.764269  	92.125577 
2582.728693  	92.186216 
2583.693118  	92.181763 
2584.657542  	92.096759 
2585.621967  	92.093451 
2586.586391  	92.082307 
2587.550815  	92.147580 
2588.515240  	92.212912 
2589.479664  	92.176907 
2590.444089  	92.121595 
2591.408513  	92.138751 
2592.372938  	92.167127 
2593.337362  	92.159856 
2594.301787  	92.133867 
2595.266211  	92.122014 
2596.230636  	92.141861 
2597.195060  	92.156531 
2598.159484  	92.190808 
2599.123909  	92.192623 
2600.088333  	92.159491 
2601.052758  	92.122176 
2602.017182  	92.125460 
2602.981607  	92.117167 
2603.946031  	92.120200 
2604.910456  	92.155069 
2605.874880  	92.153752 
2606.839305  	92.126928 
2607.803729  	92.116198 
2608.768153  	92.115232 
2609.732578  	92.101160 
2610.697002  	92.052916 
2611.661427  	92.084637 
2612.625851  	92.152159 
2613.590276  	92.148505 
2614.554700  	92.136184 
2615.519125  	92.120303 
2616.483549  	92.107987 
2617.447974  	92.061784 
2618.412398  	92.072038 
2619.376822  	92.115120 
2620.341247  	92.120330 
2621.305671  	92.073324 
2622.270096  	92.063838 
2623.234520  	92.087788 
2624.198945  	92.066722 
2625.163369  	92.086587 
2626.127794  	92.091768 
2627.092218  	92.051582 
2628.056643  	92.055161 
2629.021067  	92.064599 
2629.985492  	92.106697 
2630.949916  	92.161699 
2631.914340  	92.123214 
2632.878765  	92.047420 
2633.843189  	92.071156 
2634.807614  	92.079428 
2635.772038  	92.057752 
2636.736463  	92.061089 
2637.700887  	92.099250 
2638.665312  	92.111353 
2639.629736  	92.093973 
2640.594161  	92.133751 
2641.558585  	92.159238 
2642.523009  	92.100737 
2643.487434  	92.092665 
2644.451858  	92.126306 
2645.416283  	92.118780 
2646.380707  	92.123501 
2647.345132  	92.124341 
2648.309556  	92.128575 
2649.273981  	92.115586 
2650.238405  	92.131020 
2651.202830  	92.155027 
2652.167254  	92.157383 
2653.131678  	92.139976 
2654.096103  	92.134184 
2655.060527  	92.138503 
2656.024952  	92.143173 
2656.989376  	92.132903 
2657.953801  	92.120077 
2658.918225  	92.152627 
2659.882650  	92.180157 
2660.847074  	92.193239 
2661.811499  	92.192843 
2662.775923  	92.183914 
2663.740347  	92.206983 
2664.704772  	92.229448 
2665.669196  	92.257753 
2666.633621  	92.241534 
2667.598045  	92.241010 
2668.562470  	92.271128 
2669.526894  	92.271381 
2670.491319  	92.247866 
2671.455743  	92.273241 
2672.420168  	92.285491 
2673.384592  	92.265523 
2674.349016  	92.268882 
2675.313441  	92.290452 
2676.277865  	92.265407 
2677.242290  	92.243225 
2678.206714  	92.243260 
2679.171139  	92.266685 
2680.135563  	92.257684 
2681.099988  	92.257632 
2682.064412  	92.287931 
2683.028837  	92.292783 
2683.993261  	92.273160 
2684.957686  	92.282666 
2685.922110  	92.281641 
2686.886534  	92.272890 
2687.850959  	92.264457 
2688.815383  	92.274301 
2689.779808  	92.274795 
2690.744232  	92.275015 
2691.708657  	92.273256 
2692.673081  	92.281839 
2693.637506  	92.294712 
2694.601930  	92.319803 
2695.566355  	92.310889 
2696.530779  	92.294960 
2697.495203  	92.286088 
2698.459628  	92.298309 
2699.424052  	92.289729 
2700.388477  	92.277675 
2701.352901  	92.259347 
2702.317326  	92.253966 
2703.281750  	92.279875 
2704.246175  	92.294513 
2705.210599  	92.291907 
2706.175024  	92.298766 
2707.139448  	92.287515 
2708.103872  	92.259861 
2709.068297  	92.287067 
2710.032721  	92.318162 
2710.997146  	92.297106 
2711.961570  	92.277550 
2712.925995  	92.305447 
2713.890419  	92.307976 
2714.854844  	92.288020 
2715.819268  	92.282722 
2716.783693  	92.261016 
2717.748117  	92.263731 
2718.712541  	92.286035 
2719.676966  	92.282771 
2720.641390  	92.269773 
2721.605815  	92.272883 
2722.570239  	92.269109 
2723.534664  	92.282019 
2724.499088  	92.277123 
2725.463513  	92.264357 
2726.427937  	92.268815 
2727.392362  	92.274972 
2728.356786  	92.248629 
2729.321210  	92.218115 
2730.285635  	92.224172 
2731.250059  	92.223978 
2732.214484  	92.231644 
2733.178908  	92.252786 
2734.143333  	92.248224 
2735.107757  	92.240054 
2736.072182  	92.271993 
2737.036606  	92.286827 
2738.001031  	92.240723 
2738.965455  	92.237944 
2739.929879  	92.250378 
2740.894304  	92.230877 
2741.858728  	92.228812 
2742.823153  	92.228364 
2743.787577  	92.237191 
2744.752002  	92.240664 
2745.716426  	92.208882 
2746.680851  	92.198835 
2747.645275  	92.202564 
2748.609700  	92.206213 
2749.574124  	92.214430 
2750.538549  	92.212964 
2751.502973  	92.187706 
2752.467397  	92.202661 
2753.431822  	92.205788 
2754.396246  	92.205140 
2755.360671  	92.235250 
2756.325095  	92.277840 
2757.289520  	92.238495 
2758.253944  	92.231152 
2759.218369  	92.212262 
2760.182793  	92.187608 
2761.147218  	92.175461 
2762.111642  	92.180011 
2763.076066  	92.226761 
2764.040491  	92.249398 
2765.004915  	92.237212 
2765.969340  	92.216755 
2766.933764  	92.207477 
2767.898189  	92.210401 
2768.862613  	92.201160 
2769.827038  	92.196929 
2770.791462  	92.195077 
2771.755887  	92.171652 
2772.720311  	92.159850 
2773.684735  	92.145934 
2774.649160  	92.141727 
2775.613584  	92.169084 
2776.578009  	92.185661 
2777.542433  	92.194765 
2778.506858  	92.193073 
2779.471282  	92.181263 
2780.435707  	92.171188 
2781.400131  	92.136408 
2782.364556  	92.138157 
2783.328980  	92.159526 
2784.293404  	92.160254 
2785.257829  	92.181053 
2786.222253  	92.163345 
2787.186678  	92.151213 
2788.151102  	92.135723 
2789.115527  	92.167153 
2790.079951  	92.177800 
2791.044376  	92.165103 
2792.008800  	92.150280 
2792.973225  	92.128921 
2793.937649  	92.127746 
2794.902073  	92.125210 
2795.866498  	92.134014 
2796.830922  	92.147218 
2797.795347  	92.134506 
2798.759771  	92.123032 
2799.724196  	92.102548 
2800.688620  	92.096184 
2801.653045  	92.083056 
2802.617469  	92.044140 
2803.581894  	92.076931 
2804.546318  	92.125032 
2805.510743  	92.132573 
2806.475167  	92.093248 
2807.439591  	92.062052 
2808.404016  	92.061900 
2809.368440  	92.088093 
2810.332865  	92.133665 
2811.297289  	92.110138 
2812.261714  	92.068293 
2813.226138  	92.097166 
2814.190563  	92.083736 
2815.154987  	92.088964 
2816.119412  	92.111801 
2817.083836  	92.101214 
2818.048260  	92.089600 
2819.012685  	92.085361 
2819.977109  	92.110813 
2820.941534  	92.109493 
2821.905958  	92.098318 
2822.870383  	92.089197 
2823.834807  	92.107991 
2824.799232  	92.103911 
2825.763656  	92.089391 
2826.728081  	92.090888 
2827.692505  	92.085255 
2828.656929  	92.092552 
2829.621354  	92.110872 
2830.585778  	92.113156 
2831.550203  	92.099492 
2832.514627  	92.069070 
2833.479052  	92.079206 
2834.443476  	92.089084 
2835.407901  	92.083391 
2836.372325  	92.085633 
2837.336750  	92.073254 
2838.301174  	92.029528 
2839.265598  	91.994748 
2840.230023  	92.012937 
2841.194447  	92.034559 
2842.158872  	92.006191 
2843.123296  	91.990784 
2844.087721  	91.967280 
2845.052145  	91.952322 
2846.016570  	91.939493 
2846.980994  	91.932093 
2847.945419  	91.937441 
2848.909843  	91.942323 
2849.874267  	91.905357 
2850.838692  	91.881865 
2851.803116  	91.861576 
2852.767541  	91.844024 
2853.731965  	91.852073 
2854.696390  	91.883579 
2855.660814  	91.889650 
2856.625239  	91.891708 
2857.589663  	91.862243 
2858.554088  	91.850236 
2859.518512  	91.864524 
2860.482936  	91.859701 
2861.447361  	91.845788 
2862.411785  	91.862735 
2863.376210  	91.863634 
2864.340634  	91.840469 
2865.305059  	91.841036 
2866.269483  	91.842806 
2867.233908  	91.821130 
2868.198332  	91.802262 
2869.162757  	91.785390 
2870.127181  	91.798455 
2871.091606  	91.775115 
2872.056030  	91.793289 
2873.020454  	91.833189 
2873.984879  	91.813976 
2874.949303  	91.775355 
2875.913728  	91.778649 
2876.878152  	91.781881 
2877.842577  	91.746665 
2878.807001  	91.728485 
2879.771426  	91.786345 
2880.735850  	91.790426 
2881.700275  	91.749579 
2882.664699  	91.717214 
2883.629123  	91.705515 
2884.593548  	91.726948 
2885.557972  	91.738749 
2886.522397  	91.694739 
2887.486821  	91.690721 
2888.451246  	91.680391 
2889.415670  	91.667302 
2890.380095  	91.634231 
2891.344519  	91.636665 
2892.308944  	91.674223 
2893.273368  	91.666862 
2894.237792  	91.652480 
2895.202217  	91.586916 
2896.166641  	91.564738 
2897.131066  	91.585813 
2898.095490  	91.592502 
2899.059915  	91.585213 
2900.024339  	91.512137 
2900.988764  	91.471755 
2901.953188  	91.477222 
2902.917613  	91.420570 
2903.882037  	91.379528 
2904.846461  	91.399799 
2905.810886  	91.376576 
2906.775310  	91.346649 
2907.739735  	91.307777 
2908.704159  	91.276374 
2909.668584  	91.307386 
2910.633008  	91.337950 
2911.597433  	91.396236 
2912.561857  	91.473981 
2913.526282  	91.484988 
2914.490706  	91.481720 
2915.455130  	91.527644 
2916.419555  	91.571348 
2917.383979  	91.605589 
2918.348404  	91.658907 
2919.312828  	91.689418 
2920.277253  	91.696681 
2921.241677  	91.681289 
2922.206102  	91.691388 
2923.170526  	91.693635 
2924.134951  	91.705461 
2925.099375  	91.702675 
2926.063800  	91.699745 
2927.028224  	91.713252 
2927.992648  	91.740448 
2928.957073  	91.733258 
2929.921497  	91.718652 
2930.885922  	91.727950 
2931.850346  	91.713332 
2932.814771  	91.725526 
2933.779195  	91.733152 
2934.743620  	91.711954 
2935.708044  	91.676880 
2936.672469  	91.658978 
2937.636893  	91.685678 
2938.601317  	91.676637 
2939.565742  	91.676581 
2940.530166  	91.675957 
2941.494591  	91.592214 
2942.459015  	91.526127 
2943.423440  	91.502572 
2944.387864  	91.453427 
2945.352289  	91.409289 
2946.316713  	91.421827 
2947.281138  	91.408558 
2948.245562  	91.369863 
2949.209986  	91.293941 
2950.174411  	91.226244 
2951.138835  	91.202480 
2952.103260  	91.141483 
2953.067684  	91.065892 
2954.032109  	91.050075 
2954.996533  	91.052725 
2955.960958  	91.008618 
2956.925382  	90.972097 
2957.889807  	90.923407 
2958.854231  	90.848053 
2959.818655  	90.810591 
2960.783080  	90.804822 
2961.747504  	90.753337 
2962.711929  	90.738025 
2963.676353  	90.717002 
2964.640778  	90.646368 
2965.605202  	90.606667 
2966.569627  	90.593341 
2967.534051  	90.612214 
2968.498476  	90.686201 
2969.462900  	90.689931 
2970.427324  	90.676653 
2971.391749  	90.700674 
2972.356173  	90.734251 
2973.320598  	90.785650 
2974.285022  	90.858169 
2975.249447  	90.878983 
2976.213871  	90.943950 
2977.178296  	91.031172 
2978.142720  	91.067539 
2979.107145  	91.099901 
2980.071569  	91.188935 
2981.035993  	91.216955 
2982.000418  	91.266775 
2982.964842  	91.369940 
2983.929267  	91.402328 
2984.893691  	91.440566 
2985.858116  	91.467944 
2986.822540  	91.510115 
2987.786965  	91.543645 
2988.751389  	91.553100 
2989.715814  	91.576954 
2990.680238  	91.624455 
2991.644663  	91.628767 
2992.609087  	91.597686 
2993.573511  	91.601362 
2994.537936  	91.649323 
2995.502360  	91.700891 
2996.466785  	91.702030 
2997.431209  	91.697402 
2998.395634  	91.717535 
2999.360058  	91.753694 
3000.324483  	91.775905 
3001.288907  	91.753631 
3002.253332  	91.726915 
3003.217756  	91.717108 
3004.182180  	91.698746 
3005.146605  	91.691089 
3006.111029  	91.748761 
3007.075454  	91.830047 
3008.039878  	91.880919 
3009.004303  	91.916085 
3009.968727  	91.883172 
3010.933152  	91.827490 
3011.897576  	91.776571 
3012.862001  	91.739906 
3013.826425  	91.836825 
3014.790849  	91.962621 
3015.755274  	91.941811 
3016.719698  	91.944208 
3017.684123  	92.001739 
3018.648547  	92.013418 
3019.612972  	91.995563 
3020.577396  	92.071468 
3021.541821  	92.111519 
3022.506245  	92.094698 
3023.470670  	92.110453 
3024.435094  	92.162299 
3025.399518  	92.165965 
3026.363943  	92.186024 
3027.328367  	92.248919 
3028.292792  	92.247560 
3029.257216  	92.252880 
3030.221641  	92.211815 
3031.186065  	92.105373 
3032.150490  	92.040730 
3033.114914  	92.125448 
3034.079339  	92.137181 
3035.043763  	92.127367 
3036.008187  	92.167333 
3036.972612  	92.203037 
3037.937036  	92.205484 
3038.901461  	92.205591 
3039.865885  	92.213714 
3040.830310  	92.232226 
3041.794734  	92.233866 
3042.759159  	92.212766 
3043.723583  	92.222353 
3044.688008  	92.202470 
3045.652432  	92.179670 
3046.616857  	92.179463 
3047.581281  	92.143438 
3048.545705  	92.057396 
3049.510130  	92.016015 
3050.474554  	92.013896 
3051.438979  	91.991478 
3052.403403  	91.976759 
3053.367828  	91.972049 
3054.332252  	91.937953 
3055.296677  	91.918797 
3056.261101  	91.843472 
3057.225526  	91.863881 
3058.189950  	91.987367 
3059.154374  	92.038177 
3060.118799  	92.067787 
3061.083223  	92.105387 
3062.047648  	92.099439 
3063.012072  	92.039792 
3063.976497  	91.973745 
3064.940921  	91.924178 
3065.905346  	91.978352 
3066.869770  	91.983629 
3067.834195  	91.982879 
3068.798619  	92.015833 
3069.763043  	92.032488 
3070.727468  	92.092302 
3071.691892  	92.097582 
3072.656317  	92.024758 
3073.620741  	92.009643 
3074.585166  	92.053690 
3075.549590  	92.069983 
3076.514015  	92.065791 
3077.478439  	92.044989 
3078.442864  	92.043638 
3079.407288  	91.990311 
3080.371712  	91.977721 
3081.336137  	92.005608 
3082.300561  	91.984935 
3083.264986  	92.046106 
3084.229410  	92.129058 
3085.193835  	92.123672 
3086.158259  	92.134048 
3087.122684  	92.108567 
3088.087108  	92.089406 
3089.051533  	92.116610 
3090.015957  	92.101412 
3090.980381  	92.117117 
3091.944806  	92.177852 
3092.909230  	92.201910 
3093.873655  	92.147164 
3094.838079  	92.123900 
3095.802504  	92.121428 
3096.766928  	92.135450 
3097.731353  	92.156769 
3098.695777  	92.177059 
3099.660202  	92.157930 
3100.624626  	92.089417 
3101.589050  	92.050680 
3102.553475  	92.076528 
3103.517899  	92.090039 
3104.482324  	92.140085 
3105.446748  	92.140235 
3106.411173  	92.131452 
3107.375597  	92.183977 
3108.340022  	92.219723 
3109.304446  	92.246832 
3110.268871  	92.185113 
3111.233295  	92.152616 
3112.197720  	92.149409 
3113.162144  	92.161983 
3114.126568  	92.207439 
3115.090993  	92.187657 
3116.055417  	92.163891 
3117.019842  	92.222068 
3117.984266  	92.215470 
3118.948691  	92.140942 
3119.913115  	92.204260 
3120.877540  	92.285556 
3121.841964  	92.251581 
3122.806389  	92.147382 
3123.770813  	92.165078 
3124.735237  	92.206890 
3125.699662  	92.189137 
3126.664086  	92.191679 
3127.628511  	92.262273 
3128.592935  	92.313420 
3129.557360  	92.262714 
3130.521784  	92.215839 
3131.486209  	92.245928 
3132.450633  	92.222028 
3133.415058  	92.146350 
3134.379482  	92.231033 
3135.343906  	92.338850 
3136.308331  	92.346810 
3137.272755  	92.285740 
3138.237180  	92.289337 
3139.201604  	92.307818 
3140.166029  	92.298223 
3141.130453  	92.349365 
3142.094878  	92.313102 
3143.059302  	92.258189 
3144.023727  	92.318684 
3144.988151  	92.345868 
3145.952575  	92.280398 
3146.917000  	92.243402 
3147.881424  	92.282888 
3148.845849  	92.359182 
3149.810273  	92.373242 
3150.774698  	92.345594 
3151.739122  	92.305511 
3152.703547  	92.302251 
3153.667971  	92.329467 
3154.632396  	92.367122 
3155.596820  	92.397481 
3156.561244  	92.333450 
3157.525669  	92.334939 
3158.490093  	92.369859 
3159.454518  	92.397580 
3160.418942  	92.342672 
3161.383367  	92.333151 
3162.347791  	92.365506 
3163.312216  	92.333525 
3164.276640  	92.339827 
3165.241065  	92.360079 
3166.205489  	92.400300 
3167.169914  	92.399700 
3168.134338  	92.340360 
3169.098762  	92.312709 
3170.063187  	92.300281 
3171.027611  	92.278961 
3171.992036  	92.321419 
3172.956460  	92.350058 
3173.920885  	92.326832 
3174.885309  	92.304033 
3175.849734  	92.269598 
3176.814158  	92.304194 
3177.778583  	92.255137 
3178.743007  	92.218894 
3179.707431  	92.263975 
3180.671856  	92.306793 
3181.636280  	92.338274 
3182.600705  	92.318904 
3183.565129  	92.292987 
3184.529554  	92.300238 
3185.493978  	92.291364 
3186.458403  	92.290110 
3187.422827  	92.284214 
3188.387252  	92.243084 
3189.351676  	92.282707 
3190.316100  	92.308495 
3191.280525  	92.301582 
3192.244949  	92.365413 
3193.209374  	92.388273 
3194.173798  	92.305923 
3195.138223  	92.310113 
3196.102647  	92.277796 
3197.067072  	92.213346 
3198.031496  	92.175854 
3198.995921  	92.243683 
3199.960345  	92.297666 
3200.924769  	92.337294 
3201.889194  	92.396438 
3202.853618  	92.372274 
3203.818043  	92.275248 
3204.782467  	92.257492 
3205.746892  	92.288541 
3206.711316  	92.284322 
3207.675741  	92.287652 
3208.640165  	92.271784 
3209.604590  	92.233524 
3210.569014  	92.234131 
3211.533438  	92.340500 
3212.497863  	92.370182 
3213.462287  	92.307340 
3214.426712  	92.244669 
3215.391136  	92.266065 
3216.355561  	92.281082 
3217.319985  	92.283400 
3218.284410  	92.264884 
3219.248834  	92.219840 
3220.213259  	92.253480 
3221.177683  	92.334110 
3222.142107  	92.316292 
3223.106532  	92.303567 
3224.070956  	92.329792 
3225.035381  	92.293958 
3225.999805  	92.276881 
3226.964230  	92.279140 
3227.928654  	92.263185 
3228.893079  	92.305145 
3229.857503  	92.267581 
3230.821928  	92.255273 
3231.786352  	92.319844 
3232.750777  	92.324642 
3233.715201  	92.308852 
3234.679625  	92.333511 
3235.644050  	92.324205 
3236.608474  	92.285180 
3237.572899  	92.239157 
3238.537323  	92.291686 
3239.501748  	92.246596 
3240.466172  	92.188628 
3241.430597  	92.261617 
3242.395021  	92.298144 
3243.359446  	92.233156 
3244.323870  	92.212821 
3245.288294  	92.149397 
3246.252719  	92.194723 
3247.217143  	92.273473 
3248.181568  	92.298329 
3249.145992  	92.246480 
3250.110417  	92.206171 
3251.074841  	92.251224 
3252.039266  	92.312852 
3253.003690  	92.330494 
3253.968115  	92.261383 
3254.932539  	92.196147 
3255.896963  	92.228947 
3256.861388  	92.223693 
3257.825812  	92.242758 
3258.790237  	92.269692 
3259.754661  	92.271814 
3260.719086  	92.271768 
3261.683510  	92.329900 
3262.647935  	92.359362 
3263.612359  	92.348821 
3264.576784  	92.300760 
3265.541208  	92.234747 
3266.505632  	92.232671 
3267.470057  	92.258307 
3268.434481  	92.295387 
3269.398906  	92.315398 
3270.363330  	92.257978 
3271.327755  	92.258690 
3272.292179  	92.286771 
3273.256604  	92.223857 
3274.221028  	92.203124 
3275.185453  	92.276058 
3276.149877  	92.274157 
3277.114301  	92.248053 
3278.078726  	92.239682 
3279.043150  	92.195519 
3280.007575  	92.170812 
3280.971999  	92.188926 
3281.936424  	92.227237 
3282.900848  	92.250615 
3283.865273  	92.227231 
3284.829697  	92.226180 
3285.794122  	92.199736 
3286.758546  	92.161060 
3287.722971  	92.186329 
3288.687395  	92.193254 
3289.651819  	92.279957 
3290.616244  	92.285450 
3291.580668  	92.174198 
3292.545093  	92.174090 
3293.509517  	92.246441 
3294.473942  	92.262418 
3295.438366  	92.250058 
3296.402791  	92.247680 
3297.367215  	92.218984 
3298.331640  	92.192583 
3299.296064  	92.230976 
3300.260488  	92.270961 
3301.224913  	92.323222 
3302.189337  	92.394705 
3303.153762  	92.309735 
3304.118186  	92.216048 
3305.082611  	92.277253 
3306.047035  	92.348516 
3307.011460  	92.385074 
3307.975884  	92.348094 
3308.940309  	92.278937 
3309.904733  	92.321022 
3310.869157  	92.311650 
3311.833582  	92.271349 
3312.798006  	92.332713 
3313.762431  	92.368283 
3314.726855  	92.333489 
3315.691280  	92.301521 
3316.655704  	92.271465 
3317.620129  	92.281076 
3318.584553  	92.291603 
3319.548978  	92.231259 
3320.513402  	92.232232 
3321.477826  	92.267339 
3322.442251  	92.264859 
3323.406675  	92.306908 
3324.371100  	92.295805 
3325.335524  	92.263657 
3326.299949  	92.306571 
3327.264373  	92.327836 
3328.228798  	92.299424 
3329.193222  	92.243332 
3330.157647  	92.222240 
3331.122071  	92.248813 
3332.086495  	92.306683 
3333.050920  	92.277745 
3334.015344  	92.243113 
3334.979769  	92.196608 
3335.944193  	92.212335 
3336.908618  	92.181815 
3337.873042  	92.249936 
3338.837467  	92.376257 
3339.801891  	92.347136 
3340.766316  	92.311928 
3341.730740  	92.288904 
3342.695164  	92.295903 
3343.659589  	92.335101 
3344.624013  	92.378696 
3345.588438  	92.379418 
3346.552862  	92.368695 
3347.517287  	92.359685 
3348.481711  	92.300372 
3349.446136  	92.282465 
3350.410560  	92.324213 
3351.374985  	92.392944 
3352.339409  	92.383942 
3353.303834  	92.291784 
3354.268258  	92.311447 
3355.232682  	92.310380 
3356.197107  	92.223339 
3357.161531  	92.281849 
3358.125956  	92.367682 
3359.090380  	92.364562 
3360.054805  	92.228087 
3361.019229  	92.175621 
3361.983654  	92.240173 
3362.948078  	92.310144 
3363.912503  	92.277114 
3364.876927  	92.210441 
3365.841351  	92.256072 
3366.805776  	92.279573 
3367.770200  	92.254255 
3368.734625  	92.271327 
3369.699049  	92.346750 
3370.663474  	92.436609 
3371.627898  	92.415927 
3372.592323  	92.301793 
3373.556747  	92.265890 
3374.521172  	92.310103 
3375.485596  	92.356100 
3376.450020  	92.296505 
3377.414445  	92.277972 
3378.378869  	92.355046 
3379.343294  	92.412122 
3380.307718  	92.417334 
3381.272143  	92.397268 
3382.236567  	92.349992 
3383.200992  	92.301308 
3384.165416  	92.217299 
3385.129841  	92.209333 
3386.094265  	92.251172 
3387.058689  	92.308921 
3388.023114  	92.409448 
3388.987538  	92.432465 
3389.951963  	92.392293 
3390.916387  	92.353693 
3391.880812  	92.222006 
3392.845236  	91.990524 
3393.809661  	92.067868 
3394.774085  	92.316647 
3395.738510  	92.329594 
3396.702934  	92.244557 
3397.667358  	92.120741 
3398.631783  	92.207961 
3399.596207  	92.341954 
3400.560632  	92.323060 
3401.525056  	92.280985 
3402.489481  	92.312858 
3403.453905  	92.292263 
3404.418330  	92.275195 
3405.382754  	92.312438 
3406.347179  	92.274357 
3407.311603  	92.230613 
3408.276028  	92.273713 
3409.240452  	92.193926 
3410.204876  	92.104323 
3411.169301  	92.115836 
3412.133725  	92.154816 
3413.098150  	92.218260 
3414.062574  	92.239717 
3415.026999  	92.198292 
3415.991423  	92.129704 
3416.955848  	92.149111 
3417.920272  	92.116871 
3418.884697  	92.002743 
3419.849121  	91.796962 
3420.813545  	91.529848 
3421.777970  	91.556622 
3422.742394  	91.721197 
3423.706819  	91.891133 
3424.671243  	91.989515 
3425.635668  	92.032809 
3426.600092  	92.050245 
3427.564517  	92.041376 
3428.528941  	92.011957 
3429.493366  	92.013184 
3430.457790  	91.959973 
3431.422214  	91.964606 
3432.386639  	92.056070 
3433.351063  	92.095870 
3434.315488  	92.110529 
3435.279912  	92.093406 
3436.244337  	92.088752 
3437.208761  	92.087734 
3438.173186  	92.079581 
3439.137610  	92.032589 
3440.102035  	92.049282 
3441.066459  	92.097331 
3442.030883  	92.017600 
3442.995308  	91.845305 
3443.959732  	92.015971 
3444.924157  	92.096990 
3445.888581  	92.040878 
3446.853006  	91.661733 
3447.817430  	91.366930 
3448.781855  	91.883141 
3449.746279  	92.126769 
3450.710704  	92.156980 
3451.675128  	92.198009 
3452.639552  	92.259877 
3453.603977  	92.274331 
3454.568401  	92.255119 
3455.532826  	92.223893 
3456.497250  	92.237501 
3457.461675  	92.241514 
3458.426099  	92.200919 
3459.390524  	92.196895 
3460.354948  	92.233933 
3461.319373  	92.121176 
3462.283797  	92.045813 
3463.248221  	92.069525 
3464.212646  	92.247056 
3465.177070  	92.320412 
3466.141495  	92.254787 
3467.105919  	92.082697 
3468.070344  	92.218567 
3469.034768  	92.361283 
3469.999193  	92.304520 
3470.963617  	92.240871 
3471.928042  	92.271649 
3472.892466  	92.292011 
3473.856891  	92.311409 
3474.821315  	92.245468 
3475.785739  	92.265323 
3476.750164  	92.364642 
3477.714588  	92.375893 
3478.679013  	92.355818 
3479.643437  	92.266773 
3480.607862  	91.986755 
3481.572286  	91.880551 
3482.536711  	91.818571 
3483.501135  	92.041192 
3484.465560  	92.234162 
3485.429984  	92.194702 
3486.394408  	92.171956 
3487.358833  	92.151995 
3488.323257  	91.933896 
3489.287682  	92.008962 
3490.252106  	92.216492 
3491.216531  	92.227395 
3492.180955  	92.320638 
3493.145380  	92.413427 
3494.109804  	92.420165 
3495.074229  	92.265395 
3496.038653  	91.965166 
3497.003077  	91.840121 
3497.967502  	92.045903 
3498.931926  	92.236362 
3499.896351  	92.159060 
3500.860775  	92.087098 
3501.825200  	91.778706 
3502.789624  	91.307976 
3503.754049  	91.228473 
3504.718473  	91.566272 
3505.682898  	91.857203 
3506.647322  	92.118248 
3507.611746  	92.239718 
3508.576171  	91.980695 
3509.540595  	91.368711 
3510.505020  	91.572697 
3511.469444  	91.975042 
3512.433869  	92.018824 
3513.398293  	92.047407 
3514.362718  	92.192017 
3515.327142  	92.373679 
3516.291567  	92.342708 
3517.255991  	92.185673 
3518.220415  	92.051390 
3519.184840  	92.007952 
3520.149264  	92.133180 
3521.113689  	92.252853 
3522.078113  	92.089022 
3523.042538  	91.450396 
3524.006962  	91.056682 
3524.971387  	91.361163 
3525.935811  	91.557878 
3526.900236  	91.469688 
3527.864660  	91.326985 
3528.829085  	91.419469 
3529.793509  	91.617695 
3530.757933  	91.843107 
3531.722358  	91.825574 
3532.686782  	92.049793 
3533.651207  	92.288994 
3534.615631  	92.351568 
3535.580056  	92.062608 
3536.544480  	91.433505 
3537.508905  	91.588549 
3538.473329  	92.109908 
3539.437754  	92.129011 
3540.402178  	92.172176 
3541.366602  	92.194618 
3542.331027  	92.130518 
3543.295451  	91.849976 
3544.259876  	91.478240 
3545.224300  	90.710549 
3546.188725  	90.550752 
3547.153149  	90.591600 
3548.117574  	90.989750 
3549.081998  	91.798475 
3550.046423  	92.043227 
3551.010847  	91.926576 
3551.975271  	91.377274 
3552.939696  	91.103481 
3553.904120  	91.415140 
3554.868545  	91.769850 
3555.832969  	92.145195 
3556.797394  	92.125168 
3557.761818  	92.090950 
3558.726243  	92.210605 
3559.690667  	91.864432 
3560.655092  	91.393715 
3561.619516  	91.776476 
3562.583940  	91.800334 
3563.548365  	91.652867 
3564.512789  	91.608443 
3565.477214  	90.875967 
3566.441638  	88.807776 
3567.406063  	88.637155 
3568.370487  	89.072779 
3569.334912  	90.509445 
3570.299336  	91.657672 
3571.263761  	91.790147 
3572.228185  	92.090794 
3573.192609  	92.132675 
3574.157034  	92.025525 
3575.121458  	91.916371 
3576.085883  	91.992295 
3577.050307  	91.913962 
3578.014732  	91.947767 
3578.979156  	92.095229 
3579.943581  	91.741411 
3580.908005  	91.680703 
3581.872430  	92.089901 
3582.836854  	92.113465 
3583.801278  	91.960577 
3584.765703  	91.970891 
3585.730127  	91.590650 
3586.694552  	90.127307 
3587.658976  	89.236898 
3588.623401  	89.624003 
3589.587825  	90.578550 
3590.552250  	91.765584 
3591.516674  	92.068315 
3592.481099  	91.968862 
3593.445523  	91.359423 
3594.409948  	91.329359 
3595.374372  	90.997865 
3596.338796  	90.830976 
3597.303221  	91.590011 
3598.267645  	91.659751 
3599.232070  	91.362508 
3600.196494  	91.419378 
3601.160919  	91.166547 
3602.125343  	91.471022 
3603.089768  	91.721193 
3604.054192  	92.012953 
3605.018617  	92.226421 
3605.983041  	92.051974 
3606.947465  	90.996863 
3607.911890  	90.489538 
3608.876314  	90.809066 
3609.840739  	90.522576 
3610.805163  	91.383326 
3611.769588  	91.446410 
3612.734012  	90.307318 
3613.698437  	90.357497 
3614.662861  	90.617506 
3615.627286  	90.701857 
3616.591710  	91.605448 
3617.556134  	91.095236 
3618.520559  	90.314827 
3619.484983  	90.298265 
3620.449408  	90.264810 
3621.413832  	90.884591 
3622.378257  	91.556210 
3623.342681  	91.959519 
3624.307106  	92.100866 
3625.271530  	92.096771 
3626.235955  	91.662590 
3627.200379  	91.423927 
3628.164803  	90.578604 
3629.129228  	87.972618 
3630.093652  	88.498638 
3631.058077  	90.827482 
3632.022501  	91.715660 
3632.986926  	91.762393 
3633.951350  	91.117322 
3634.915775  	91.460188 
3635.880199  	92.119489 
3636.844624  	92.201995 
3637.809048  	91.985325 
3638.773472  	91.901653 
3639.737897  	92.181537 
3640.702321  	92.197910 
3641.666746  	91.909987 
3642.631170  	91.546522 
3643.595595  	91.765486 
3644.560019  	92.131735 
3645.524444  	91.897555 
3646.488868  	90.857510 
3647.453293  	89.182171 
3648.417717  	89.334187 
3649.382142  	89.145094 
3650.346566  	88.243969 
3651.310990  	88.473618 
3652.275415  	90.483060 
3653.239839  	91.789000 
3654.204264  	92.168637 
3655.168688  	92.061478 
3656.133113  	91.215318 
3657.097537  	90.872797 
3658.061962  	91.924744 
3659.026386  	92.240730 
3659.990811  	92.140881 
3660.955235  	92.253701 
3661.919659  	92.523512 
3662.884084  	92.592544 
3663.848508  	92.564087 
3664.812933  	92.474460 
3665.777357  	92.524197 
3666.741782  	92.574265 
3667.706206  	92.468883 
3668.670631  	91.586671 
3669.635055  	90.469028 
3670.599480  	89.937075 
3671.563904  	90.410872 
3672.528328  	91.806082 
3673.492753  	92.067915 
3674.457177  	90.999426 
3675.421602  	88.302820 
3676.386026  	88.625302 
3677.350451  	90.491327 
3678.314875  	91.334502 
3679.279300  	91.344600 
3680.243724  	91.350450 
3681.208149  	92.170536 
3682.172573  	92.521607 
3683.136997  	92.514969 
3684.101422  	92.425141 
3685.065846  	92.326698 
3686.030271  	92.418977 
3686.994695  	92.330759 
3687.959120  	91.662360 
3688.923544  	90.568495 
3689.887969  	90.926333 
3690.852393  	90.514966 
3691.816818  	90.353941 
3692.781242  	91.845052 
3693.745666  	92.293588 
3694.710091  	92.317711 
3695.674515  	92.421494 
3696.638940  	92.354837 
3697.603364  	92.479937 
3698.567789  	92.701891 
3699.532213  	92.556816 
3700.496638  	92.491011 
3701.461062  	91.876143 
3702.425487  	91.259441 
3703.389911  	92.158118 
3704.354335  	92.615781 
3705.318760  	92.489236 
3706.283184  	92.475463 
3707.247609  	92.619005 
3708.212033  	92.574265 
3709.176458  	91.925480 
3710.140882  	91.185760 
3711.105307  	91.004528 
3712.069731  	90.090930 
3713.034156  	90.152408 
3713.998580  	91.587331 
3714.963005  	91.751209 
3715.927429  	91.998299 
3716.891853  	92.548871 
3717.856278  	92.608309 
3718.820702  	91.983437 
3719.785127  	91.670622 
3720.749551  	92.281394 
3721.713976  	91.953786 
3722.678400  	90.686306 
3723.642825  	91.262480 
3724.607249  	91.673209 
3725.571674  	91.006954 
3726.536098  	90.743066 
3727.500522  	91.015851 
3728.464947  	91.983781 
3729.429371  	92.529760 
3730.393796  	92.417234 
3731.358220  	92.001052 
3732.322645  	91.195315 
3733.287069  	91.259455 
3734.251494  	90.861705 
3735.215918  	88.035699 
3736.180343  	88.237296 
3737.144767  	89.757661 
3738.109191  	90.649232 
3739.073616  	91.065219 
3740.038040  	91.621316 
3741.002465  	91.375334 
3741.966889  	91.441367 
3742.931314  	91.898721 
3743.895738  	91.091831 
3744.860163  	87.947504 
3745.824587  	89.977056 
3746.789012  	91.146667 
3747.753436  	91.170988 
3748.717860  	91.036890 
3749.682285  	90.554139 
3750.646709  	90.261177 
3751.611134  	89.996739 
3752.575558  	88.799270 
3753.539983  	90.441288 
3754.504407  	91.546824 
3755.468832  	91.981306 
3756.433256  	91.741014 
3757.397681  	91.727940 
3758.362105  	91.945408 
3759.326529  	91.165985 
3760.290954  	90.675745 
3761.255378  	91.982341 
3762.219803  	92.414272 
3763.184227  	92.487520 
3764.148652  	92.505248 
3765.113076  	92.145650 
3766.077501  	91.321389 
3767.041925  	91.913997 
3768.006350  	92.487632 
3768.970774  	92.241963 
3769.935199  	91.286192 
3770.899623  	91.398793 
3771.864047  	92.212222 
3772.828472  	92.526607 
3773.792896  	92.607714 
3774.757321  	92.711947 
3775.721745  	92.814961 
3776.686170  	92.886251 
3777.650594  	92.760614 
3778.615019  	92.357676 
3779.579443  	91.575668 
3780.543868  	91.678762 
3781.508292  	92.491310 
3782.472716  	92.611631 
3783.437141  	92.608898 
3784.401565  	92.278682 
3785.365990  	91.850697 
3786.330414  	92.170451 
3787.294839  	92.538587 
3788.259263  	92.722279 
3789.223688  	92.774143 
3790.188112  	92.767090 
3791.152537  	92.822091 
3792.116961  	92.845171 
3793.081385  	92.880706 
3794.045810  	92.889187 
3795.010234  	92.722384 
3795.974659  	92.237882 
3796.939083  	91.484356 
3797.903508  	91.709173 
3798.867932  	92.192219 
3799.832357  	92.300922 
3800.796781  	91.453717 
3801.761206  	89.965706 
3802.725630  	90.418118 
3803.690054  	91.492278 
3804.654479  	92.329833 
3805.618903  	92.398809 
3806.583328  	91.760357 
3807.547752  	91.056864 
3808.512177  	92.077005 
3809.476601  	92.549776 
3810.441026  	92.583902 
3811.405450  	92.708892 
3812.369875  	92.832453 
3813.334299  	92.856877 
3814.298723  	92.730771 
3815.263148  	92.190017 
3816.227572  	90.819975 
3817.191997  	91.086193 
3818.156421  	92.096477 
3819.120846  	92.074612 
3820.085270  	91.347980 
3821.049695  	89.782896 
3822.014119  	89.531681 
3822.978544  	91.275873 
3823.942968  	91.936422 
3824.907392  	92.162493 
3825.871817  	92.139192 
3826.836241  	91.622568 
3827.800666  	91.674012 
3828.765090  	92.287225 
3829.729515  	92.610949 
3830.693939  	92.532734 
3831.658364  	91.798343 
3832.622788  	91.748226 
3833.587213  	92.418246 
3834.551637  	92.102209 
3835.516062  	91.370896 
3836.480486  	91.858897 
3837.444910  	91.595798 
3838.409335  	90.429315 
3839.373759  	90.836860 
3840.338184  	90.532054 
3841.302608  	90.538387 
3842.267033  	91.694445 
3843.231457  	91.799750 
3844.195882  	91.089386 
3845.160306  	91.914924 
3846.124731  	92.503935 
3847.089155  	92.613392 
3848.053579  	92.622157 
3849.018004  	92.441959 
3849.982428  	92.029206 
3850.946853  	92.024892 
3851.911277  	91.264427 
3852.875702  	89.608748 
3853.840126  	88.950114 
3854.804551  	89.193770 
3855.768975  	91.177452 
3856.733400  	91.458308 
3857.697824  	91.091487 
3858.662248  	92.033551 
3859.626673  	92.681014 
3860.591097  	92.658730 
3861.555522  	92.082777 
3862.519946  	91.478075 
3863.484371  	91.745964 
3864.448795  	91.085376 
3865.413220  	90.055006 
3866.377644  	91.383418 
3867.342069  	92.424407 
3868.306493  	92.355590 
3869.270917  	91.103418 
3870.235342  	89.226349 
3871.199766  	90.478371 
3872.164191  	91.682671 
3873.128615  	91.981874 
3874.093040  	90.818596 
3875.057464  	90.803082 
3876.021889  	92.374351 
3876.986313  	92.782954 
3877.950738  	92.781779 
3878.915162  	92.664008 
3879.879586  	91.759805 
3880.844011  	90.037965 
3881.808435  	91.159327 
3882.772860  	92.161237 
3883.737284  	91.888391 
3884.701709  	91.777719 
3885.666133  	91.038445 
3886.630558  	90.668058 
3887.594982  	92.164546 
3888.559407  	92.705250 
3889.523831  	92.664614 
3890.488256  	92.245222 
3891.452680  	91.090098 
3892.417104  	90.975684 
3893.381529  	91.957595 
3894.345953  	91.967937 
3895.310378  	92.225797 
3896.274802  	92.699297 
3897.239227  	92.707954 
3898.203651  	92.061654 
3899.168076  	91.115550 
3900.132500  	90.961398 
3901.096925  	91.659532 
3902.061349  	90.493409 
3903.025773  	90.419491 
3903.990198  	90.941909 
3904.954622  	90.503021 
3905.919047  	90.774285 
3906.883471  	91.543060 
3907.847896  	92.520710 
3908.812320  	92.832894 
3909.776745  	92.841358 
3910.741169  	92.835437 
3911.705594  	92.819290 
3912.670018  	92.809461 
3913.634442  	92.834609 
3914.598867  	92.871545 
3915.563291  	92.760128 
3916.527716  	91.910287 
3917.492140  	91.104736 
3918.456565  	91.896620 
3919.420989  	92.265564 
3920.385414  	91.653158 
3921.349838  	92.109676 
3922.314263  	92.776933 
3923.278687  	92.504836 
3924.243111  	91.725234 
3925.207536  	91.285923 
3926.171960  	91.983224 
3927.136385  	92.758709 
3928.100809  	92.794415 
3929.065234  	92.604037 
3930.029658  	92.271241 
3930.994083  	92.045599 
3931.958507  	91.696399 
3932.922932  	91.307871 
3933.887356  	92.016644 
3934.851780  	92.468084 
3935.816205  	92.745788 
3936.780629  	92.897658 
3937.745054  	92.808579 
3938.709478  	92.599711 
3939.673903  	92.743965 
3940.638327  	92.827189 
3941.602752  	92.666429 
3942.567176  	91.835989 
3943.531601  	91.463763 
3944.496025  	92.253488 
3945.460449  	92.635761 
3946.424874  	92.730118 
3947.389298  	92.221743 
3948.353723  	91.812699 
3949.318147  	92.066776 
3950.282572  	91.832168 
3951.246996  	92.188165 
3952.211421  	92.737730 
3953.175845  	92.643128 
3954.140270  	92.719413 
3955.104694  	92.849476 
3956.069119  	92.770106 
3957.033543  	92.610001 
3957.997967  	92.608326 
3958.962392  	92.719502 
3959.926816  	92.769581 
3960.891241  	92.699059 
3961.855665  	92.333243 
3962.820090  	92.318050 
3963.784514  	92.787636 
3964.748939  	92.826219 
3965.713363  	92.850940 
3966.677788  	92.914902 
3967.642212  	92.899232 
3968.606636  	92.741372 
3969.571061  	92.580263 
3970.535485  	92.730512 
3971.499910  	92.827359 
3972.464334  	92.637323 
3973.428759  	92.732617 
3974.393183  	92.831112 
3975.357608  	92.689402 
3976.322032  	92.528455 
3977.286457  	92.656705 
3978.250881  	92.909317 
3979.215305  	92.950819 
3980.179730  	92.879801 
3981.144154  	92.810917 
3982.108579  	92.761985 
3983.073003  	92.778720 
3984.037428  	92.879911 
3985.001852  	92.901676 
3985.966277  	92.927692 
3986.930701  	93.000910 
3987.895126  	92.989310 
3988.859550  	92.933249 
3989.823974  	92.825695 
3990.788399  	92.658059 
3991.752823  	92.744003 
3992.717248  	92.882842 
3993.681672  	92.854045 
3994.646097  	92.743884 
3995.610521  	92.673355 
3996.574946  	92.878117 
3997.539370  	92.972970 
3998.503795  	92.977211 
3999.468219  	92.970445 
4000.432643  	93.007776 
4001.397068  	93.008430 
4002.361492  	92.920893 
4003.325917  	92.837222 
4004.290341  	92.913995 
4005.254766  	92.950939 
4006.219190  	92.931372 
4007.183615  	92.926123 
4008.148039  	92.832445 
4009.112464  	92.730552 
4010.076888  	92.838209 
4011.041313  	92.883830 
4012.005737  	92.890387 
4012.970161  	92.869018 
4013.934586  	92.894510 
4014.899010  	92.906258 
4015.863435  	92.874749 
4016.827859  	92.893424 
4017.792284  	92.945540 
4018.756708  	92.951342 
4019.721133  	92.904645 
4020.685557  	92.879786 
4021.649982  	92.948803 
4022.614406  	92.996784 
4023.578830  	92.984736 
4024.543255  	92.935793 
4025.507679  	92.825911 
4026.472104  	92.843965 
4027.436528  	92.934210 
4028.400953  	92.944408 
4029.365377  	92.951679 
4030.329802  	92.944496 
4031.294226  	92.933387 
4032.258651  	92.925590 
4033.223075  	92.987503 
4034.187499  	93.018815 
4035.151924  	92.991468 
4036.116348  	92.974718 
4037.080773  	92.992185 
4038.045197  	93.006281 
4039.009622  	92.987138 
4039.974046  	92.977467 
4040.938471  	93.001557 
4041.902895  	92.967142 
4042.867320  	92.968187 
4043.831744  	92.894809 
4044.796168  	92.809893 
4045.760593  	92.838174 
4046.725017  	92.949794 
4047.689442  	92.976072 
4048.653866  	92.996497 
4049.618291  	92.986298 
4050.582715  	92.950855 
4051.547140  	92.922271 
4052.511564  	92.969583 
4053.475989  	93.005647 
4054.440413  	92.969810 
4055.404837  	92.948075 
4056.369262  	93.001560 
4057.333686  	93.048132 
4058.298111  	93.012475 
4059.262535  	92.982071 
4060.226960  	92.936455 
4061.191384  	92.870590 
4062.155809  	92.950178 
4063.120233  	92.991497 
4064.084658  	92.959051 
4065.049082  	92.957646 
4066.013506  	92.969777 
4066.977931  	92.961541 
4067.942355  	92.942928 
4068.906780  	92.936850 
4069.871204  	92.984139 
4070.835629  	92.966694 
4071.800053  	92.932831 
4072.764478  	92.887583 
4073.728902  	92.872057 
4074.693327  	92.901341 
4075.657751  	92.983067 
4076.622176  	92.976211 
4077.586600  	92.949354 
4078.551024  	92.929751 
4079.515449  	92.888281 
4080.479873  	92.900927 
4081.444298  	92.943786 
4082.408722  	92.928412 
4083.373147  	92.914793 
4084.337571  	92.915288 
4085.301996  	92.933540 
4086.266420  	92.908767 
4087.230845  	92.892293 
4088.195269  	92.864521 
4089.159693  	92.859197 
4090.124118  	92.935564 
4091.088542  	92.963747 
4092.052967  	92.947311 
4093.017391  	92.965507 
4093.981816  	92.933976 
4094.946240  	92.950880 
4095.910665  	93.011012 
4096.875089  	93.063924 
4097.839514  	93.009741 
4098.803938  	92.916041 
4099.768362  	92.961288 
4100.732787  	93.035107 
4101.697211  	92.983175 
4102.661636  	92.913590 
4103.626060  	92.934561 
4104.590485  	92.909433 
4105.554909  	92.862352 
4106.519334  	92.868314 
4107.483758  	92.856336 
4108.448183  	92.941858 
4109.412607  	92.986271 
4110.377031  	92.958071 
4111.341456  	92.985832 
4112.305880  	92.998560 
4113.270305  	92.973995 
4114.234729  	92.973421 
4115.199154  	92.991563 
4116.163578  	92.962094 
4117.128003  	92.973314 
4118.092427  	92.973009 
4119.056852  	92.948669 
4120.021276  	92.949901 
4120.985700  	92.983506 
4121.950125  	93.014867 
4122.914549  	92.967368 
4123.878974  	92.961490 
4124.843398  	93.013448 
4125.807823  	93.033714 
4126.772247  	92.987503 
4127.736672  	92.958155 
4128.701096  	92.967295 
4129.665521  	92.989841 
4130.629945  	92.982854 
4131.594370  	92.988887 
4132.558794  	92.994257 
4133.523218  	92.963539 
4134.487643  	92.970994 
4135.452067  	93.016650 
4136.416492  	93.044524 
4137.380916  	93.073335 
4138.345341  	93.050400 
4139.309765  	93.004539 
4140.274190  	93.011743 
4141.238614  	92.990188 
4142.203039  	92.991683 
4143.167463  	93.084413 
4144.131887  	93.073398 
4145.096312  	93.023488 
4146.060736  	93.008354 
4147.025161  	93.023462 
4147.989585  	92.996594 
4148.954010  	92.989555 
4149.918434  	93.010832 
4150.882859  	93.017659 
4151.847283  	93.007144 
4152.811708  	92.977488 
4153.776132  	92.992134 
4154.740556  	93.026192 
4155.704981  	92.982139 
4156.669405  	92.947983 
4157.633830  	93.010414 
4158.598254  	93.022631 
4159.562679  	92.956463 
4160.527103  	92.945471 
4161.491528  	92.977654 
4162.455952  	92.975214 
4163.420377  	92.966742 
4164.384801  	93.001478 
4165.349225  	92.997256 
4166.313650  	92.998629 
4167.278074  	93.033562 
4168.242499  	93.066697 
4169.206923  	93.063381 
4170.171348  	93.075520 
4171.135772  	93.073721 
4172.100197  	92.998454 
4173.064621  	93.001155 
4174.029046  	93.081468 
4174.993470  	93.093607 
4175.957894  	93.095810 
4176.922319  	93.081107 
4177.886743  	93.058641 
4178.851168  	93.045057 
4179.815592  	92.993740 
4180.780017  	92.997843 
4181.744441  	93.052858 
4182.708866  	93.083343 
4183.673290  	93.051074 
4184.637715  	93.031633 
4185.602139  	93.016508 
4186.566563  	92.953503 
4187.530988  	92.974546 
4188.495412  	93.049396 
4189.459837  	93.114853 
4190.424261  	93.089641 
4191.388686  	93.085097 
4192.353110  	93.100963 
4193.317535  	93.101325 
4194.281959  	93.066749 
4195.246384  	93.056051 
4196.210808  	93.017565 
4197.175233  	93.012100 
4198.139657  	93.030811 
4199.104081  	93.029785 
4200.068506  	93.000121 
4201.032930  	92.992399 
4201.997355  	93.049024 
4202.961779  	93.114495 
4203.926204  	93.058619 
4204.890628  	93.030446 
4205.855053  	93.037250 
4206.819477  	93.048376 
4207.783902  	93.078070 
4208.748326  	93.092089 
4209.712750  	93.059228 
4210.677175  	93.066907 
4211.641599  	93.083190 
4212.606024  	93.070911 
4213.570448  	93.069367 
4214.534873  	93.115501 
4215.499297  	93.079302 
4216.463722  	93.103533 
4217.428146  	93.105759 
4218.392571  	93.080309 
4219.356995  	93.056403 
4220.321419  	93.066785 
4221.285844  	93.110443 
4222.250268  	93.155071 
4223.214693  	93.093381 
4224.179117  	93.059724 
4225.143542  	93.097892 
4226.107966  	93.106989 
4227.072391  	93.086448 
4228.036815  	93.019134 
4229.001240  	92.971972 
4229.965664  	92.948716 
4230.930088  	92.987033 
4231.894513  	93.054017 
4232.858937  	93.062039 
4233.823362  	93.097609 
4234.787786  	93.096839 
4235.752211  	93.059055 
4236.716635  	93.036357 
4237.681060  	93.083871 
4238.645484  	93.097734 
4239.609909  	93.066441 
4240.574333  	93.022741 
4241.538757  	93.047320 
4242.503182  	93.123940 
4243.467606  	93.114318 
4244.432031  	93.032796 
4245.396455  	93.024322 
4246.360880  	93.074198 
4247.325304  	93.074686 
4248.289729  	93.084666 
4249.254153  	93.117375 
4250.218578  	93.121183 
4251.183002  	93.109023 
4252.147427  	93.061781 
4253.111851  	93.071442 
4254.076275  	93.039004 
4255.040700  	93.054578 
4256.005124  	93.070180 
4256.969549  	93.104017 
4257.933973  	93.136691 
4258.898398  	93.109092 
4259.862822  	93.028305 
4260.827247  	92.994448 
4261.791671  	93.049461 
4262.756096  	93.138892 
4263.720520  	93.116612 
4264.684944  	93.046075 
4265.649369  	93.046038 
4266.613793  	93.123143 
4267.578218  	93.055936 
4268.542642  	93.020062 
4269.507067  	93.023177 
4270.471491  	93.006000 
4271.435916  	93.036282 
4272.400340  	93.030663 
4273.364765  	93.009753 
4274.329189  	93.066124 
4275.293613  	93.094979 
4276.258038  	93.107645 
4277.222462  	93.105633 
4278.186887  	93.044081 
4279.151311  	92.953059 
4280.115736  	92.963783 
4281.080160  	93.031061 
4282.044585  	93.054582 
4283.009009  	93.003269 
4283.973434  	92.961668 
4284.937858  	92.944392 
4285.902282  	92.918430 
4286.866707  	92.995675 
4287.831131  	93.099529 
4288.795556  	93.092044 
4289.759980  	93.029374 
4290.724405  	93.010568 
4291.688829  	93.050173 
4292.653254  	93.075071 
4293.617678  	93.102307 
4294.582103  	93.128268 
4295.546527  	93.106303 
4296.510951  	93.067427 
4297.475376  	93.079338 
4298.439800  	93.104951 
4299.404225  	93.102966 
4300.368649  	93.095083 
4301.333074  	93.084262 
4302.297498  	92.975615 
4303.261923  	92.988629 
4304.226347  	93.049892 
4305.190772  	93.124881 
4306.155196  	93.109457 
4307.119620  	93.085092 
4308.084045  	93.064787 
4309.048469  	93.085180 
4310.012894  	93.090799 
4310.977318  	93.115770 
4311.941743  	93.099348 
4312.906167  	93.086517 
4313.870592  	93.074627 
4314.835016  	93.118904 
4315.799441  	93.158865 
4316.763865  	93.171741 
4317.728290  	93.156514 
4318.692714  	93.163823 
4319.657138  	93.132432 
4320.621563  	93.105106 
4321.585987  	93.068008 
4322.550412  	93.086260 
4323.514836  	93.107114 
4324.479261  	93.092299 
4325.443685  	93.093975 
4326.408110  	93.145893 
4327.372534  	93.111212 
4328.336959  	93.094981 
4329.301383  	93.091344 
4330.265807  	93.138921 
4331.230232  	93.170825 
4332.194656  	93.119244 
4333.159081  	93.121088 
4334.123505  	93.162283 
4335.087930  	93.111112 
4336.052354  	93.101606 
4337.016779  	93.126248 
4337.981203  	93.163508 
4338.945628  	93.173081 
4339.910052  	93.165131 
4340.874476  	93.151563 
4341.838901  	93.190995 
4342.803325  	93.128157 
4343.767750  	93.059665 
4344.732174  	93.027979 
4345.696599  	93.045902 
4346.661023  	93.084327 
4347.625448  	93.051513 
4348.589872  	93.021328 
4349.554297  	93.068593 
4350.518721  	93.101349 
4351.483145  	93.144790 
4352.447570  	93.152058 
4353.411994  	93.106687 
4354.376419  	93.074049 
4355.340843  	93.078241 
4356.305268  	93.155199 
4357.269692  	93.192264 
4358.234117  	93.165663 
4359.198541  	93.115251 
4360.162966  	93.134698 
4361.127390  	93.134704 
4362.091814  	93.130720 
4363.056239  	93.103899 
4364.020663  	93.112241 
4364.985088  	93.117120 
4365.949512  	93.057232 
4366.913937  	93.025678 
4367.878361  	93.007302 
4368.842786  	93.054925 
4369.807210  	93.136799 
4370.771635  	93.120197 
4371.736059  	93.071614 
4372.700484  	93.086246 
4373.664908  	93.139773 
4374.629332  	93.140387 
4375.593757  	93.129165 
4376.558181  	93.140960 
4377.522606  	93.157652 
4378.487030  	93.118289 
4379.451455  	93.092399 
4380.415879  	93.099824 
4381.380304  	93.088348 
4382.344728  	93.178293 
4383.309153  	93.267572 
4384.273577  	93.212822 
4385.238001  	93.161132 
4386.202426  	93.134830 
4387.166850  	93.147613 
4388.131275  	93.161461 
4389.095699  	93.096198 
4390.060124  	93.097292 
4391.024548  	93.126263 
4391.988973  	93.138898 
4392.953397  	93.144634 
4393.917822  	93.133285 
4394.882246  	93.082590 
4395.846670  	93.076938 
4396.811095  	93.058343 
4397.775519  	93.067398 
4398.739944  	93.163576 
4399.704368  	93.199503 
4400.668793  	93.165349 
4401.633217  	93.065615 
4402.597642  	93.041380 
4403.562066  	93.157727 
4404.526491  	93.135793 
4405.490915  	93.084454 
4406.455339  	93.079609 
4407.419764  	93.091811 
4408.384188  	93.154194 
4409.348613  	93.201900 
4410.313037  	93.169093 
4411.277462  	93.103465 
4412.241886  	93.114741 
4413.206311  	93.185942 
4414.170735  	93.243174 
4415.135160  	93.232793 
4416.099584  	93.168423 
4417.064008  	93.104470 
4418.028433  	93.051664 
4418.992857  	93.087718 
4419.957282  	93.060305 
4420.921706  	92.993768 
4421.886131  	93.046287 
4422.850555  	93.094872 
4423.814980  	93.028069 
4424.779404  	92.974322 
4425.743829  	92.965784 
4426.708253  	92.990100 
4427.672677  	93.028585 
4428.637102  	93.050383 
4429.601526  	93.052081 
4430.565951  	93.064600 
4431.530375  	93.040748 
4432.494800  	92.985591 
4433.459224  	92.988703 
4434.423649  	93.047235 
4435.388073  	93.093290 
4436.352498  	93.161422 
4437.316922  	93.176460 
4438.281347  	93.166129 
4439.245771  	93.100042 
4440.210195  	93.110337 
4441.174620  	93.113653 
4442.139044  	93.082134 
4443.103469  	93.126115 
4444.067893  	93.126290 
4445.032318  	93.146119 
4445.996742  	93.134760 
4446.961167  	93.079775 
4447.925591  	93.071809 
4448.890016  	93.088452 
4449.854440  	93.040998 
4450.818864  	93.063515 
4451.783289  	93.082301 
4452.747713  	93.069195 
4453.712138  	93.114979 
4454.676562  	93.082867 
4455.640987  	93.008119 
4456.605411  	93.023917 
4457.569836  	93.070185 
4458.534260  	93.053697 
4459.498685  	93.043731 
4460.463109  	93.073370 
4461.427533  	93.123708 
4462.391958  	93.091233 
4463.356382  	93.076614 
4464.320807  	93.144817 
4465.285231  	93.197686 
4466.249656  	93.186650 
4467.214080  	93.176322 
4468.178505  	93.141807 
4469.142929  	93.170635 
4470.107354  	93.202196 
4471.071778  	93.142734 
4472.036202  	93.144725 
4473.000627  	93.174398 
4473.965051  	93.145784 
4474.929476  	93.046996 
4475.893900  	93.038289 
4476.858325  	93.056660 
4477.822749  	93.085771 
4478.787174  	93.140955 
4479.751598  	93.171187 
4480.716023  	93.181413 
4481.680447  	93.132961 
4482.644871  	93.083079 
4483.609296  	93.051421 
4484.573720  	93.097619 
4485.538145  	93.165952 
4486.502569  	93.177752 
4487.466994  	93.160204 
4488.431418  	93.233237 
4489.395843  	93.186069 
4490.360267  	93.133480 
4491.324692  	93.107264 
4492.289116  	93.121873 
4493.253541  	93.177005 
4494.217965  	93.253095 
4495.182389  	93.245601 
4496.146814  	93.185946 
4497.111238  	93.182010 
4498.075663  	93.197536 
4499.040087  	93.151286 
4500.004512  	93.149935 
4500.968936  	93.184537 
4501.933361  	93.187848 
4502.897785  	93.174357 
4503.862210  	93.170756 
4504.826634  	93.190050 
4505.791058  	93.183956 
4506.755483  	93.154596 
4507.719907  	93.175128 
4508.684332  	93.225872 
4509.648756  	93.198765 
4510.613181  	93.177542 
4511.577605  	93.225490 
4512.542030  	93.202033 
4513.506454  	93.153341 
4514.470879  	93.102803 
4515.435303  	93.087340 
4516.399727  	93.104783 
4517.364152  	93.093250 
4518.328576  	93.126534 
4519.293001  	93.205475 
4520.257425  	93.206060 
4521.221850  	93.133643 
4522.186274  	93.141309 
4523.150699  	93.146609 
4524.115123  	93.107579 
4525.079548  	93.109525 
4526.043972  	93.136065 
4527.008396  	93.125107 
4527.972821  	93.105747 
4528.937245  	93.093998 
4529.901670  	93.112449 
4530.866094  	93.214019 
4531.830519  	93.244593 
4532.794943  	93.161075 
4533.759368  	93.143548 
4534.723792  	93.176417 
4535.688217  	93.151200 
4536.652641  	93.145952 
4537.617065  	93.197400 
4538.581490  	93.254721 
4539.545914  	93.219944 
4540.510339  	93.213674 
4541.474763  	93.151001 
4542.439188  	93.110119 
4543.403612  	93.094445 
4544.368037  	93.074775 
4545.332461  	93.077107 
4546.296886  	93.170094 
4547.261310  	93.175337 
4548.225734  	93.193903 
4549.190159  	93.202463 
4550.154583  	93.202397 
4551.119008  	93.137707 
4552.083432  	93.109812 
4553.047857  	93.118181 
4554.012281  	93.181831 
4554.976706  	93.185562 
4555.941130  	93.129793 
4556.905555  	93.116186 
4557.869979  	93.157645 
4558.834404  	93.239360 
4559.798828  	93.191524 
4560.763252  	93.071093 
4561.727677  	93.083812 
4562.692101  	93.173947 
4563.656526  	93.271058 
4564.620950  	93.241508 
4565.585375  	93.130196 
4566.549799  	93.091356 
4567.514224  	93.151944 
4568.478648  	93.211390 
4569.443073  	93.173127 
4570.407497  	93.100740 
4571.371921  	93.145601 
4572.336346  	93.138143 
4573.300770  	93.150673 
4574.265195  	93.172365 
4575.229619  	93.151689 
4576.194044  	93.114137 
4577.158468  	93.086922 
4578.122893  	93.125047 
4579.087317  	93.235131 
4580.051742  	93.221768 
4581.016166  	93.178940 
4581.980590  	93.146507 
4582.945015  	93.128054 
4583.909439  	93.108857 
4584.873864  	93.135343 
4585.838288  	93.086043 
4586.802713  	93.140034 
4587.767137  	93.164140 
4588.731562  	93.219073 
4589.695986  	93.213475 
4590.660411  	93.154516 
4591.624835  	93.162482 
4592.589259  	93.201384 
4593.553684  	93.222750 
4594.518108  	93.130834 
4595.482533  	93.099362 
4596.446957  	93.171999 
4597.411382  	93.126736 
4598.375806  	93.098691 
4599.340231  	93.146692 
4600.304655  	93.161412 
4601.269080  	93.170537 
4602.233504  	93.135245 
4603.197928  	93.094707 
4604.162353  	93.147865 
4605.126777  	93.155854 
4606.091202  	93.163875 
4607.055626  	93.151381 
4608.020051  	93.175432 
4608.984475  	93.212076 
4609.948900  	93.184310 
4610.913324  	93.196792 
4611.877749  	93.178254 
4612.842173  	93.197454 
4613.806598  	93.214284 
4614.771022  	93.183210 
4615.735446  	93.214913 
4616.699871  	93.174797 
4617.664295  	93.091459 
4618.628720  	93.067209 
4619.593144  	93.124620 
4620.557569  	93.197933 
4621.521993  	93.147522 
4622.486418  	93.112768 
4623.450842  	93.156127 
4624.415267  	93.147060 
4625.379691  	93.180315 
4626.344115  	93.177363 
4627.308540  	93.185580 
4628.272964  	93.137450 
4629.237389  	93.079969 
4630.201813  	93.079147 
4631.166238  	93.126262 
4632.130662  	93.134716 
4633.095087  	93.081784 
4634.059511  	93.081815 
4635.023936  	93.169206 
4635.988360  	93.231291 
4636.952784  	93.189207 
4637.917209  	93.194214 
4638.881633  	93.131814 
4639.846058  	93.061562 
4640.810482  	93.099507 
4641.774907  	93.123299 
4642.739331  	93.034392 
4643.703756  	93.023211 
4644.668180  	93.127215 
4645.632605  	93.113081 
4646.597029  	93.174891 
4647.561453  	93.201255 
4648.525878  	93.173843 
4649.490302  	93.145272 
4650.454727  	93.165718 
4651.419151  	93.179329 
4652.383576  	93.150684 
4653.348000  	93.114910 
4654.312425  	93.120918 
4655.276849  	93.147462 
4656.241274  	93.118223 
4657.205698  	93.113610 
4658.170122  	93.136738 
4659.134547  	93.158141 
4660.098971  	93.158993 
4661.063396  	93.213564 
4662.027820  	93.306396 
4662.992245  	93.274730 
4663.956669  	93.199759 
4664.921094  	93.213836 
4665.885518  	93.271719 
4666.849943  	93.207642 
4667.814367  	93.148282 
4668.778791  	93.259122 
4669.743216  	93.273112 
4670.707640  	93.184183 
4671.672065  	93.141603 
4672.636489  	93.154153 
4673.600914  	93.164803 
4674.565338  	93.139669 
4675.529763  	93.113125 
4676.494187  	93.164531 
4677.458612  	93.182190 
4678.423036  	93.199977 
4679.387461  	93.252730 
4680.351885  	93.289624 
4681.316309  	93.258392 
4682.280734  	93.192057 
4683.245158  	93.126436 
4684.209583  	93.122995 
4685.174007  	93.180365 
4686.138432  	93.231537 
4687.102856  	93.227030 
4688.067281  	93.233685 
4689.031705  	93.196757 
4689.996130  	93.188696 
4690.960554  	93.217357 
4691.924978  	93.127522 
4692.889403  	93.067393 
4693.853827  	93.069456 
4694.818252  	93.091114 
4695.782676  	93.229890 
4696.747101  	93.297436 
4697.711525  	93.270942 
4698.675950  	93.243976 
4699.640374  	93.193099 