##TITLE=No Description
##DATA TYPE=INFRARED SPECTRUM
##XUNITS=1/CM
##YUNITS=%T
400.236149  	134.128808 
401.200574  	131.708706 
402.164998  	96.328241 
403.129423  	87.936895 
404.093847  	99.349528 
405.058272  	93.804937 
406.022696  	82.625988 
406.987120  	83.945650 
407.951545  	91.262537 
408.915969  	93.564765 
409.880394  	89.413534 
410.844818  	91.126391 
411.809243  	94.113171 
412.773667  	93.733340 
413.738092  	85.642627 
414.702516  	79.925207 
415.666941  	77.711990 
416.631365  	82.729963 
417.595789  	88.155018 
418.560214  	87.313255 
419.524638  	85.073295 
420.489063  	78.945531 
421.453487  	75.866830 
422.417912  	77.587355 
423.382336  	80.371712 
424.346761  	80.742412 
425.311185  	78.530707 
426.275610  	78.191033 
427.240034  	79.369252 
428.204458  	80.692741 
429.168883  	80.179030 
430.133307  	80.964494 
431.097732  	77.979768 
432.062156  	75.978553 
433.026581  	78.313524 
433.991005  	80.353272 
434.955430  	79.055787 
435.919854  	76.805160 
436.884279  	75.176709 
437.848703  	76.489778 
438.813127  	80.139722 
439.777552  	81.039649 
440.741976  	78.771372 
441.706401  	80.424951 
442.670825  	81.948982 
443.635250  	82.365620 
444.599674  	82.459559 
445.564099  	80.877203 
446.528523  	79.092970 
447.492948  	79.959356 
448.457372  	84.628055 
449.421796  	84.109148 
450.386221  	80.531795 
451.350645  	80.611653 
452.315070  	82.342968 
453.279494  	80.879639 
454.243919  	80.625691 
455.208343  	81.841842 
456.172768  	81.742239 
457.137192  	80.953378 
458.101617  	80.677381 
459.066041  	81.655539 
460.030466  	82.349749 
460.994890  	82.882365 
461.959314  	82.152458 
462.923739  	81.176972 
463.888163  	81.109552 
464.852588  	81.621667 
465.817012  	82.254852 
466.781437  	82.013250 
467.745861  	81.530277 
468.710286  	80.995366 
469.674710  	79.936388 
470.639135  	79.748608 
471.603559  	79.827602 
472.567983  	80.524300 
473.532408  	81.356455 
474.496832  	81.375474 
475.461257  	81.113420 
476.425681  	79.621262 
477.390106  	80.417897 
478.354530  	82.653389 
479.318955  	82.167752 
480.283379  	80.376888 
481.247804  	80.355020 
482.212228  	80.302560 
483.176652  	80.753582 
484.141077  	81.437596 
485.105501  	80.847737 
486.069926  	80.276388 
487.034350  	80.992418 
487.998775  	81.076010 
488.963199  	80.916164 
489.927624  	81.213508 
490.892048  	80.716139 
491.856473  	80.067887 
492.820897  	79.916075 
493.785321  	79.797508 
494.749746  	79.266495 
495.714170  	79.346764 
496.678595  	79.434618 
497.643019  	79.451436 
498.607444  	79.421086 
499.571868  	78.704024 
500.536293  	78.364186 
501.500717  	77.546702 
502.465142  	76.739207 
503.429566  	77.779821 
504.393990  	78.206903 
505.358415  	78.194297 
506.322839  	77.801657 
507.287264  	77.941486 
508.251688  	79.497966 
509.216113  	80.510856 
510.180537  	80.678732 
511.144962  	81.113389 
512.109386  	81.661520 
513.073811  	81.687273 
514.038235  	81.701078 
515.002660  	81.425387 
515.967084  	80.693230 
516.931508  	80.140086 
517.895933  	80.684675 
518.860357  	80.794292 
519.824782  	80.588701 
520.789206  	81.075154 
521.753631  	81.357309 
522.718055  	81.381883 
523.682480  	81.404306 
524.646904  	81.214995 
525.611329  	80.939096 
526.575753  	81.328346 
527.540177  	81.867550 
528.504602  	82.195794 
529.469026  	82.350975 
530.433451  	82.060927 
531.397875  	81.613884 
532.362300  	81.743222 
533.326724  	82.378473 
534.291149  	82.328717 
535.255573  	82.165482 
536.219998  	82.465048 
537.184422  	83.047197 
538.148846  	82.678508 
539.113271  	82.584861 
540.077695  	82.401824 
541.042120  	82.561038 
542.006544  	82.670781 
542.970969  	82.876845 
543.935393  	83.149929 
544.899818  	82.836766 
545.864242  	82.754502 
546.828667  	82.619043 
547.793091  	82.324380 
548.757515  	82.542526 
549.721940  	82.673362 
550.686364  	82.725502 
551.650789  	82.893741 
552.615213  	82.644155 
553.579638  	82.741656 
554.544062  	82.611914 
555.508487  	82.636600 
556.472911  	82.657109 
557.437336  	82.525688 
558.401760  	82.691473 
559.366184  	82.928941 
560.330609  	82.700740 
561.295033  	82.594463 
562.259458  	82.781864 
563.223882  	82.564265 
564.188307  	82.317690 
565.152731  	82.541578 
566.117156  	82.364047 
567.081580  	81.983180 
568.046005  	82.253493 
569.010429  	82.425167 
569.974853  	82.404169 
570.939278  	82.411789 
571.903702  	82.311110 
572.868127  	82.212960 
573.832551  	82.255418 
574.796976  	82.556844 
575.761400  	82.198861 
576.725825  	82.318865 
577.690249  	82.590919 
578.654674  	82.555998 
579.619098  	82.353512 
580.583523  	82.132933 
581.547947  	82.393834 
582.512371  	82.586400 
583.476796  	82.317038 
584.441220  	82.082934 
585.405645  	82.253646 
586.370069  	82.771637 
587.334494  	82.649967 
588.298918  	82.391745 
589.263343  	82.309699 
590.227767  	82.310506 
591.192192  	81.967376 
592.156616  	81.849446 
593.121040  	82.353360 
594.085465  	82.493027 
595.049889  	82.458143 
596.014314  	82.464017 
596.978738  	82.488348 
597.943163  	82.312428 
598.907587  	82.068570 
599.872012  	81.677873 
600.836436  	81.847839 
601.800861  	82.185837 
602.765285  	82.191557 
603.729709  	82.193849 
604.694134  	82.084605 
605.658558  	81.997287 
606.622983  	82.086893 
607.587407  	82.058095 
608.551832  	81.926283 
609.516256  	81.949668 
610.480681  	81.876173 
611.445105  	81.885535 
612.409530  	82.060759 
613.373954  	81.847275 
614.338378  	81.614361 
615.302803  	81.523999 
616.267227  	81.318393 
617.231652  	81.603824 
618.196076  	81.751713 
619.160501  	81.697974 
620.124925  	81.537691 
621.089350  	81.644066 
622.053774  	81.554926 
623.018199  	81.606199 
623.982623  	81.351578 
624.947047  	81.136896 
625.911472  	81.200308 
626.875896  	81.217209 
627.840321  	80.956937 
628.804745  	80.994085 
629.769170  	80.816940 
630.733594  	80.406725 
631.698019  	80.309402 
632.662443  	80.482585 
633.626868  	80.694498 
634.591292  	80.902122 
635.555717  	80.898889 
636.520141  	81.198351 
637.484565  	81.342127 
638.448990  	81.461054 
639.413414  	81.308589 
640.377839  	81.215137 
641.342263  	81.128474 
642.306688  	80.947240 
643.271112  	80.925505 
644.235537  	80.932517 
645.199961  	80.857395 
646.164386  	80.941963 
647.128810  	80.833106 
648.093234  	80.713808 
649.057659  	80.655927 
650.022083  	80.684235 
650.986508  	80.821354 
651.950932  	80.806060 
652.915357  	80.624599 
653.879781  	80.613051 
654.844206  	80.583807 
655.808630  	80.397064 
656.773055  	80.217757 
657.737479  	80.118231 
658.701903  	79.871862 
659.666328  	79.744489 
660.630752  	79.781623 
661.595177  	79.778985 
662.559601  	79.769704 
663.524026  	79.711376 
664.488450  	79.685621 
665.452875  	79.624096 
666.417299  	79.499198 
667.381724  	79.625281 
668.346148  	79.306117 
669.310572  	78.886559 
670.274997  	78.744688 
671.239421  	78.671679 
672.203846  	78.740652 
673.168270  	78.709401 
674.132695  	78.495056 
675.097119  	78.334840 
676.061544  	78.064846 
677.025968  	77.817773 
677.990393  	77.625621 
678.954817  	77.535427 
679.919241  	77.509118 
680.883666  	77.416843 
681.848090  	77.377613 
682.812515  	77.315075 
683.776939  	77.152546 
684.741364  	77.009527 
685.705788  	76.811637 
686.670213  	76.791893 
687.634637  	76.525570 
688.599062  	76.080150 
689.563486  	75.777217 
690.527910  	75.727005 
691.492335  	75.601280 
692.456759  	75.230485 
693.421184  	74.676436 
694.385608  	74.302801 
695.350033  	73.880570 
696.314457  	73.401566 
697.278882  	72.760585 
698.243306  	72.059214 
699.207731  	71.399352 
700.172155  	70.771783 
701.136580  	70.091725 
702.101004  	69.487709 
703.065428  	68.940598 
704.029853  	68.440490 
704.994277  	67.864345 
705.958702  	67.326312 
706.923126  	66.625144 
707.887551  	65.880683 
708.851975  	65.263934 
709.816400  	64.423294 
710.780824  	63.448732 
711.745249  	62.470717 
712.709673  	61.456944 
713.674097  	60.215183 
714.638522  	58.891307 
715.602946  	57.542996 
716.567371  	56.052873 
717.531795  	54.591334 
718.496220  	53.045091 
719.460644  	51.671424 
720.425069  	50.590086 
721.389493  	49.768754 
722.353918  	49.260246 
723.318342  	49.282953 
724.282766  	49.979004 
725.247191  	51.523232 
726.211615  	53.632694 
727.176040  	56.126826 
728.140464  	58.580949 
729.104889  	60.973471 
730.069313  	63.419721 
731.033738  	65.993618 
731.998162  	68.411869 
732.962587  	70.890717 
733.927011  	73.473404 
734.891435  	76.026051 
735.855860  	78.386630 
736.820284  	80.569231 
737.784709  	82.537834 
738.749133  	84.230878 
739.713558  	85.546385 
740.677982  	86.605227 
741.642407  	87.370872 
742.606831  	87.928094 
743.571256  	88.259317 
744.535680  	88.364648 
745.500104  	88.475751 
746.464529  	88.543955 
747.428953  	88.474662 
748.393378  	88.460369 
749.357802  	88.372452 
750.322227  	88.211277 
751.286651  	88.013889 
752.251076  	87.929615 
753.215500  	87.855667 
754.179925  	87.784038 
755.144349  	87.714645 
756.108774  	87.633559 
757.073198  	87.421600 
758.037622  	87.323224 
759.002047  	87.108367 
759.966471  	86.998206 
760.930896  	86.864590 
761.895320  	86.731503 
762.859745  	86.697003 
763.824169  	86.728689 
764.788594  	86.592492 
765.753018  	86.366952 
766.717443  	86.179732 
767.681867  	86.042697 
768.646291  	85.840668 
769.610716  	85.645987 
770.575140  	85.510264 
771.539565  	85.454517 
772.503989  	85.248571 
773.468414  	85.129859 
774.432838  	85.024925 
775.397263  	84.988357 
776.361687  	84.877363 
777.326112  	84.698048 
778.290536  	84.437425 
779.254960  	84.368481 
780.219385  	84.239884 
781.183809  	84.354712 
782.148234  	83.937507 
783.112658  	83.881207 
784.077083  	83.692242 
785.041507  	83.306253 
786.005932  	83.316948 
786.970356  	83.034633 
787.934781  	82.631212 
788.899205  	82.330343 
789.863629  	82.233261 
790.828054  	81.917839 
791.792478  	81.612990 
792.756903  	81.565890 
793.721327  	81.776268 
794.685752  	82.027321 
795.650176  	82.527451 
796.614601  	83.047497 
797.579025  	83.428833 
798.543450  	83.463161 
799.507874  	83.401101 
800.472298  	83.406634 
801.436723  	83.432588 
802.401147  	83.397077 
803.365572  	83.327076 
804.329996  	83.344285 
805.294421  	83.357087 
806.258845  	83.293720 
807.223270  	83.349496 
808.187694  	83.278525 
809.152119  	83.218282 
810.116543  	83.201513 
811.080967  	83.161896 
812.045392  	83.122286 
813.009816  	83.190186 
813.974241  	83.183704 
814.938665  	83.076883 
815.903090  	83.056624 
816.867514  	83.043558 
817.831939  	82.986594 
818.796363  	83.073304 
819.760788  	83.113652 
820.725212  	82.972278 
821.689637  	82.795884 
822.654061  	82.708797 
823.618485  	82.589137 
824.582910  	82.484726 
825.547334  	82.334752 
826.511759  	82.224788 
827.476183  	82.108643 
828.440608  	81.945110 
829.405032  	81.757801 
830.369457  	81.570779 
831.333881  	81.419877 
832.298306  	81.286938 
833.262730  	81.085044 
834.227154  	80.879042 
835.191579  	80.703008 
836.156003  	80.441964 
837.120428  	80.130726 
838.084852  	79.847604 
839.049277  	79.602704 
840.013701  	79.297390 
840.978126  	79.016414 
841.942550  	78.823121 
842.906975  	78.512388 
843.871399  	78.123557 
844.835823  	77.856487 
845.800248  	77.761201 
846.764672  	77.773681 
847.729097  	77.907925 
848.693521  	78.056800 
849.657946  	78.381521 
850.622370  	78.816759 
851.586795  	79.144283 
852.551219  	79.299438 
853.515644  	79.443036 
854.480068  	79.575910 
855.444492  	79.645141 
856.408917  	79.773609 
857.373341  	79.912692 
858.337766  	80.012166 
859.302190  	80.110103 
860.266615  	80.080355 
861.231039  	79.988220 
862.195464  	79.892593 
863.159888  	79.658733 
864.124313  	79.347279 
865.088737  	78.933288 
866.053161  	78.358626 
867.017586  	77.571980 
867.982010  	76.564332 
868.946435  	75.296574 
869.910859  	73.767160 
870.875284  	72.179221 
871.839708  	71.424094 
872.804133  	72.169022 
873.768557  	73.975654 
874.732982  	75.821727 
875.697406  	77.210532 
876.661831  	78.264688 
877.626255  	79.124242 
878.590679  	79.867064 
879.555104  	80.490683 
880.519528  	80.979723 
881.483953  	81.442532 
882.448377  	81.930670 
883.412802  	82.283948 
884.377226  	82.541591 
885.341651  	82.795275 
886.306075  	82.929376 
887.270500  	82.997357 
888.234924  	83.106433 
889.199348  	83.057174 
890.163773  	82.942519 
891.128197  	82.928681 
892.092622  	82.925347 
893.057046  	82.791107 
894.021471  	82.657348 
894.985895  	82.578082 
895.950320  	82.497094 
896.914744  	82.454908 
897.879169  	82.416756 
898.843593  	82.385861 
899.808017  	82.485005 
900.772442  	82.584498 
901.736866  	82.573456 
902.701291  	82.633968 
903.665715  	82.792953 
904.630140  	82.866628 
905.594564  	82.904997 
906.558989  	83.026409 
907.523413  	83.149561 
908.487838  	83.221767 
909.452262  	83.268076 
910.416686  	83.345174 
911.381111  	83.344412 
912.345535  	83.350010 
913.309960  	83.354932 
914.274384  	83.306121 
915.238809  	83.282525 
916.203233  	83.226146 
917.167658  	83.189127 
918.132082  	83.167858 
919.096507  	83.157388 
920.060931  	83.158331 
921.025355  	83.108555 
921.989780  	82.992639 
922.954204  	82.903372 
923.918629  	82.801203 
924.883053  	82.738987 
925.847478  	82.705379 
926.811902  	82.605038 
927.776327  	82.458488 
928.740751  	82.363890 
929.705176  	82.342594 
930.669600  	82.291331 
931.634024  	82.176199 
932.598449  	82.094551 
933.562873  	82.017239 
934.527298  	81.918476 
935.491722  	81.770535 
936.456147  	81.672537 
937.420571  	81.632404 
938.384996  	81.549783 
939.349420  	81.418344 
940.313845  	81.316886 
941.278269  	81.259009 
942.242694  	81.171905 
943.207118  	81.001227 
944.171542  	80.881200 
945.135967  	80.818610 
946.100391  	80.693133 
947.064816  	80.529428 
948.029240  	80.392675 
948.993665  	80.249220 
949.958089  	80.130138 
950.922514  	79.999297 
951.886938  	79.865227 
952.851363  	79.670496 
953.815787  	79.432763 
954.780211  	79.261435 
955.744636  	79.131685 
956.709060  	78.934518 
957.673485  	78.706363 
958.637909  	78.447155 
959.602334  	78.222870 
960.566758  	78.020188 
961.531183  	77.731036 
962.495607  	77.456434 
963.460032  	77.198357 
964.424456  	76.947379 
965.388880  	76.667207 
966.353305  	76.402482 
967.317729  	76.262880 
968.282154  	76.138327 
969.246578  	76.025115 
970.211003  	76.021180 
971.175427  	76.101493 
972.139852  	76.226774 
973.104276  	76.473072 
974.068701  	76.765634 
975.033125  	77.050503 
975.997549  	77.308936 
976.961974  	77.528742 
977.926398  	77.714599 
978.890823  	77.863368 
979.855247  	77.963664 
980.819672  	78.012310 
981.784096  	78.042336 
982.748521  	78.095848 
983.712945  	78.065538 
984.677370  	77.973197 
985.641794  	77.880242 
986.606218  	77.789308 
987.570643  	77.705358 
988.535067  	77.645743 
989.499492  	77.613000 
990.463916  	77.541056 
991.428341  	77.456996 
992.392765  	77.332174 
993.357190  	77.132899 
994.321614  	76.960847 
995.286039  	76.825859 
996.250463  	76.618875 
997.214888  	76.384919 
998.179312  	76.189260 
999.143736  	75.972920 
1000.108161  	75.713979 
1001.072585  	75.434278 
1002.037010  	75.167712 
1003.001434  	74.890495 
1003.965859  	74.561970 
1004.930283  	74.164471 
1005.894708  	73.711796 
1006.859132  	73.228206 
1007.823557  	72.637626 
1008.787981  	71.951886 
1009.752405  	71.175691 
1010.716830  	70.275065 
1011.681254  	69.211647 
1012.645679  	67.979268 
1013.610103  	66.697014 
1014.574528  	65.468596 
1015.538952  	64.501843 
1016.503377  	64.061850 
1017.467801  	64.300892 
1018.432226  	65.177603 
1019.396650  	66.344255 
1020.361074  	67.686096 
1021.325499  	69.076017 
1022.289923  	70.375520 
1023.254348  	71.643140 
1024.218772  	73.099768 
1025.183197  	74.692983 
1026.147621  	76.074894 
1027.112046  	77.005982 
1028.076470  	77.434072 
1029.040895  	77.507472 
1030.005319  	77.306148 
1030.969743  	76.989760 
1031.934168  	76.788363 
1032.898592  	76.595822 
1033.863017  	76.277265 
1034.827441  	75.894988 
1035.791866  	75.629300 
1036.756290  	75.431917 
1037.720715  	75.215799 
1038.685139  	75.021248 
1039.649564  	74.918186 
1040.613988  	74.794058 
1041.578412  	74.578279 
1042.542837  	74.419722 
1043.507261  	74.394087 
1044.471686  	74.345292 
1045.436110  	74.221188 
1046.400535  	74.158451 
1047.364959  	74.161471 
1048.329384  	74.073946 
1049.293808  	73.975792 
1050.258233  	73.931263 
1051.222657  	73.888817 
1052.187081  	73.831748 
1053.151506  	73.694150 
1054.115930  	73.593964 
1055.080355  	73.483448 
1056.044779  	73.252547 
1057.009204  	73.022339 
1057.973628  	72.838169 
1058.938053  	72.641151 
1059.902477  	72.341588 
1060.866902  	72.003010 
1061.831326  	71.762702 
1062.795751  	71.531549 
1063.760175  	71.213309 
1064.724599  	70.822607 
1065.689024  	70.446791 
1066.653448  	70.085786 
1067.617873  	69.645267 
1068.582297  	69.119845 
1069.546722  	68.650683 
1070.511146  	68.235924 
1071.475571  	67.692062 
1072.439995  	67.099378 
1073.404420  	66.533681 
1074.368844  	65.895554 
1075.333268  	65.203563 
1076.297693  	64.512493 
1077.262117  	63.815102 
1078.226542  	63.159200 
1079.190966  	62.522698 
1080.155391  	61.874889 
1081.119815  	61.305361 
1082.084240  	60.828901 
1083.048664  	60.425036 
1084.013089  	60.104455 
1084.977513  	59.805974 
1085.941937  	59.459747 
1086.906362  	59.175467 
1087.870786  	58.982439 
1088.835211  	58.805109 
1089.799635  	58.568158 
1090.764060  	58.319463 
1091.728484  	58.176514 
1092.692909  	58.119481 
1093.657333  	58.024168 
1094.621758  	57.938621 
1095.586182  	58.009464 
1096.550606  	58.149882 
1097.515031  	58.334137 
1098.479455  	58.608667 
1099.443880  	58.957087 
1100.408304  	59.376303 
1101.372729  	59.850310 
1102.337153  	60.385257 
1103.301578  	60.986319 
1104.266002  	61.594475 
1105.230427  	62.228360 
1106.194851  	62.916108 
1107.159275  	63.618239 
1108.123700  	64.231914 
1109.088124  	64.740367 
1110.052549  	65.171251 
1111.016973  	65.506144 
1111.981398  	65.720814 
1112.945822  	65.876247 
1113.910247  	65.970583 
1114.874671  	65.944867 
1115.839096  	65.854225 
1116.803520  	65.807305 
1117.767945  	65.844982 
1118.732369  	65.949272 
1119.696793  	66.179979 
1120.661218  	66.525320 
1121.625642  	66.890222 
1122.590067  	67.307956 
1123.554491  	67.823233 
1124.518916  	68.422968 
1125.483340  	69.092500 
1126.447765  	69.823832 
1127.412189  	70.602468 
1128.376614  	71.427076 
1129.341038  	72.314435 
1130.305462  	73.245320 
1131.269887  	74.192550 
1132.234311  	75.121126 
1133.198736  	76.049332 
1134.163160  	76.995808 
1135.127585  	77.896346 
1136.092009  	78.752066 
1137.056434  	79.585178 
1138.020858  	80.376966 
1138.985283  	81.082052 
1139.949707  	81.680173 
1140.914131  	82.255605 
1141.878556  	82.794938 
1142.842980  	83.235883 
1143.807405  	83.666703 
1144.771829  	84.071663 
1145.736254  	84.396711 
1146.700678  	84.708749 
1147.665103  	84.970808 
1148.629527  	85.204638 
1149.593952  	85.424990 
1150.558376  	85.604657 
1151.522800  	85.716307 
1152.487225  	85.835660 
1153.451649  	85.957814 
1154.416074  	86.052699 
1155.380498  	86.066892 
1156.344923  	86.073522 
1157.309347  	86.099167 
1158.273772  	86.102638 
1159.238196  	86.044241 
1160.202621  	86.008041 
1161.167045  	85.980857 
1162.131469  	85.928938 
1163.095894  	85.841472 
1164.060318  	85.766767 
1165.024743  	85.685428 
1165.989167  	85.567892 
1166.953592  	85.413477 
1167.918016  	85.211223 
1168.882441  	84.960819 
1169.846865  	84.677769 
1170.811290  	84.356390 
1171.775714  	84.086837 
1172.740138  	83.934835 
1173.704563  	83.767276 
1174.668987  	83.600827 
1175.633412  	83.601415 
1176.597836  	83.670228 
1177.562261  	83.683985 
1178.526685  	83.681607 
1179.491110  	83.688809 
1180.455534  	83.708579 
1181.419959  	83.763304 
1182.384383  	83.752433 
1183.348808  	83.667094 
1184.313232  	83.578923 
1185.277656  	83.434676 
1186.242081  	83.234841 
1187.206505  	83.055157 
1188.170930  	82.893089 
1189.135354  	82.626398 
1190.099779  	82.329749 
1191.064203  	82.096220 
1192.028628  	81.792507 
1192.993052  	81.416429 
1193.957477  	81.053691 
1194.921901  	80.720066 
1195.886325  	80.364520 
1196.850750  	79.956106 
1197.815174  	79.564518 
1198.779599  	79.208909 
1199.744023  	78.868178 
1200.708448  	78.465014 
1201.672872  	78.031178 
1202.637297  	77.663427 
1203.601721  	77.284495 
1204.566146  	76.872385 
1205.530570  	76.459580 
1206.494994  	76.078053 
1207.459419  	75.691646 
1208.423843  	75.286523 
1209.388268  	74.867092 
1210.352692  	74.485986 
1211.317117  	74.044283 
1212.281541  	73.541726 
1213.245966  	73.104698 
1214.210390  	72.646895 
1215.174815  	72.096436 
1216.139239  	71.518157 
1217.103663  	70.958008 
1218.068088  	70.375239 
1219.032512  	69.749303 
1219.996937  	69.143550 
1220.961361  	68.595092 
1221.925786  	68.092122 
1222.890210  	67.584999 
1223.854635  	67.083513 
1224.819059  	66.539633 
1225.783484  	66.001897 
1226.747908  	65.485758 
1227.712332  	64.894252 
1228.676757  	64.216977 
1229.641181  	63.493038 
1230.605606  	62.759103 
1231.570030  	62.018146 
1232.534455  	61.249995 
1233.498879  	60.497816 
1234.463304  	59.809373 
1235.427728  	59.156776 
1236.392153  	58.586007 
1237.356577  	58.133793 
1238.321002  	57.793911 
1239.285426  	57.564662 
1240.249850  	57.415235 
1241.214275  	57.370060 
1242.178699  	57.440915 
1243.143124  	57.612805 
1244.107548  	57.878060 
1245.071973  	58.240530 
1246.036397  	58.636531 
1247.000822  	59.033280 
1247.965246  	59.481302 
1248.929671  	59.970143 
1249.894095  	60.427146 
1250.858519  	60.888032 
1251.822944  	61.339735 
1252.787368  	61.747324 
1253.751793  	62.122651 
1254.716217  	62.423045 
1255.680642  	62.690544 
1256.645066  	62.958227 
1257.609491  	63.205340 
1258.573915  	63.422309 
1259.538340  	63.609798 
1260.502764  	63.836478 
1261.467188  	64.296679 
1262.431613  	64.804416 
1263.396037  	65.278519 
1264.360462  	65.814286 
1265.324886  	66.439794 
1266.289311  	67.084291 
1267.253735  	67.794457 
1268.218160  	68.512212 
1269.182584  	69.210285 
1270.147009  	69.878823 
1271.111433  	70.566559 
1272.075857  	71.227687 
1273.040282  	71.976935 
1274.004706  	72.619327 
1274.969131  	73.164975 
1275.933555  	73.703152 
1276.897980  	74.227758 
1277.862404  	74.731563 
1278.826829  	75.183887 
1279.791253  	75.589881 
1280.755678  	76.023781 
1281.720102  	76.488356 
1282.684526  	76.945413 
1283.648951  	77.367382 
1284.613375  	77.779784 
1285.577800  	78.218318 
1286.542224  	78.604059 
1287.506649  	78.876087 
1288.471073  	79.305187 
1289.435498  	79.892875 
1290.399922  	80.392004 
1291.364347  	80.912432 
1292.328771  	81.476569 
1293.293195  	81.988051 
1294.257620  	82.518519 
1295.222044  	83.003735 
1296.186469  	83.406451 
1297.150893  	83.892343 
1298.115318  	84.530006 
1299.079742  	85.023803 
1300.044167  	85.473612 
1301.008591  	85.904037 
1301.973016  	86.283017 
1302.937440  	86.592586 
1303.901865  	86.849435 
1304.866289  	87.063229 
1305.830713  	87.258807 
1306.795138  	87.424934 
1307.759562  	87.549747 
1308.723987  	87.744386 
1309.688411  	88.071844 
1310.652836  	88.260671 
1311.617260  	88.270708 
1312.581685  	88.002217 
1313.546109  	88.125810 
1314.510534  	88.376717 
1315.474958  	88.657985 
1316.439382  	88.664628 
1317.403807  	88.606300 
1318.368231  	88.637792 
1319.332656  	88.552590 
1320.297080  	88.928235 
1321.261505  	89.245423 
1322.225929  	89.437874 
1323.190354  	89.427304 
1324.154778  	89.445938 
1325.119203  	89.437322 
1326.083627  	89.330412 
1327.048051  	89.151738 
1328.012476  	88.900487 
1328.976900  	88.499236 
1329.941325  	87.927136 
1330.905749  	87.287233 
1331.870174  	86.497454 
1332.834598  	85.469801 
1333.799023  	84.309767 
1334.763447  	83.100033 
1335.727872  	81.745594 
1336.692296  	80.262548 
1337.656720  	79.376161 
1338.621145  	78.329959 
1339.585569  	77.565948 
1340.549994  	78.203820 
1341.514418  	80.098984 
1342.478843  	81.607127 
1343.443267  	82.778260 
1344.407692  	83.996168 
1345.372116  	85.193491 
1346.336541  	86.278857 
1347.300965  	87.200033 
1348.265389  	87.896007 
1349.229814  	88.314678 
1350.194238  	88.797474 
1351.158663  	89.246926 
1352.123087  	89.511864 
1353.087512  	89.711138 
1354.051936  	89.669763 
1355.016361  	89.466055 
1355.980785  	89.734807 
1356.945210  	89.859960 
1357.909634  	89.716111 
1358.874059  	89.741231 
1359.838483  	89.683365 
1360.802907  	88.911014 
1361.767332  	88.300052 
1362.731756  	87.345233 
1363.696181  	87.352163 
1364.660605  	88.606397 
1365.625030  	88.732102 
1366.589454  	88.564343 
1367.553879  	88.167542 
1368.518303  	87.514482 
1369.482728  	87.502155 
1370.447152  	87.908163 
1371.411576  	87.890014 
1372.376001  	87.694649 
1373.340425  	86.911356 
1374.304850  	86.321779 
1375.269274  	86.855816 
1376.233699  	87.757083 
1377.198123  	87.939652 
1378.162548  	87.673790 
1379.126972  	87.756516 
1380.091397  	87.947056 
1381.055821  	88.155582 
1382.020245  	88.180872 
1382.984670  	88.168880 
1383.949094  	88.195066 
1384.913519  	88.175367 
1385.877943  	87.709250 
1386.842368  	86.623735 
1387.806792  	86.468059 
1388.771217  	87.635522 
1389.735641  	88.047107 
1390.700066  	87.916013 
1391.664490  	87.915436 
1392.628914  	87.878929 
1393.593339  	87.156805 
1394.557763  	85.722142 
1395.522188  	85.455385 
1396.486612  	86.090042 
1397.451037  	85.912303 
1398.415461  	84.995214 
1399.379886  	84.500030 
1400.344310  	84.971290 
1401.308735  	85.055747 
1402.273159  	84.455302 
1403.237583  	83.671445 
1404.202008  	82.350305 
1405.166432  	80.787965 
1406.130857  	80.577586 
1407.095281  	80.489280 
1408.059706  	80.113376 
1409.024130  	80.061927 
1409.988555  	80.291046 
1410.952979  	81.013415 
1411.917404  	82.028305 
1412.881828  	83.677286 
1413.846252  	85.160631 
1414.810677  	86.277918 
1415.775101  	86.811918 
1416.739526  	86.943791 
1417.703950  	86.962906 
1418.668375  	86.724155 
1419.632799  	86.647871 
1420.597224  	88.858600 
1421.561648  	89.669011 
1422.526073  	89.773789 
1423.490497  	88.840638 
1424.454922  	88.561474 
1425.419346  	89.714014 
1426.383770  	90.059252 
1427.348195  	89.953180 
1428.312619  	89.635511 
1429.277044  	89.073332 
1430.241468  	88.629775 
1431.205893  	89.105063 
1432.170317  	89.034857 
1433.134742  	88.708344 
1434.099166  	88.849149 
1435.063591  	88.547185 
1436.028015  	87.041966 
1436.992439  	86.101325 
1437.956864  	87.803125 
1438.921288  	88.479374 
1439.885713  	88.559431 
1440.850137  	88.574591 
1441.814562  	88.556480 
1442.778986  	88.543760 
1443.743411  	88.448062 
1444.707835  	88.324314 
1445.672260  	88.192069 
1446.636684  	87.926303 
1447.601108  	87.005213 
1448.565533  	86.923707 
1449.529957  	87.795404 
1450.494382  	87.926474 
1451.458806  	87.397343 
1452.423231  	86.975145 
1453.387655  	87.374508 
1454.352080  	86.933876 
1455.316504  	85.723296 
1456.280929  	84.737712 
1457.245353  	84.095800 
1458.209777  	84.366178 
1459.174202  	85.371508 
1460.138626  	86.987281 
1461.103051  	87.850988 
1462.067475  	87.976493 
1463.031900  	87.968131 
1463.996324  	87.517518 
1464.960749  	86.665258 
1465.925173  	87.357767 
1466.889598  	87.931995 
1467.854022  	87.935500 
1468.818446  	87.920690 
1469.782871  	87.642485 
1470.747295  	86.853928 
1471.711720  	85.034475 
1472.676144  	83.896877 
1473.640569  	84.896297 
1474.604993  	86.811153 
1475.569418  	87.049688 
1476.533842  	86.685465 
1477.498267  	88.194247 
1478.462691  	89.033088 
1479.427116  	89.216104 
1480.391540  	89.049692 
1481.355964  	88.637046 
1482.320389  	89.259858 
1483.284813  	89.855232 
1484.249238  	90.056086 
1485.213662  	89.915250 
1486.178087  	89.320958 
1487.142511  	88.676085 
1488.106936  	88.816682 
1489.071360  	87.835843 
1490.035785  	86.370731 
1491.000209  	87.863445 
1491.964633  	89.690039 
1492.929058  	90.381850 
1493.893482  	90.401532 
1494.857907  	90.000924 
1495.822331  	88.796433 
1496.786756  	88.257623 
1497.751180  	88.790095 
1498.715605  	88.111908 
1499.680029  	88.225807 
1500.644454  	88.397059 
1501.608878  	87.569157 
1502.573302  	87.122761 
1503.537727  	86.894320 
1504.502151  	86.000714 
1505.466576  	84.263045 
1506.431000  	81.244227 
1507.395425  	80.888153 
1508.359849  	83.465210 
1509.324274  	85.477996 
1510.288698  	87.028640 
1511.253123  	88.422814 
1512.217547  	88.336112 
1513.181971  	89.123203 
1514.146396  	89.532904 
1515.110820  	88.495879 
1516.075245  	87.332301 
1517.039669  	85.902502 
1518.004094  	87.818985 
1518.968518  	89.131948 
1519.932943  	88.029922 
1520.897367  	85.465715 
1521.861792  	85.900965 
1522.826216  	87.394338 
1523.790640  	88.461338 
1524.755065  	87.980787 
1525.719489  	87.568163 
1526.683914  	88.178782 
1527.648338  	87.740167 
1528.612763  	88.223562 
1529.577187  	89.383098 
1530.541612  	89.687221 
1531.506036  	88.814504 
1532.470461  	88.213656 
1533.434885  	87.228886 
1534.399309  	87.695038 
1535.363734  	88.677450 
1536.328158  	89.184454 
1537.292583  	89.290820 
1538.257007  	88.117440 
1539.221432  	85.343336 
1540.185856  	85.159337 
1541.150281  	86.566789 
1542.114705  	86.643907 
1543.079130  	86.856354 
1544.043554  	86.928237 
1545.007979  	86.546160 
1545.972403  	87.885251 
1546.936827  	89.424320 
1547.901252  	89.697133 
1548.865676  	89.074473 
1549.830101  	87.155024 
1550.794525  	87.748867 
1551.758950  	89.308994 
1552.723374  	89.318929 
1553.687799  	88.349824 
1554.652223  	87.388080 
1555.616648  	88.449047 
1556.581072  	88.518464 
1557.545496  	87.112446 
1558.509921  	83.257704 
1559.474345  	82.671448 
1560.438770  	85.887079 
1561.403194  	88.416481 
1562.367619  	89.183050 
1563.332043  	89.377258 
1564.296468  	88.920532 
1565.260892  	88.563856 
1566.225317  	89.190453 
1567.189741  	89.366024 
1568.154165  	88.854213 
1569.118590  	87.337416 
1570.083014  	87.098572 
1571.047439  	88.561130 
1572.011863  	88.879675 
1572.976288  	88.765046 
1573.940712  	88.606897 
1574.905137  	88.069805 
1575.869561  	86.756338 
1576.833986  	86.231879 
1577.798410  	87.255713 
1578.762834  	87.976324 
1579.727259  	88.361318 
1580.691683  	88.642875 
1581.656108  	88.854338 
1582.620532  	89.027211 
1583.584957  	89.165268 
1584.549381  	89.319537 
1585.513806  	89.421341 
1586.478230  	89.481096 
1587.442655  	89.514879 
1588.407079  	89.523338 
1589.371503  	89.378489 
1590.335928  	89.291342 
1591.300352  	89.326545 
1592.264777  	89.370080 
1593.229201  	89.376014 
1594.193626  	89.095947 
1595.158050  	89.035360 
1596.122475  	89.130838 
1597.086899  	89.175952 
1598.051324  	89.279517 
1599.015748  	89.233369 
1599.980173  	89.177147 
1600.944597  	88.941439 
1601.909021  	88.799150 
1602.873446  	88.560270 
1603.837870  	88.565364 
1604.802295  	88.772757 
1605.766719  	88.686508 
1606.731144  	88.304983 
1607.695568  	88.142019 
1608.659993  	88.093718 
1609.624417  	87.742924 
1610.588842  	88.025208 
1611.553266  	88.153807 
1612.517690  	88.077955 
1613.482115  	88.063708 
1614.446539  	87.944621 
1615.410964  	87.458993 
1616.375388  	86.345203 
1617.339813  	86.398269 
1618.304237  	87.465676 
1619.268662  	87.796536 
1620.233086  	87.841349 
1621.197511  	87.806504 
1622.161935  	87.339842 
1623.126359  	86.300808 
1624.090784  	86.519125 
1625.055208  	87.436067 
1626.019633  	87.575859 
1626.984057  	87.232053 
1627.948482  	86.676584 
1628.912906  	87.177693 
1629.877331  	87.495222 
1630.841755  	87.446071 
1631.806180  	87.397346 
1632.770604  	87.348982 
1633.735028  	86.960416 
1634.699453  	85.869299 
1635.663877  	84.207435 
1636.628302  	85.149695 
1637.592726  	85.331320 
1638.557151  	86.142591 
1639.521575  	86.627984 
1640.486000  	86.591677 
1641.450424  	86.589499 
1642.414849  	86.485155 
1643.379273  	86.508443 
1644.343697  	86.337834 
1645.308122  	85.444400 
1646.272546  	83.924336 
1647.236971  	83.299569 
1648.201395  	83.652381 
1649.165820  	85.100947 
1650.130244  	85.664790 
1651.094669  	85.333292 
1652.059093  	84.185400 
1653.023518  	80.821790 
1653.987942  	80.775786 
1654.952366  	83.297918 
1655.916791  	84.712488 
1656.881215  	85.007510 
1657.845640  	85.174057 
1658.810064  	85.286492 
1659.774489  	85.222513 
1660.738913  	84.802099 
1661.703338  	84.134591 
1662.667762  	83.344362 
1663.632187  	83.657077 
1664.596611  	84.084758 
1665.561036  	84.041338 
1666.525460  	83.887027 
1667.489884  	83.288195 
1668.454309  	81.852133 
1669.418733  	80.981958 
1670.383158  	81.788440 
1671.347582  	81.461332 
1672.312007  	81.676853 
1673.276431  	82.124816 
1674.240856  	81.599433 
1675.205280  	80.281657 
1676.169705  	80.563966 
1677.134129  	81.175485 
1678.098553  	81.040102 
1679.062978  	80.369302 
1680.027402  	78.860304 
1680.991827  	78.769489 
1681.956251  	79.207272 
1682.920676  	77.970480 
1683.885100  	74.528741 
1684.849525  	74.609616 
1685.813949  	77.750414 
1686.778374  	78.304533 
1687.742798  	77.639771 
1688.707222  	76.931474 
1689.671647  	76.825154 
1690.636071  	76.583187 
1691.600496  	76.646235 
1692.564920  	76.255560 
1693.529345  	75.551750 
1694.493769  	74.445352 
1695.458194  	72.529901 
1696.422618  	70.865525 
1697.387043  	71.032029 
1698.351467  	70.585071 
1699.315891  	69.356271 
1700.280316  	66.046947 
1701.244740  	66.282602 
1702.209165  	66.707210 
1703.173589  	66.047575 
1704.138014  	64.599544 
1705.102438  	63.215082 
1706.066863  	62.202940 
1707.031287  	61.097748 
1707.995712  	60.834681 
1708.960136  	60.332164 
1709.924560  	59.337012 
1710.888985  	58.819552 
1711.853409  	58.895504 
1712.817834  	58.641519 
1713.782258  	58.167438 
1714.746683  	57.838870 
1715.711107  	58.697495 
1716.675532  	59.338832 
1717.639956  	59.028079 
1718.604381  	60.566163 
1719.568805  	63.229040 
1720.533230  	64.752126 
1721.497654  	65.831712 
1722.462078  	66.753607 
1723.426503  	67.428584 
1724.390927  	68.672059 
1725.355352  	69.922976 
1726.319776  	70.952870 
1727.284201  	71.982892 
1728.248625  	72.938410 
1729.213050  	73.194627 
1730.177474  	73.318250 
1731.141899  	75.190670 
1732.106323  	76.196383 
1733.070747  	75.793030 
1734.035172  	74.897728 
1734.999596  	78.084005 
1735.964021  	80.698531 
1736.928445  	81.853677 
1737.892870  	82.791125 
1738.857294  	83.353617 
1739.821719  	83.681368 
1740.786143  	85.624485 
1741.750568  	86.883176 
1742.714992  	86.827411 
1743.679416  	86.762251 
1744.643841  	88.260126 
1745.608265  	89.339364 
1746.572690  	89.529953 
1747.537114  	89.438529 
1748.501539  	89.410886 
1749.465963  	89.913276 
1750.430388  	90.359063 
1751.394812  	89.778554 
1752.359237  	91.272228 
1753.323661  	92.456767 
1754.288085  	92.959803 
1755.252510  	93.053757 
1756.216934  	92.349159 
1757.181359  	91.727040 
1758.145783  	92.447394 
1759.110208  	92.940491 
1760.074632  	93.167381 
1761.039057  	92.494166 
1762.003481  	91.550108 
1762.967906  	92.592178 
1763.932330  	93.252505 
1764.896754  	93.377658 
1765.861179  	93.427067 
1766.825603  	93.184914 
1767.790028  	92.120719 
1768.754452  	91.899712 
1769.718877  	92.911090 
1770.683301  	92.529771 
1771.647726  	91.399515 
1772.612150  	90.999470 
1773.576575  	92.179610 
1774.540999  	92.783577 
1775.505423  	92.370578 
1776.469848  	92.702614 
1777.434272  	93.323717 
1778.398697  	93.068960 
1779.363121  	92.679042 
1780.327546  	92.178597 
1781.291970  	92.150311 
1782.256395  	92.901297 
1783.220819  	93.200786 
1784.185244  	92.805622 
1785.149668  	92.242172 
1786.114093  	92.840457 
1787.078517  	93.240697 
1788.042941  	93.206154 
1789.007366  	93.114470 
1789.971790  	92.740019 
1790.936215  	91.723090 
1791.900639  	91.170034 
1792.865064  	91.119573 
1793.829488  	92.241361 
1794.793913  	92.624672 
1795.758337  	91.929556 
1796.722762  	91.981039 
1797.687186  	92.753050 
1798.651610  	92.722076 
1799.616035  	92.117703 
1800.580459  	92.130767 
1801.544884  	91.883394 
1802.509308  	91.680339 
1803.473733  	92.493869 
1804.438157  	92.978485 
1805.402582  	92.949066 
1806.367006  	92.865542 
1807.331431  	92.528546 
1808.295855  	92.413115 
1809.260279  	92.733878 
1810.224704  	92.226674 
1811.189128  	91.863766 
1812.153553  	92.233478 
1813.117977  	92.592640 
1814.082402  	92.941454 
1815.046826  	92.988384 
1816.011251  	92.994703 
1816.975675  	92.678872 
1817.940100  	92.478867 
1818.904524  	92.772375 
1819.868948  	92.882645 
1820.833373  	92.807718 
1821.797797  	92.726882 
1822.762222  	92.527029 
1823.726646  	92.530338 
1824.691071  	91.872835 
1825.655495  	91.255622 
1826.619920  	92.367073 
1827.584344  	92.742879 
1828.548769  	92.268766 
1829.513193  	91.069342 
1830.477617  	91.187265 
1831.442042  	92.389369 
1832.406466  	92.716207 
1833.370891  	92.601030 
1834.335315  	92.818548 
1835.299740  	92.958137 
1836.264164  	92.750087 
1837.228589  	92.306660 
1838.193013  	92.533373 
1839.157438  	92.857779 
1840.121862  	92.929696 
1841.086287  	92.902407 
1842.050711  	92.533523 
1843.015135  	92.134121 
1843.979560  	91.305873 
1844.943984  	91.244557 
1845.908409  	92.153209 
1846.872833  	92.381760 
1847.837258  	91.938904 
1848.801682  	92.252456 
1849.766107  	92.879546 
1850.730531  	93.114355 
1851.694956  	93.127798 
1852.659380  	93.075805 
1853.623804  	93.077966 
1854.588229  	93.037646 
1855.552653  	93.051589 
1856.517078  	92.997420 
1857.481502  	92.949816 
1858.445927  	92.788269 
1859.410351  	92.746348 
1860.374776  	92.835613 
1861.339200  	92.761545 
1862.303625  	92.767846 
1863.268049  	92.888921 
1864.232473  	92.944972 
1865.196898  	92.903014 
1866.161322  	92.550714 
1867.125747  	92.118470 
1868.090171  	91.506615 
1869.054596  	91.039074 
1870.019020  	91.560313 
1870.983445  	92.373372 
1871.947869  	92.898611 
1872.912294  	93.122466 
1873.876718  	93.079976 
1874.841142  	93.000456 
1875.805567  	92.992433 
1876.769991  	93.050083 
1877.734416  	93.020240 
1878.698840  	92.917311 
1879.663265  	92.795681 
1880.627689  	92.909596 
1881.592114  	92.958620 
1882.556538  	92.935262 
1883.520963  	92.909398 
1884.485387  	92.803364 
1885.449811  	92.698850 
1886.414236  	92.940390 
1887.378660  	93.067642 
1888.343085  	92.763674 
1889.307509  	91.925684 
1890.271934  	91.960618 
1891.236358  	92.655339 
1892.200783  	92.775929 
1893.165207  	92.806455 
1894.129632  	92.709699 
1895.094056  	92.230540 
1896.058480  	92.373465 
1897.022905  	92.833886 
1897.987329  	92.854716 
1898.951754  	92.774538 
1899.916178  	92.830783 
1900.880603  	92.889214 
1901.845027  	92.734305 
1902.809452  	92.754927 
1903.773876  	92.769188 
1904.738301  	92.800217 
1905.702725  	92.835173 
1906.667150  	92.784769 
1907.631574  	92.473393 
1908.595998  	92.322509 
1909.560423  	92.257959 
1910.524847  	92.281197 
1911.489272  	92.698373 
1912.453696  	92.704263 
1913.418121  	92.718706 
1914.382545  	92.729682 
1915.346970  	92.717301 
1916.311394  	92.652965 
1917.275819  	92.197755 
1918.240243  	91.589963 
1919.204667  	92.215876 
1920.169092  	92.583001 
1921.133516  	92.546635 
1922.097941  	91.972997 
1923.062365  	91.498082 
1924.026790  	92.372524 
1924.991214  	92.844604 
1925.955639  	92.685314 
1926.920063  	92.702060 
1927.884488  	92.672641 
1928.848912  	92.649395 
1929.813336  	92.646937 
1930.777761  	92.693355 
1931.742185  	92.681983 
1932.706610  	92.632077 
1933.671034  	92.722385 
1934.635459  	92.830874 
1935.599883  	92.711866 
1936.564308  	92.684155 
1937.528732  	92.595937 
1938.493157  	92.586670 
1939.457581  	92.795018 
1940.422005  	92.671688 
1941.386430  	92.216061 
1942.350854  	91.264467 
1943.315279  	91.400723 
1944.279703  	92.222666 
1945.244128  	92.261534 
1946.208552  	92.287077 
1947.172977  	92.229099 
1948.137401  	92.414249 
1949.101826  	92.514747 
1950.066250  	92.727045 
1951.030674  	92.727097 
1951.995099  	92.490671 
1952.959523  	92.380697 
1953.923948  	92.186002 
1954.888372  	92.035230 
1955.852797  	92.258964 
1956.817221  	92.614460 
1957.781646  	92.721254 
1958.746070  	92.600861 
1959.710495  	92.636746 
1960.674919  	92.401201 
1961.639344  	92.166748 
1962.603768  	91.998233 
1963.568192  	92.274673 
1964.532617  	92.623882 
1965.497041  	92.850093 
1966.461466  	92.760006 
1967.425890  	92.350519 
1968.390315  	92.701920 
1969.354739  	92.844070 
1970.319164  	92.432304 
1971.283588  	92.618106 
1972.248013  	92.797083 
1973.212437  	92.930387 
1974.176861  	93.009357 
1975.141286  	92.991226 
1976.105710  	93.055081 
1977.070135  	93.153864 
1978.034559  	92.909448 
1978.998984  	92.628997 
1979.963408  	92.361572 
1980.927833  	92.332829 
1981.892257  	92.482769 
1982.856682  	92.496519 
1983.821106  	92.478602 
1984.785530  	92.544971 
1985.749955  	92.559998 
1986.714379  	92.864282 
1987.678804  	92.545079 
1988.643228  	92.169830 
1989.607653  	92.604376 
1990.572077  	92.685978 
1991.536502  	92.038607 
1992.500926  	91.731416 
1993.465351  	92.134436 
1994.429775  	92.518726 
1995.394199  	92.737626 
1996.358624  	92.825380 
1997.323048  	92.612830 
1998.287473  	92.698746 
1999.251897  	92.835417 
2000.216322  	93.067242 
2001.180746  	93.331504 
2002.145171  	93.299509 
2003.109595  	93.340528 
2004.074020  	93.383252 
2005.038444  	93.254853 
2006.002868  	93.021100 
2006.967293  	93.099404 
2007.931717  	93.095471 
2008.896142  	92.952925 
2009.860566  	92.993693 
2010.824991  	93.024098 
2011.789415  	92.945318 
2012.753840  	92.856651 
2013.718264  	92.592621 
2014.682689  	92.649527 
2015.647113  	93.157335 
2016.611537  	93.119909 
2017.575962  	92.927416 
2018.540386  	92.976524 
2019.504811  	93.017409 
2020.469235  	93.172504 
2021.433660  	93.260512 
2022.398084  	93.438512 
2023.362509  	93.717970 
2024.326933  	93.519919 
2025.291358  	92.952573 
2026.255782  	92.856742 
2027.220207  	92.947040 
2028.184631  	92.816365 
2029.149055  	93.267668 
2030.113480  	93.483617 
2031.077904  	93.532699 
2032.042329  	93.364220 
2033.006753  	93.106911 
2033.971178  	92.949165 
2034.935602  	93.248446 
2035.900027  	93.504472 
2036.864451  	93.417234 
2037.828876  	93.339393 
2038.793300  	93.088388 
2039.757724  	92.829989 
2040.722149  	92.888490 
2041.686573  	92.840530 
2042.650998  	92.696151 
2043.615422  	92.536012 
2044.579847  	92.914276 
2045.544271  	93.326091 
2046.508696  	93.323776 
2047.473120  	93.088506 
2048.437545  	93.057389 
2049.401969  	92.965281 
2050.366393  	92.418504 
2051.330818  	92.237651 
2052.295242  	92.747421 
2053.259667  	93.033803 
2054.224091  	92.847479 
2055.188516  	92.681002 
2056.152940  	92.680422 
2057.117365  	92.593213 
2058.081789  	92.559894 
2059.046214  	92.550241 
2060.010638  	92.461220 
2060.975062  	92.453319 
2061.939487  	92.542362 
2062.903911  	92.621240 
2063.868336  	92.609512 
2064.832760  	92.304047 
2065.797185  	92.255865 
2066.761609  	92.461370 
2067.726034  	92.623982 
2068.690458  	92.649365 
2069.654883  	92.589547 
2070.619307  	92.508830 
2071.583731  	92.448862 
2072.548156  	92.465234 
2073.512580  	92.470374 
2074.477005  	92.356061 
2075.441429  	92.411854 
2076.405854  	92.342949 
2077.370278  	92.225724 
2078.334703  	92.295434 
2079.299127  	92.430175 
2080.263552  	92.424677 
2081.227976  	92.398445 
2082.192401  	92.320931 
2083.156825  	92.200797 
2084.121249  	92.192747 
2085.085674  	92.356709 
2086.050098  	92.436798 
2087.014523  	92.381283 
2087.978947  	92.403053 
2088.943372  	92.406347 
2089.907796  	92.187994 
2090.872221  	92.265115 
2091.836645  	92.581156 
2092.801070  	92.702342 
2093.765494  	92.733987 
2094.729918  	92.680634 
2095.694343  	92.580555 
2096.658767  	92.454848 
2097.623192  	92.335789 
2098.587616  	92.394418 
2099.552041  	92.535674 
2100.516465  	92.507742 
2101.480890  	92.470245 
2102.445314  	92.441247 
2103.409739  	92.425266 
2104.374163  	92.404098 
2105.338587  	92.355409 
2106.303012  	92.437555 
2107.267436  	92.459557 
2108.231861  	92.395335 
2109.196285  	92.403686 
2110.160710  	92.468695 
2111.125134  	92.439761 
2112.089559  	92.380309 
2113.053983  	92.413345 
2114.018408  	92.437858 
2114.982832  	92.447813 
2115.947256  	92.443099 
2116.911681  	92.452308 
2117.876105  	92.571209 
2118.840530  	92.608105 
2119.804954  	92.573805 
2120.769379  	92.533965 
2121.733803  	92.547092 
2122.698228  	92.580937 
2123.662652  	92.556781 
2124.627077  	92.549266 
2125.591501  	92.708329 
2126.555925  	92.759403 
2127.520350  	92.726312 
2128.484774  	92.870061 
2129.449199  	93.156957 
2130.413623  	93.054045 
2131.378048  	92.834593 
2132.342472  	93.052283 
2133.306897  	93.200817 
2134.271321  	92.928106 
2135.235746  	92.672229 
2136.200170  	92.630954 
2137.164594  	92.926289 
2138.129019  	93.085695 
2139.093443  	93.187602 
2140.057868  	93.191921 
2141.022292  	93.090840 
2141.986717  	93.018415 
2142.951141  	92.913764 
2143.915566  	93.214759 
2144.879990  	93.156978 
2145.844415  	93.052097 
2146.808839  	93.049905 
2147.773264  	93.195227 
2148.737688  	93.493503 
2149.702112  	93.540248 
2150.666537  	93.367209 
2151.630961  	93.464722 
2152.595386  	93.717856 
2153.559810  	93.579436 
2154.524235  	93.654455 
2155.488659  	93.888289 
2156.453084  	94.260349 
2157.417508  	94.121932 
2158.381933  	93.744108 
2159.346357  	93.101259 
2160.310781  	92.738532 
2161.275206  	92.532828 
2162.239630  	92.629487 
2163.204055  	92.807960 
2164.168479  	92.885533 
2165.132904  	93.009796 
2166.097328  	93.076681 
2167.061753  	92.984056 
2168.026177  	92.907639 
2168.990602  	92.785507 
2169.955026  	92.845297 
2170.919450  	93.172342 
2171.883875  	92.946949 
2172.848299  	92.910113 
2173.812724  	93.357436 
2174.777148  	93.381635 
2175.741573  	92.979378 
2176.705997  	92.603217 
2177.670422  	92.756902 
2178.634846  	93.165008 
2179.599271  	93.151084 
2180.563695  	92.986536 
2181.528119  	93.046954 
2182.492544  	92.894323 
2183.456968  	92.509015 
2184.421393  	92.215352 
2185.385817  	92.709065 
2186.350242  	93.096213 
2187.314666  	92.830397 
2188.279091  	92.778658 
2189.243515  	92.843960 
2190.207940  	92.850228 
2191.172364  	92.964982 
2192.136788  	93.153395 
2193.101213  	93.054101 
2194.065637  	92.649622 
2195.030062  	92.399017 
2195.994486  	92.380534 
2196.958911  	92.568242 
2197.923335  	92.738302 
2198.887760  	92.671577 
2199.852184  	92.745455 
2200.816609  	92.788753 
2201.781033  	92.647183 
2202.745458  	92.705956 
2203.709882  	93.009313 
2204.674306  	93.123310 
2205.638731  	92.895206 
2206.603155  	92.836864 
2207.567580  	92.970077 
2208.532004  	92.896766 
2209.496429  	92.729688 
2210.460853  	92.551992 
2211.425278  	92.604258 
2212.389702  	92.668743 
2213.354127  	92.554510 
2214.318551  	92.516142 
2215.282975  	92.543191 
2216.247400  	92.583848 
2217.211824  	92.742044 
2218.176249  	92.745736 
2219.140673  	92.657188 
2220.105098  	92.474440 
2221.069522  	92.458793 
2222.033947  	92.554383 
2222.998371  	92.520701 
2223.962796  	92.581517 
2224.927220  	92.642604 
2225.891644  	92.479812 
2226.856069  	92.481412 
2227.820493  	92.484186 
2228.784918  	92.363030 
2229.749342  	92.277733 
2230.713767  	92.494373 
2231.678191  	92.601939 
2232.642616  	92.586878 
2233.607040  	92.677699 
2234.571465  	92.547916 
2235.535889  	92.420538 
2236.500313  	92.446104 
2237.464738  	92.517299 
2238.429162  	92.546086 
2239.393587  	92.480910 
2240.358011  	92.482322 
2241.322436  	92.627579 
2242.286860  	92.524624 
2243.251285  	92.430533 
2244.215709  	92.453371 
2245.180134  	92.332452 
2246.144558  	92.267235 
2247.108982  	92.431217 
2248.073407  	92.501655 
2249.037831  	92.411079 
2250.002256  	92.335563 
2250.966680  	92.399340 
2251.931105  	92.491909 
2252.895529  	92.428999 
2253.859954  	92.308763 
2254.824378  	92.278148 
2255.788803  	92.259142 
2256.753227  	92.324650 
2257.717651  	92.423179 
2258.682076  	92.313366 
2259.646500  	92.276014 
2260.610925  	92.234985 
2261.575349  	92.228971 
2262.539774  	92.295693 
2263.504198  	92.366753 
2264.468623  	92.345170 
2265.433047  	92.385305 
2266.397472  	92.302662 
2267.361896  	92.235426 
2268.326321  	92.304910 
2269.290745  	92.337313 
2270.255169  	92.388571 
2271.219594  	92.415825 
2272.184018  	92.372026 
2273.148443  	92.302770 
2274.112867  	92.303422 
2275.077292  	92.237867 
2276.041716  	92.163319 
2277.006141  	92.237070 
2277.970565  	92.296103 
2278.934990  	92.260284 
2279.899414  	92.189765 
2280.863838  	92.150315 
2281.828263  	92.049604 
2282.792687  	92.042418 
2283.757112  	92.105716 
2284.721536  	91.999205 
2285.685961  	91.879256 
2286.650385  	91.912697 
2287.614810  	91.928237 
2288.579234  	91.937412 
2289.543659  	91.949533 
2290.508083  	92.082604 
2291.472507  	92.061521 
2292.436932  	92.075167 
2293.401356  	92.037935 
2294.365781  	91.909069 
2295.330205  	91.897671 
2296.294630  	91.894186 
2297.259054  	91.909955 
2298.223479  	91.859290 
2299.187903  	91.877183 
2300.152328  	91.894135 
2301.116752  	91.881199 
2302.081176  	91.906414 
2303.045601  	91.807236 
2304.010025  	91.886508 
2304.974450  	91.770283 
2305.938874  	91.806194 
2306.903299  	91.689218 
2307.867723  	91.768095 
2308.832148  	91.639026 
2309.796572  	91.623953 
2310.760997  	91.603083 
2311.725421  	91.638799 
2312.689845  	91.748504 
2313.654270  	91.810658 
2314.618694  	91.839728 
2315.583119  	91.895975 
2316.547543  	91.935524 
2317.511968  	91.963684 
2318.476392  	92.028548 
2319.440817  	91.982677 
2320.405241  	91.956917 
2321.369666  	92.044937 
2322.334090  	92.136974 
2323.298515  	92.097133 
2324.262939  	92.057879 
2325.227363  	92.288733 
2326.191788  	92.617107 
2327.156212  	92.856407 
2328.120637  	92.919975 
2329.085061  	92.905299 
2330.049486  	93.004634 
2331.013910  	93.039710 
2331.978335  	93.085017 
2332.942759  	93.227008 
2333.907184  	93.478632 
2334.871608  	93.664242 
2335.836032  	93.860227 
2336.800457  	93.915156 
2337.764881  	93.880716 
2338.729306  	93.838118 
2339.693730  	93.737080 
2340.658155  	93.865973 
2341.622579  	93.967676 
2342.587004  	93.813347 
2343.551428  	93.605290 
2344.515853  	93.390570 
2345.480277  	93.222149 
2346.444701  	92.957259 
2347.409126  	92.766973 
2348.373550  	92.523260 
2349.337975  	92.357727 
2350.302399  	92.470550 
2351.266824  	92.768235 
2352.231248  	93.129935 
2353.195673  	93.365384 
2354.160097  	93.455528 
2355.124522  	93.622253 
2356.088946  	93.798994 
2357.053370  	93.852162 
2358.017795  	93.953225 
2358.982219  	94.198306 
2359.946644  	94.508999 
2360.911068  	94.534877 
2361.875493  	94.286910 
2362.839917  	94.155661 
2363.804342  	94.184225 
2364.768766  	94.077561 
2365.733191  	94.041713 
2366.697615  	93.945786 
2367.662039  	93.712822 
2368.626464  	93.511904 
2369.590888  	93.314314 
2370.555313  	93.036192 
2371.519737  	92.855897 
2372.484162  	92.723132 
2373.448586  	92.584066 
2374.413011  	92.467537 
2375.377435  	92.292259 
2376.341860  	92.151685 
2377.306284  	92.058184 
2378.270708  	91.935138 
2379.235133  	91.800672 
2380.199557  	91.821690 
2381.163982  	91.850561 
2382.128406  	91.903845 
2383.092831  	91.969591 
2384.057255  	92.043509 
2385.021680  	92.140283 
2385.986104  	92.192516 
2386.950529  	92.209198 
2387.914953  	92.266779 
2388.879378  	92.335040 
2389.843802  	92.405588 
2390.808226  	92.416048 
2391.772651  	92.363494 
2392.737075  	92.349354 
2393.701500  	92.416831 
2394.665924  	92.437865 
2395.630349  	92.421681 
2396.594773  	92.399482 
2397.559198  	92.397189 
2398.523622  	92.453049 
2399.488047  	92.490720 
2400.452471  	92.447965 
2401.416895  	92.394014 
2402.381320  	92.401316 
2403.345744  	92.458419 
2404.310169  	92.441482 
2405.274593  	92.363446 
2406.239018  	92.349857 
2407.203442  	92.404844 
2408.167867  	92.382793 
2409.132291  	92.411544 
2410.096716  	92.425052 
2411.061140  	92.372411 
2412.025564  	92.374532 
2412.989989  	92.381514 
2413.954413  	92.381613 
2414.918838  	92.405501 
2415.883262  	92.387678 
2416.847687  	92.359696 
2417.812111  	92.382363 
2418.776536  	92.399176 
2419.740960  	92.378066 
2420.705385  	92.393334 
2421.669809  	92.368164 
2422.634233  	92.381408 
2423.598658  	92.352743 
2424.563082  	92.367894 
2425.527507  	92.435467 
2426.491931  	92.389778 
2427.456356  	92.344913 
2428.420780  	92.452852 
2429.385205  	92.445993 
2430.349629  	92.376360 
2431.314054  	92.369183 
2432.278478  	92.423725 
2433.242902  	92.465741 
2434.207327  	92.423662 
2435.171751  	92.401548 
2436.136176  	92.442893 
2437.100600  	92.487896 
2438.065025  	92.465847 
2439.029449  	92.470565 
2439.993874  	92.471466 
2440.958298  	92.449709 
2441.922723  	92.404164 
2442.887147  	92.352200 
2443.851572  	92.384463 
2444.815996  	92.450020 
2445.780420  	92.439749 
2446.744845  	92.357247 
2447.709269  	92.352401 
2448.673694  	92.398895 
2449.638118  	92.374215 
2450.602543  	92.343079 
2451.566967  	92.315500 
2452.531392  	92.302439 
2453.495816  	92.351462 
2454.460241  	92.393990 
2455.424665  	92.412544 
2456.389089  	92.366357 
2457.353514  	92.412563 
2458.317938  	92.463337 
2459.282363  	92.457804 
2460.246787  	92.451461 
2461.211212  	92.378819 
2462.175636  	92.366202 
2463.140061  	92.414987 
2464.104485  	92.450046 
2465.068910  	92.431724 
2466.033334  	92.388452 
2466.997758  	92.403400 
2467.962183  	92.447600 
2468.926607  	92.431376 
2469.891032  	92.380084 
2470.855456  	92.350717 
2471.819881  	92.376602 
2472.784305  	92.443971 
2473.748730  	92.477325 
2474.713154  	92.452685 
2475.677579  	92.398987 
2476.642003  	92.400287 
2477.606427  	92.403598 
2478.570852  	92.427773 
2479.535276  	92.411358 
2480.499701  	92.378129 
2481.464125  	92.378989 
2482.428550  	92.406524 
2483.392974  	92.411145 
2484.357399  	92.434798 
2485.321823  	92.405680 
2486.286248  	92.373456 
2487.250672  	92.335534 
2488.215096  	92.326276 
2489.179521  	92.309921 
2490.143945  	92.264237 
2491.108370  	92.251938 
2492.072794  	92.297083 
2493.037219  	92.334906 
2494.001643  	92.385411 
2494.966068  	92.415064 
2495.930492  	92.424393 
2496.894917  	92.376913 
2497.859341  	92.321643 
2498.823765  	92.345982 
2499.788190  	92.391339 
2500.752614  	92.372121 
2501.717039  	92.359935 
2502.681463  	92.333257 
2503.645888  	92.346691 
2504.610312  	92.351299 
2505.574737  	92.357489 
2506.539161  	92.385426 
2507.503586  	92.472423 
2508.468010  	92.440956 
2509.432435  	92.352063 
2510.396859  	92.356961 
2511.361283  	92.360185 
2512.325708  	92.325090 
2513.290132  	92.332634 
2514.254557  	92.364461 
2515.218981  	92.390165 
2516.183406  	92.339967 
2517.147830  	92.331157 
2518.112255  	92.241330 
2519.076679  	92.211892 
2520.041104  	92.272738 
2521.005528  	92.278862 
2521.969952  	92.230440 
2522.934377  	92.252671 
2523.898801  	92.342398 
2524.863226  	92.380918 
2525.827650  	92.312824 
2526.792075  	92.335053 
2527.756499  	92.383000 
2528.720924  	92.375420 
2529.685348  	92.304392 
2530.649773  	92.315447 
2531.614197  	92.333391 
2532.578621  	92.333151 
2533.543046  	92.347843 
2534.507470  	92.354221 
2535.471895  	92.318398 
2536.436319  	92.268000 
2537.400744  	92.276886 
2538.365168  	92.281993 
2539.329593  	92.278804 
2540.294017  	92.299529 
2541.258442  	92.296825 
2542.222866  	92.261681 
2543.187290  	92.301890 
2544.151715  	92.396563 
2545.116139  	92.392017 
2546.080564  	92.284446 
2547.044988  	92.240215 
2548.009413  	92.216305 
2548.973837  	92.221345 
2549.938262  	92.256597 
2550.902686  	92.276420 
2551.867111  	92.301266 
2552.831535  	92.244268 
2553.795959  	92.205865 
2554.760384  	92.231905 
2555.724808  	92.240372 
2556.689233  	92.225575 
2557.653657  	92.253954 
2558.618082  	92.280804 
2559.582506  	92.335002 
2560.546931  	92.279254 
2561.511355  	92.170269 
2562.475780  	92.218397 
2563.440204  	92.317798 
2564.404629  	92.326750 
2565.369053  	92.296583 
2566.333477  	92.308118 
2567.297902  	92.363200 
2568.262326  	92.324247 
2569.226751  	92.205422 
2570.191175  	92.162187 
2571.155600  	92.216675 
2572.120024  	92.247361 
2573.084449  	92.329789 
2574.048873  	92.259840 
2575.013298  	92.124169 
2575.977722  	92.150227 
2576.942146  	92.250827 
2577.906571  	92.277687 
2578.870995  	92.248721 
2579.835420  	92.226977 
2580.799844  	92.240572 
2581.764269  	92.172979 
2582.728693  	92.190928 
2583.693118  	92.215155 
2584.657542  	92.190486 
2585.621967  	92.217090 
2586.586391  	92.203539 
2587.550815  	92.212772 
2588.515240  	92.250738 
2589.479664  	92.237971 
2590.444089  	92.201280 
2591.408513  	92.206506 
2592.372938  	92.210738 
2593.337362  	92.202497 
2594.301787  	92.248135 
2595.266211  	92.275717 
2596.230636  	92.255672 
2597.195060  	92.266152 
2598.159484  	92.259641 
2599.123909  	92.258532 
2600.088333  	92.257502 
2601.052758  	92.230684 
2602.017182  	92.208279 
2602.981607  	92.210285 
2603.946031  	92.225697 
2604.910456  	92.222969 
2605.874880  	92.214058 
2606.839305  	92.214359 
2607.803729  	92.240953 
2608.768153  	92.249031 
2609.732578  	92.211738 
2610.697002  	92.183299 
2611.661427  	92.185928 
2612.625851  	92.197632 
2613.590276  	92.222977 
2614.554700  	92.230687 
2615.519125  	92.211890 
2616.483549  	92.177818 
2617.447974  	92.157781 
2618.412398  	92.181773 
2619.376822  	92.167002 
2620.341247  	92.156058 
2621.305671  	92.177710 
2622.270096  	92.186367 
2623.234520  	92.189645 
2624.198945  	92.170906 
2625.163369  	92.174808 
2626.127794  	92.149409 
2627.092218  	92.168559 
2628.056643  	92.199742 
2629.021067  	92.177071 
2629.985492  	92.173896 
2630.949916  	92.234898 
2631.914340  	92.229054 
2632.878765  	92.166750 
2633.843189  	92.151919 
2634.807614  	92.178843 
2635.772038  	92.196107 
2636.736463  	92.162478 
2637.700887  	92.167665 
2638.665312  	92.185718 
2639.629736  	92.166649 
2640.594161  	92.180067 
2641.558585  	92.188480 
2642.523009  	92.164927 
2643.487434  	92.150747 
2644.451858  	92.200154 
2645.416283  	92.207605 
2646.380707  	92.178693 
2647.345132  	92.198181 
2648.309556  	92.236163 
2649.273981  	92.220565 
2650.238405  	92.225996 
2651.202830  	92.234644 
2652.167254  	92.197171 
2653.131678  	92.187418 
2654.096103  	92.192790 
2655.060527  	92.198651 
2656.024952  	92.211377 
2656.989376  	92.209258 
2657.953801  	92.198186 
2658.918225  	92.217633 
2659.882650  	92.248489 
2660.847074  	92.247389 
2661.811499  	92.250080 
2662.775923  	92.241744 
2663.740347  	92.263775 
2664.704772  	92.291870 
2665.669196  	92.318019 
2666.633621  	92.306659 
2667.598045  	92.266484 
2668.562470  	92.245002 
2669.526894  	92.248907 
2670.491319  	92.261549 
2671.455743  	92.306462 
2672.420168  	92.310198 
2673.384592  	92.292217 
2674.349016  	92.289303 
2675.313441  	92.293442 
2676.277865  	92.310728 
2677.242290  	92.303549 
2678.206714  	92.283243 
2679.171139  	92.267588 
2680.135563  	92.274375 
2681.099988  	92.297557 
2682.064412  	92.312114 
2683.028837  	92.307445 
2683.993261  	92.313205 
2684.957686  	92.318999 
2685.922110  	92.307104 
2686.886534  	92.275998 
2687.850959  	92.252818 
2688.815383  	92.289748 
2689.779808  	92.304658 
2690.744232  	92.281258 
2691.708657  	92.278136 
2692.673081  	92.311938 
2693.637506  	92.312717 
2694.601930  	92.300639 
2695.566355  	92.295089 
2696.530779  	92.282773 
2697.495203  	92.271820 
2698.459628  	92.299272 
2699.424052  	92.304601 
2700.388477  	92.275110 
2701.352901  	92.248767 
2702.317326  	92.255005 
2703.281750  	92.300725 
2704.246175  	92.316780 
2705.210599  	92.279560 
2706.175024  	92.247683 
2707.139448  	92.254033 
2708.103872  	92.252472 
2709.068297  	92.246277 
2710.032721  	92.249157 
2710.997146  	92.255519 
2711.961570  	92.261632 
2712.925995  	92.254861 
2713.890419  	92.265848 
2714.854844  	92.268312 
2715.819268  	92.277065 
2716.783693  	92.301424 
2717.748117  	92.311617 
2718.712541  	92.286882 
2719.676966  	92.277299 
2720.641390  	92.286920 
2721.605815  	92.289745 
2722.570239  	92.276592 
2723.534664  	92.281261 
2724.499088  	92.247895 
2725.463513  	92.230355 
2726.427937  	92.248790 
2727.392362  	92.263569 
2728.356786  	92.248916 
2729.321210  	92.213173 
2730.285635  	92.206983 
2731.250059  	92.199611 
2732.214484  	92.211591 
2733.178908  	92.254193 
2734.143333  	92.259315 
2735.107757  	92.239746 
2736.072182  	92.266509 
2737.036606  	92.272757 
2738.001031  	92.259112 
2738.965455  	92.229243 
2739.929879  	92.203071 
2740.894304  	92.219515 
2741.858728  	92.214424 
2742.823153  	92.193712 
2743.787577  	92.196828 
2744.752002  	92.198935 
2745.716426  	92.190223 
2746.680851  	92.187388 
2747.645275  	92.191702 
2748.609700  	92.181889 
2749.574124  	92.163983 
2750.538549  	92.186976 
2751.502973  	92.169706 
2752.467397  	92.157988 
2753.431822  	92.166024 
2754.396246  	92.185668 
2755.360671  	92.206423 
2756.325095  	92.235788 
2757.289520  	92.195410 
2758.253944  	92.176895 
2759.218369  	92.193888 
2760.182793  	92.203574 
2761.147218  	92.180191 
2762.111642  	92.171648 
2763.076066  	92.204950 
2764.040491  	92.236367 
2765.004915  	92.203342 
2765.969340  	92.174730 
2766.933764  	92.186354 
2767.898189  	92.192309 
2768.862613  	92.191416 
2769.827038  	92.172792 
2770.791462  	92.143022 
2771.755887  	92.131493 
2772.720311  	92.137448 
2773.684735  	92.136069 
2774.649160  	92.123901 
2775.613584  	92.151121 
2776.578009  	92.162675 
2777.542433  	92.153198 
2778.506858  	92.134538 
2779.471282  	92.116814 
2780.435707  	92.109339 
2781.400131  	92.089417 
2782.364556  	92.090457 
2783.328980  	92.099641 
2784.293404  	92.110390 
2785.257829  	92.122309 
2786.222253  	92.116619 
2787.186678  	92.114136 
2788.151102  	92.080450 
2789.115527  	92.105408 
2790.079951  	92.116899 
2791.044376  	92.085796 
2792.008800  	92.063475 
2792.973225  	92.058695 
2793.937649  	92.064180 
2794.902073  	92.049906 
2795.866498  	92.038679 
2796.830922  	92.057394 
2797.795347  	92.050567 
2798.759771  	92.018790 
2799.724196  	91.972282 
2800.688620  	91.971709 
2801.653045  	91.984366 
2802.617469  	91.970905 
2803.581894  	91.980924 
2804.546318  	92.006798 
2805.510743  	92.021347 
2806.475167  	91.997319 
2807.439591  	91.978134 
2808.404016  	91.962016 
2809.368440  	91.939962 
2810.332865  	91.933821 
2811.297289  	91.922836 
2812.261714  	91.931628 
2813.226138  	91.975087 
2814.190563  	91.951663 
2815.154987  	91.926897 
2816.119412  	91.919699 
2817.083836  	91.891667 
2818.048260  	91.894937 
2819.012685  	91.904198 
2819.977109  	91.929762 
2820.941534  	91.925667 
2821.905958  	91.911744 
2822.870383  	91.889306 
2823.834807  	91.885318 
2824.799232  	91.856044 
2825.763656  	91.857178 
2826.728081  	91.837962 
2827.692505  	91.785655 
2828.656929  	91.787948 
2829.621354  	91.795513 
2830.585778  	91.770926 
2831.550203  	91.735797 
2832.514627  	91.686824 
2833.479052  	91.675962 
2834.443476  	91.667646 
2835.407901  	91.640131 
2836.372325  	91.595606 
2837.336750  	91.562394 
2838.301174  	91.504946 
2839.265598  	91.430049 
2840.230023  	91.344356 
2841.194447  	91.251500 
2842.158872  	91.143586 
2843.123296  	91.010456 
2844.087721  	90.819698 
2845.052145  	90.585901 
2846.016570  	90.290774 
2846.980994  	89.947622 
2847.945419  	89.616525 
2848.909843  	89.416606 
2849.874267  	89.399646 
2850.838692  	89.550599 
2851.803116  	89.779787 
2852.767541  	90.003887 
2853.731965  	90.209143 
2854.696390  	90.368619 
2855.660814  	90.495433 
2856.625239  	90.616177 
2857.589663  	90.704443 
2858.554088  	90.768697 
2859.518512  	90.843436 
2860.482936  	90.881200 
2861.447361  	90.939656 
2862.411785  	91.029420 
2863.376210  	91.059596 
2864.340634  	91.079148 
2865.305059  	91.104429 
2866.269483  	91.110883 
2867.233908  	91.075356 
2868.198332  	91.057087 
2869.162757  	91.064193 
2870.127181  	91.077253 
2871.091606  	91.048554 
2872.056030  	91.035602 
2873.020454  	91.072101 
2873.984879  	91.083892 
2874.949303  	91.027552 
2875.913728  	91.009941 
2876.878152  	91.042068 
2877.842577  	91.045688 
2878.807001  	91.041669 
2879.771426  	91.058432 
2880.735850  	91.030286 
2881.700275  	91.005203 
2882.664699  	90.983514 
2883.629123  	90.946954 
2884.593548  	90.893911 
2885.557972  	90.854375 
2886.522397  	90.796661 
2887.486821  	90.791281 
2888.451246  	90.766909 
2889.415670  	90.740362 
2890.380095  	90.712889 
2891.344519  	90.660268 
2892.308944  	90.647446 
2893.273368  	90.621307 
2894.237792  	90.585704 
2895.202217  	90.491219 
2896.166641  	90.440754 
2897.131066  	90.433812 
2898.095490  	90.386412 
2899.059915  	90.319646 
2900.024339  	90.263162 
2900.988764  	90.218800 
2901.953188  	90.156531 
2902.917613  	90.081428 
2903.882037  	89.993009 
2904.846461  	89.912585 
2905.810886  	89.815317 
2906.775310  	89.753081 
2907.739735  	89.694279 
2908.704159  	89.614156 
2909.668584  	89.509630 
2910.633008  	89.360985 
2911.597433  	89.230657 
2912.561857  	89.072724 
2913.526282  	88.861338 
2914.490706  	88.605961 
2915.455130  	88.380574 
2916.419555  	88.258122 
2917.383979  	88.219053 
2918.348404  	88.273366 
2919.312828  	88.421582 
2920.277253  	88.591530 
2921.241677  	88.729492 
2922.206102  	88.853245 
2923.170526  	88.985457 
2924.134951  	89.163201 
2925.099375  	89.332980 
2926.063800  	89.460402 
2927.028224  	89.594099 
2927.992648  	89.723533 
2928.957073  	89.833745 
2929.921497  	89.922737 
2930.885922  	90.014739 
2931.850346  	90.128351 
2932.814771  	90.241405 
2933.779195  	90.302202 
2934.743620  	90.377109 
2935.708044  	90.492528 
2936.672469  	90.570899 
2937.636893  	90.635461 
2938.601317  	90.702910 
2939.565742  	90.751470 
2940.530166  	90.774792 
2941.494591  	90.794370 
2942.459015  	90.795294 
2943.423440  	90.782588 
2944.387864  	90.753525 
2945.352289  	90.737465 
2946.316713  	90.738199 
2947.281138  	90.708969 
2948.245562  	90.702762 
2949.209986  	90.643432 
2950.174411  	90.557887 
2951.138835  	90.519052 
2952.103260  	90.466040 
2953.067684  	90.408696 
2954.032109  	90.360735 
2954.996533  	90.341146 
2955.960958  	90.324030 
2956.925382  	90.309689 
2957.889807  	90.291211 
2958.854231  	90.278094 
2959.818655  	90.265494 
2960.783080  	90.275806 
2961.747504  	90.293282 
2962.711929  	90.307827 
2963.676353  	90.328126 
2964.640778  	90.317190 
2965.605202  	90.282024 
2966.569627  	90.248513 
2967.534051  	90.333110 
2968.498476  	90.440061 
2969.462900  	90.479851 
2970.427324  	90.467721 
2971.391749  	90.489183 
2972.356173  	90.596838 
2973.320598  	90.708140 
2974.285022  	90.765255 
2975.249447  	90.791307 
2976.213871  	90.860876 
2977.178296  	90.953315 
2978.142720  	91.006760 
2979.107145  	91.092398 
2980.071569  	91.216137 
2981.035993  	91.261913 
2982.000418  	91.294540 
2982.964842  	91.363664 
2983.929267  	91.396996 
2984.893691  	91.441823 
2985.858116  	91.486194 
2986.822540  	91.535986 
2987.786965  	91.528951 
2988.751389  	91.517113 
2989.715814  	91.562586 
2990.680238  	91.631100 
2991.644663  	91.652396 
2992.609087  	91.638569 
2993.573511  	91.628509 
2994.537936  	91.649300 
2995.502360  	91.715205 
2996.466785  	91.720099 
2997.431209  	91.705439 
2998.395634  	91.727394 
2999.360058  	91.767734 
3000.324483  	91.797036 
3001.288907  	91.791699 
3002.253332  	91.763710 
3003.217756  	91.772883 
3004.182180  	91.744511 
3005.146605  	91.715930 
3006.111029  	91.774725 
3007.075454  	91.819806 
3008.039878  	91.852696 
3009.004303  	91.903674 
3009.968727  	91.889608 
3010.933152  	91.838358 
3011.897576  	91.788651 
3012.862001  	91.753960 
3013.826425  	91.859371 
3014.790849  	91.947885 
3015.755274  	91.956870 
3016.719698  	91.982321 
3017.684123  	91.998110 
3018.648547  	92.010869 
3019.612972  	92.022987 
3020.577396  	92.065964 
3021.541821  	92.111838 
3022.506245  	92.116785 
3023.470670  	92.129527 
3024.435094  	92.167311 
3025.399518  	92.142583 
3026.363943  	92.136152 
3027.328367  	92.194953 
3028.292792  	92.216965 
3029.257216  	92.200140 
3030.221641  	92.146086 
3031.186065  	92.043955 
3032.150490  	92.008395 
3033.114914  	92.087738 
3034.079339  	92.121793 
3035.043763  	92.133937 
3036.008187  	92.147211 
3036.972612  	92.145044 
3037.937036  	92.143092 
3038.901461  	92.150813 
3039.865885  	92.141916 
3040.830310  	92.146669 
3041.794734  	92.171213 
3042.759159  	92.155484 
3043.723583  	92.148073 
3044.688008  	92.164174 
3045.652432  	92.197136 
3046.616857  	92.147877 
3047.581281  	92.060619 
3048.545705  	91.964952 
3049.510130  	91.934316 
3050.474554  	91.982954 
3051.438979  	91.986127 
3052.403403  	91.959487 
3053.367828  	91.919562 
3054.332252  	91.896566 
3055.296677  	91.911467 
3056.261101  	91.849150 
3057.225526  	91.836042 
3058.189950  	91.943535 
3059.154374  	91.988280 
3060.118799  	91.974375 
3061.083223  	92.002248 
3062.047648  	92.041133 
3063.012072  	92.039149 
3063.976497  	91.916040 
3064.940921  	91.846818 
3065.905346  	91.914287 
3066.869770  	91.886717 
3067.834195  	91.863160 
3068.798619  	91.889427 
3069.763043  	91.942283 
3070.727468  	92.020661 
3071.691892  	92.060864 
3072.656317  	92.027868 
3073.620741  	91.993049 
3074.585166  	92.004940 
3075.549590  	92.028164 
3076.514015  	92.016160 
3077.478439  	91.973301 
3078.442864  	91.946156 
3079.407288  	91.898895 
3080.371712  	91.893559 
3081.336137  	91.950858 
3082.300561  	91.957142 
3083.264986  	91.986576 
3084.229410  	92.045916 
3085.193835  	92.055780 
3086.158259  	92.070056 
3087.122684  	92.084957 
3088.087108  	92.061890 
3089.051533  	92.074595 
3090.015957  	92.068150 
3090.980381  	92.089774 
3091.944806  	92.106228 
3092.909230  	92.121337 
3093.873655  	92.103116 
3094.838079  	92.029812 
3095.802504  	91.996234 
3096.766928  	92.038461 
3097.731353  	92.086834 
3098.695777  	92.100266 
3099.660202  	92.045913 
3100.624626  	91.986725 
3101.589050  	91.971659 
3102.553475  	91.977629 
3103.517899  	91.992868 
3104.482324  	92.057818 
3105.446748  	92.049501 
3106.411173  	91.967065 
3107.375597  	91.957890 
3108.340022  	92.042510 
3109.304446  	92.115209 
3110.268871  	92.070227 
3111.233295  	92.032696 
3112.197720  	92.025782 
3113.162144  	92.046969 
3114.126568  	92.069828 
3115.090993  	92.035581 
3116.055417  	92.003110 
3117.019842  	92.079467 
3117.984266  	92.085236 
3118.948691  	91.989605 
3119.913115  	92.067871 
3120.877540  	92.135450 
3121.841964  	92.067494 
3122.806389  	92.003619 
3123.770813  	92.040223 
3124.735237  	92.077075 
3125.699662  	92.050223 
3126.664086  	92.029626 
3127.628511  	92.070160 
3128.592935  	92.066440 
3129.557360  	92.030994 
3130.521784  	92.047120 
3131.486209  	92.076199 
3132.450633  	92.027283 
3133.415058  	91.946956 
3134.379482  	92.068401 
3135.343906  	92.182561 
3136.308331  	92.171670 
3137.272755  	92.134351 
3138.237180  	92.158774 
3139.201604  	92.189989 
3140.166029  	92.186007 
3141.130453  	92.186474 
3142.094878  	92.124121 
3143.059302  	92.089237 
3144.023727  	92.130358 
3144.988151  	92.158946 
3145.952575  	92.148442 
3146.917000  	92.097709 
3147.881424  	92.112422 
3148.845849  	92.193567 
3149.810273  	92.178129 
3150.774698  	92.157397 
3151.739122  	92.158666 
3152.703547  	92.113105 
3153.667971  	92.100682 
3154.632396  	92.111276 
3155.596820  	92.103327 
3156.561244  	92.050863 
3157.525669  	92.072771 
3158.490093  	92.099521 
3159.454518  	92.100076 
3160.418942  	92.095950 
3161.383367  	92.114311 
3162.347791  	92.117713 
3163.312216  	92.077824 
3164.276640  	92.072355 
3165.241065  	92.128748 
3166.205489  	92.133045 
3167.169914  	92.101696 
3168.134338  	92.089321 
3169.098762  	92.108244 
3170.063187  	92.083895 
3171.027611  	92.031766 
3171.992036  	92.032950 
3172.956460  	92.047116 
3173.920885  	92.049396 
3174.885309  	92.007661 
3175.849734  	91.974504 
3176.814158  	91.996179 
3177.778583  	91.950202 
3178.743007  	91.934799 
3179.707431  	91.965439 
3180.671856  	92.018733 
3181.636280  	92.092927 
3182.600705  	92.115731 
3183.565129  	92.100596 
3184.529554  	92.025331 
3185.493978  	91.924232 
3186.458403  	91.925185 
3187.422827  	91.928116 
3188.387252  	91.911063 
3189.351676  	91.984415 
3190.316100  	92.034093 
3191.280525  	92.011027 
3192.244949  	91.964359 
3193.209374  	91.983317 
3194.173798  	91.922670 
3195.138223  	91.898387 
3196.102647  	91.942674 
3197.067072  	91.892381 
3198.031496  	91.850838 
3198.995921  	91.946264 
3199.960345  	91.982693 
3200.924769  	91.988531 
3201.889194  	92.004848 
3202.853618  	91.976766 
3203.818043  	91.890952 
3204.782467  	91.894182 
3205.746892  	91.945406 
3206.711316  	91.902010 
3207.675741  	91.906650 
3208.640165  	91.918499 
3209.604590  	91.862932 
3210.569014  	91.809867 
3211.533438  	91.838227 
3212.497863  	91.882866 
3213.462287  	91.852756 
3214.426712  	91.772471 
3215.391136  	91.844206 
3216.355561  	91.890673 
3217.319985  	91.909720 
3218.284410  	91.853942 
3219.248834  	91.780480 
3220.213259  	91.809695 
3221.177683  	91.874922 
3222.142107  	91.877317 
3223.106532  	91.881879 
3224.070956  	91.889080 
3225.035381  	91.844013 
3225.999805  	91.816050 
3226.964230  	91.833742 
3227.928654  	91.766665 
3228.893079  	91.805217 
3229.857503  	91.853793 
3230.821928  	91.858659 
3231.786352  	91.855570 
3232.750777  	91.848486 
3233.715201  	91.798844 
3234.679625  	91.721684 
3235.644050  	91.729825 
3236.608474  	91.767331 
3237.572899  	91.772475 
3238.537323  	91.834740 
3239.501748  	91.784908 
3240.466172  	91.720746 
3241.430597  	91.746650 
3242.395021  	91.798519 
3243.359446  	91.781236 
3244.323870  	91.698242 
3245.288294  	91.647486 
3246.252719  	91.701667 
3247.217143  	91.713142 
3248.181568  	91.721777 
3249.145992  	91.728631 
3250.110417  	91.754080 
3251.074841  	91.745699 
3252.039266  	91.699544 
3253.003690  	91.677355 
3253.968115  	91.633443 
3254.932539  	91.614229 
3255.896963  	91.628785 
3256.861388  	91.607189 
3257.825812  	91.616510 
3258.790237  	91.588775 
3259.754661  	91.567630 
3260.719086  	91.562828 
3261.683510  	91.642727 
3262.647935  	91.676377 
3263.612359  	91.666440 
3264.576784  	91.661616 
3265.541208  	91.629877 
3266.505632  	91.607828 
3267.470057  	91.588800 
3268.434481  	91.592218 
3269.398906  	91.598962 
3270.363330  	91.588081 
3271.327755  	91.603175 
3272.292179  	91.585773 
3273.256604  	91.525799 
3274.221028  	91.513309 
3275.185453  	91.593351 
3276.149877  	91.577810 
3277.114301  	91.525260 
3278.078726  	91.547126 
3279.043150  	91.540946 
3280.007575  	91.530863 
3280.971999  	91.549595 
3281.936424  	91.592220 
3282.900848  	91.541350 
3283.865273  	91.448035 
3284.829697  	91.511662 
3285.794122  	91.571382 
3286.758546  	91.518373 
3287.722971  	91.514566 
3288.687395  	91.531061 
3289.651819  	91.547656 
3290.616244  	91.534093 
3291.580668  	91.493074 
3292.545093  	91.437712 
3293.509517  	91.456262 
3294.473942  	91.513194 
3295.438366  	91.527726 
3296.402791  	91.529441 
3297.367215  	91.496377 
3298.331640  	91.503615 
3299.296064  	91.582497 
3300.260488  	91.590380 
3301.224913  	91.587358 
3302.189337  	91.632447 
3303.153762  	91.539991 
3304.118186  	91.474231 
3305.082611  	91.538889 
3306.047035  	91.605244 
3307.011460  	91.633000 
3307.975884  	91.542808 
3308.940309  	91.441730 
3309.904733  	91.502919 
3310.869157  	91.454394 
3311.833582  	91.445492 
3312.798006  	91.525335 
3313.762431  	91.557662 
3314.726855  	91.613962 
3315.691280  	91.605433 
3316.655704  	91.595398 
3317.620129  	91.581521 
3318.584553  	91.578347 
3319.548978  	91.588539 
3320.513402  	91.599211 
3321.477826  	91.598608 
3322.442251  	91.542746 
3323.406675  	91.556692 
3324.371100  	91.562766 
3325.335524  	91.541723 
3326.299949  	91.538418 
3327.264373  	91.496017 
3328.228798  	91.475707 
3329.193222  	91.451236 
3330.157647  	91.446082 
3331.122071  	91.506402 
3332.086495  	91.590529 
3333.050920  	91.589340 
3334.015344  	91.522177 
3334.979769  	91.411691 
3335.944193  	91.402143 
3336.908618  	91.347953 
3337.873042  	91.409689 
3338.837467  	91.507833 
3339.801891  	91.516649 
3340.766316  	91.562485 
3341.730740  	91.498308 
3342.695164  	91.449752 
3343.659589  	91.532416 
3344.624013  	91.624753 
3345.588438  	91.631558 
3346.552862  	91.593550 
3347.517287  	91.577992 
3348.481711  	91.545889 
3349.446136  	91.524888 
3350.410560  	91.604510 
3351.374985  	91.669391 
3352.339409  	91.665643 
3353.303834  	91.620102 
3354.268258  	91.645492 
3355.232682  	91.635039 
3356.197107  	91.486331 
3357.161531  	91.512411 
3358.125956  	91.628200 
3359.090380  	91.679508 
3360.054805  	91.603927 
3361.019229  	91.531735 
3361.983654  	91.488200 
3362.948078  	91.576735 
3363.912503  	91.656682 
3364.876927  	91.592211 
3365.841351  	91.634027 
3366.805776  	91.659562 
3367.770200  	91.571572 
3368.734625  	91.573880 
3369.699049  	91.706853 
3370.663474  	91.743877 
3371.627898  	91.731842 
3372.592323  	91.697985 
3373.556747  	91.652286 
3374.521172  	91.690879 
3375.485596  	91.693593 
3376.450020  	91.665032 
3377.414445  	91.709567 
3378.378869  	91.733684 
3379.343294  	91.731433 
3380.307718  	91.752409 
3381.272143  	91.805566 
3382.236567  	91.773629 
3383.200992  	91.709169 
3384.165416  	91.656400 
3385.129841  	91.632365 
3386.094265  	91.685496 
3387.058689  	91.811287 
3388.023114  	91.865989 
3388.987538  	91.840124 
3389.951963  	91.818275 
3390.916387  	91.814020 
3391.880812  	91.702070 
3392.845236  	91.470058 
3393.809661  	91.545535 
3394.774085  	91.792182 
3395.738510  	91.831425 
3396.702934  	91.722493 
3397.667358  	91.558314 
3398.631783  	91.706304 
3399.596207  	91.868568 
3400.560632  	91.798410 
3401.525056  	91.718626 
3402.489481  	91.780247 
3403.453905  	91.749388 
3404.418330  	91.729192 
3405.382754  	91.827942 
3406.347179  	91.868224 
3407.311603  	91.778295 
3408.276028  	91.742078 
3409.240452  	91.706453 
3410.204876  	91.639780 
3411.169301  	91.634462 
3412.133725  	91.707332 
3413.098150  	91.796828 
3414.062574  	91.750021 
3415.026999  	91.730543 
3415.991423  	91.722791 
3416.955848  	91.692707 
3417.920272  	91.667367 
3418.884697  	91.643883 
3419.849121  	91.419860 
3420.813545  	91.150343 
3421.777970  	91.202704 
3422.742394  	91.321985 
3423.706819  	91.413585 
3424.671243  	91.537194 
3425.635668  	91.585760 
3426.600092  	91.576228 
3427.564517  	91.600000 
3428.528941  	91.582153 
3429.493366  	91.646749 
3430.457790  	91.643681 
3431.422214  	91.523709 
3432.386639  	91.513995 
3433.351063  	91.632751 
3434.315488  	91.725902 
3435.279912  	91.666277 
3436.244337  	91.670761 
3437.208761  	91.765189 
3438.173186  	91.772157 
3439.137610  	91.712548 
3440.102035  	91.755032 
3441.066459  	91.813974 
3442.030883  	91.676820 
3442.995308  	91.452444 
3443.959732  	91.666510 
3444.924157  	91.743187 
3445.888581  	91.687877 
3446.853006  	91.251129 
3447.817430  	90.961083 
3448.781855  	91.565475 
3449.746279  	91.889259 
3450.710704  	91.929687 
3451.675128  	91.882343 
3452.639552  	91.943961 
3453.603977  	91.978064 
3454.568401  	91.922117 
3455.532826  	91.906191 
3456.497250  	91.882557 
3457.461675  	91.863827 
3458.426099  	91.875898 
3459.390524  	91.866717 
3460.354948  	91.884878 
3461.319373  	91.811058 
3462.283797  	91.781243 
3463.248221  	91.741067 
3464.212646  	91.915676 
3465.177070  	92.024634 
3466.141495  	91.925649 
3467.105919  	91.732713 
3468.070344  	91.918376 
3469.034768  	92.120323 
3469.999193  	92.068206 
3470.963617  	92.022596 
3471.928042  	92.080922 
3472.892466  	92.123377 
3473.856891  	92.060024 
3474.821315  	91.896854 
3475.785739  	91.984607 
3476.750164  	92.080366 
3477.714588  	92.089153 
3478.679013  	92.140291 
3479.643437  	92.073960 
3480.607862  	91.689741 
3481.572286  	91.575769 
3482.536711  	91.524020 
3483.501135  	91.829571 
3484.465560  	92.093066 
3485.429984  	92.026217 
3486.394408  	91.999206 
3487.358833  	91.995964 
3488.323257  	91.748240 
3489.287682  	91.771491 
3490.252106  	91.989556 
3491.216531  	91.980905 
3492.180955  	92.055534 
3493.145380  	92.170417 
3494.109804  	92.208786 
3495.074229  	92.020880 
3496.038653  	91.799862 
3497.003077  	91.711460 
3497.967502  	91.923127 
3498.931926  	92.057945 
3499.896351  	91.950768 
3500.860775  	91.841188 
3501.825200  	91.531171 
3502.789624  	91.085584 
3503.754049  	91.013228 
3504.718473  	91.407301 
3505.682898  	91.724014 
3506.647322  	92.017998 
3507.611746  	92.119257 
3508.576171  	91.795185 
3509.540595  	91.179041 
3510.505020  	91.405091 
3511.469444  	91.813436 
3512.433869  	91.936744 
3513.398293  	92.062183 
3514.362718  	92.178110 
3515.327142  	92.256359 
3516.291567  	92.195502 
3517.255991  	92.005662 
3518.220415  	91.901656 
3519.184840  	91.913056 
3520.149264  	91.993746 
3521.113689  	92.108161 
3522.078113  	91.882420 
3523.042538  	91.069393 
3524.006962  	90.689377 
3524.971387  	91.139051 
3525.935811  	91.346229 
3526.900236  	91.246463 
3527.864660  	91.074934 
3528.829085  	91.171355 
3529.793509  	91.370713 
3530.757933  	91.642998 
3531.722358  	91.683900 
3532.686782  	91.942404 
3533.651207  	92.118831 
3534.615631  	92.227293 
3535.580056  	91.962260 
3536.544480  	91.251170 
3537.508905  	91.424192 
3538.473329  	91.977875 
3539.437754  	91.987859 
3540.402178  	91.990081 
3541.366602  	92.026237 
3542.331027  	92.071168 
3543.295451  	91.753075 
3544.259876  	91.289935 
3545.224300  	90.445107 
3546.188725  	90.226154 
3547.153149  	90.320904 
3548.117574  	90.856919 
3549.081998  	91.683905 
3550.046423  	91.947748 
3551.010847  	91.889030 
3551.975271  	91.276574 
3552.939696  	90.984515 
3553.904120  	91.383701 
3554.868545  	91.758824 
3555.832969  	92.093529 
3556.797394  	92.021078 
3557.761818  	92.028275 
3558.726243  	92.072526 
3559.690667  	91.628622 
3560.655092  	91.230954 
3561.619516  	91.688838 
3562.583940  	91.651678 
3563.548365  	91.470468 
3564.512789  	91.425045 
3565.477214  	90.616926 
3566.441638  	88.422444 
3567.406063  	88.298871 
3568.370487  	88.780687 
3569.334912  	90.397220 
3570.299336  	91.539711 
3571.263761  	91.735170 
3572.228185  	92.132666 
3573.192609  	92.146353 
3574.157034  	91.969324 
3575.121458  	91.886784 
3576.085883  	92.020042 
3577.050307  	91.865858 
3578.014732  	91.849741 
3578.979156  	91.939414 
3579.943581  	91.559624 
3580.908005  	91.561722 
3581.872430  	92.011770 
3582.836854  	92.008541 
3583.801278  	91.825188 
3584.765703  	91.877470 
3585.730127  	91.503936 
3586.694552  	89.845551 
3587.658976  	88.870634 
3588.623401  	89.144621 
3589.587825  	90.335095 
3590.552250  	91.702188 
3591.516674  	91.990769 
3592.481099  	91.860338 
3593.445523  	91.175559 
3594.409948  	91.241285 
3595.374372  	90.810932 
3596.338796  	90.702499 
3597.303221  	91.598631 
3598.267645  	91.652471 
3599.232070  	91.366874 
3600.196494  	91.400871 
3601.160919  	91.080802 
3602.125343  	91.370602 
3603.089768  	91.677754 
3604.054192  	92.031079 
3605.018617  	92.234522 
3605.983041  	91.998898 
3606.947465  	90.826075 
3607.911890  	90.321963 
3608.876314  	90.576428 
3609.840739  	90.317827 
3610.805163  	91.408217 
3611.769588  	91.339488 
3612.734012  	90.043038 
3613.698437  	90.224489 
3614.662861  	90.418132 
3615.627286  	90.522176 
3616.591710  	91.496422 
3617.556134  	90.881542 
3618.520559  	89.979632 
3619.484983  	89.870967 
3620.449408  	90.034472 
3621.413832  	90.874242 
3622.378257  	91.593486 
3623.342681  	91.994292 
3624.307106  	92.146351 
3625.271530  	92.071080 
3626.235955  	91.516250 
3627.200379  	91.250640 
3628.164803  	90.233139 
3629.129228  	87.309554 
3630.093652  	88.187801 
3631.058077  	90.708201 
3632.022501  	91.684903 
3632.986926  	91.761246 
3633.951350  	90.982433 
3634.915775  	91.352382 
3635.880199  	92.101138 
3636.844624  	92.219808 
3637.809048  	92.073823 
3638.773472  	92.034579 
3639.737897  	92.251311 
3640.702321  	92.218825 
3641.666746  	91.908587 
3642.631170  	91.525663 
3643.595595  	91.800919 
3644.560019  	92.144040 
3645.524444  	91.772126 
3646.488868  	90.566444 
3647.453293  	88.733957 
3648.417717  	89.013877 
3649.382142  	88.803477 
3650.346566  	87.899716 
3651.310990  	88.145893 
3652.275415  	90.396918 
3653.239839  	91.836932 
3654.204264  	92.234971 
3655.168688  	92.066405 
3656.133113  	91.012221 
3657.097537  	90.797950 
3658.061962  	91.991297 
3659.026386  	92.238466 
3659.990811  	92.090203 
3660.955235  	92.263210 
3661.919659  	92.522150 
3662.884084  	92.543830 
3663.848508  	92.503646 
3664.812933  	92.363021 
3665.777357  	92.359370 
3666.741782  	92.439354 
3667.706206  	92.355482 
3668.670631  	91.359879 
3669.635055  	90.161892 
3670.599480  	89.435510 
3671.563904  	90.079049 
3672.528328  	91.668717 
3673.492753  	91.872793 
3674.457177  	90.712347 
3675.421602  	87.949935 
3676.386026  	88.658930 
3677.350451  	90.508352 
3678.314875  	91.209992 
3679.279300  	91.165675 
3680.243724  	91.265002 
3681.208149  	92.129082 
3682.172573  	92.446769 
3683.136997  	92.426862 
3684.101422  	92.316727 
3685.065846  	92.227589 
3686.030271  	92.367869 
3686.994695  	92.176888 
3687.959120  	91.198889 
3688.923544  	90.122870 
3689.887969  	90.818318 
3690.852393  	90.119524 
3691.816818  	90.067613 
3692.781242  	91.838913 
3693.745666  	92.254244 
3694.710091  	92.335528 
3695.674515  	92.440142 
3696.638940  	92.325457 
3697.603364  	92.415012 
3698.567789  	92.640179 
3699.532213  	92.543895 
3700.496638  	92.450950 
3701.461062  	91.636837 
3702.425487  	91.093452 
3703.389911  	92.220064 
3704.354335  	92.602002 
3705.318760  	92.452741 
3706.283184  	92.438478 
3707.247609  	92.564243 
3708.212033  	92.437610 
3709.176458  	91.638236 
3710.140882  	91.054268 
3711.105307  	90.855362 
3712.069731  	89.680761 
3713.034156  	90.027471 
3713.998580  	91.537062 
3714.963005  	91.615428 
3715.927429  	91.943167 
3716.891853  	92.519562 
3717.856278  	92.503068 
3718.820702  	91.793828 
3719.785127  	91.612367 
3720.749551  	92.287366 
3721.713976  	91.763173 
3722.678400  	90.399454 
3723.642825  	91.140093 
3724.607249  	91.469123 
3725.571674  	90.697190 
3726.536098  	90.462568 
3727.500522  	90.755069 
3728.464947  	91.804141 
3729.429371  	92.421090 
3730.393796  	92.340484 
3731.358220  	91.802884 
3732.322645  	90.922552 
3733.287069  	91.187596 
3734.251494  	90.436078 
3735.215918  	87.215859 
3736.180343  	87.860913 
3737.144767  	89.579777 
3738.109191  	90.497118 
3739.073616  	90.967941 
3740.038040  	91.563660 
3741.002465  	91.106585 
3741.966889  	91.248978 
3742.931314  	91.817262 
3743.895738  	90.656468 
3744.860163  	87.271822 
3745.824587  	89.899280 
3746.789012  	90.882254 
3747.753436  	90.841564 
3748.717860  	90.594728 
3749.682285  	90.014848 
3750.646709  	90.204414 
3751.611134  	89.768129 
3752.575558  	88.560644 
3753.539983  	90.523053 
3754.504407  	91.543940 
3755.468832  	91.949342 
3756.433256  	91.527075 
3757.397681  	91.574050 
3758.362105  	91.901936 
3759.326529  	90.900933 
3760.290954  	90.487472 
3761.255378  	92.014487 
3762.219803  	92.379087 
3763.184227  	92.414654 
3764.148652  	92.445920 
3765.113076  	91.929562 
3766.077501  	91.002414 
3767.041925  	91.805609 
3768.006350  	92.390525 
3768.970774  	92.065776 
3769.935199  	91.079553 
3770.899623  	91.349838 
3771.864047  	92.174151 
3772.828472  	92.465545 
3773.792896  	92.611581 
3774.757321  	92.678349 
3775.721745  	92.732211 
3776.686170  	92.805363 
3777.650594  	92.692872 
3778.615019  	92.238418 
3779.579443  	91.329508 
3780.543868  	91.583991 
3781.508292  	92.440937 
3782.472716  	92.540581 
3783.437141  	92.567445 
3784.401565  	92.168552 
3785.365990  	91.718814 
3786.330414  	92.099692 
3787.294839  	92.430246 
3788.259263  	92.628566 
3789.223688  	92.691187 
3790.188112  	92.701057 
3791.152537  	92.774263 
3792.116961  	92.786985 
3793.081385  	92.792397 
3794.045810  	92.806093 
3795.010234  	92.653626 
3795.974659  	92.015745 
3796.939083  	91.152253 
3797.903508  	91.477956 
3798.867932  	92.029043 
3799.832357  	92.148451 
3800.796781  	91.098384 
3801.761206  	89.575394 
3802.725630  	90.267574 
3803.690054  	91.340920 
3804.654479  	92.256209 
3805.618903  	92.368485 
3806.583328  	91.611577 
3807.547752  	91.025881 
3808.512177  	92.111706 
3809.476601  	92.451578 
3810.441026  	92.486105 
3811.405450  	92.632499 
3812.369875  	92.697260 
3813.334299  	92.731907 
3814.298723  	92.632616 
3815.263148  	91.953935 
3816.227572  	90.454011 
3817.191997  	91.074126 
3818.156421  	91.953337 
3819.120846  	91.869016 
3820.085270  	91.196729 
3821.049695  	89.640693 
3822.014119  	89.538195 
3822.978544  	91.229771 
3823.942968  	91.864636 
3824.907392  	92.149009 
3825.871817  	92.087220 
3826.836241  	91.459115 
3827.800666  	91.602692 
3828.765090  	92.285044 
3829.729515  	92.578139 
3830.693939  	92.392758 
3831.658364  	91.553850 
3832.622788  	91.719822 
3833.587213  	92.363601 
3834.551637  	91.761229 
3835.516062  	91.176344 
3836.480486  	91.824290 
3837.444910  	91.180476 
3838.409335  	90.071625 
3839.373759  	90.874176 
3840.338184  	90.263403 
3841.302608  	90.310635 
3842.267033  	91.742934 
3843.231457  	91.722693 
3844.195882  	90.916340 
3845.160306  	91.877931 
3846.124731  	92.466363 
3847.089155  	92.565482 
3848.053579  	92.579855 
3849.018004  	92.326863 
3849.982428  	91.806457 
3850.946853  	91.754783 
3851.911277  	90.840863 
3852.875702  	89.199217 
3853.840126  	88.452568 
3854.804551  	89.109794 
3855.768975  	91.310272 
3856.733400  	91.307154 
3857.697824  	90.872078 
3858.662248  	91.995781 
3859.626673  	92.616983 
3860.591097  	92.492666 
3861.555522  	91.778224 
3862.519946  	91.269463 
3863.484371  	91.703272 
3864.448795  	90.824608 
3865.413220  	89.679809 
3866.377644  	91.257145 
3867.342069  	92.304066 
3868.306493  	92.180510 
3869.270917  	90.790611 
3870.235342  	88.799617 
3871.199766  	90.286160 
3872.164191  	91.612858 
3873.128615  	91.887533 
3874.093040  	90.537100 
3875.057464  	90.654054 
3876.021889  	92.292133 
3876.986313  	92.619957 
3877.950738  	92.709816 
3878.915162  	92.601893 
3879.879586  	91.473386 
3880.844011  	89.594636 
3881.808435  	90.935788 
3882.772860  	91.890965 
3883.737284  	91.665829 
3884.701709  	91.677767 
3885.666133  	90.729618 
3886.630558  	90.427690 
3887.594982  	92.075418 
3888.559407  	92.584456 
3889.523831  	92.606855 
3890.488256  	92.104819 
3891.452680  	90.821268 
3892.417104  	90.844225 
3893.381529  	91.802885 
3894.345953  	91.725603 
3895.310378  	92.093450 
3896.274802  	92.642371 
3897.239227  	92.634840 
3898.203651  	91.888467 
3899.168076  	90.705972 
3900.132500  	90.675904 
3901.096925  	91.425415 
3902.061349  	90.105785 
3903.025773  	90.258738 
3903.990198  	90.655667 
3904.954622  	90.182440 
3905.919047  	90.598270 
3906.883471  	91.440341 
3907.847896  	92.473403 
3908.812320  	92.781544 
3909.776745  	92.808031 
3910.741169  	92.799434 
3911.705594  	92.804650 
3912.670018  	92.743605 
3913.634442  	92.704593 
3914.598867  	92.772394 
3915.563291  	92.632350 
3916.527716  	91.639158 
3917.492140  	90.831822 
3918.456565  	91.840522 
3919.420989  	92.120808 
3920.385414  	91.412998 
3921.349838  	92.048283 
3922.314263  	92.725677 
3923.278687  	92.347522 
3924.243111  	91.487435 
3925.207536  	91.032572 
3926.171960  	91.808198 
3927.136385  	92.610701 
3928.100809  	92.613628 
3929.065234  	92.390690 
3930.029658  	92.089956 
3930.994083  	91.883787 
3931.958507  	91.422946 
3932.922932  	90.987454 
3933.887356  	91.811796 
3934.851780  	92.279310 
3935.816205  	92.639055 
3936.780629  	92.842922 
3937.745054  	92.732464 
3938.709478  	92.482852 
3939.673903  	92.622694 
3940.638327  	92.709673 
3941.602752  	92.540717 
3942.567176  	91.602082 
3943.531601  	91.193201 
3944.496025  	92.106376 
3945.460449  	92.537834 
3946.424874  	92.613710 
3947.389298  	92.022516 
3948.353723  	91.659741 
3949.318147  	91.904136 
3950.282572  	91.606714 
3951.246996  	92.047996 
3952.211421  	92.672172 
3953.175845  	92.574584 
3954.140270  	92.610918 
3955.104694  	92.697405 
3956.069119  	92.650501 
3957.033543  	92.505009 
3957.997967  	92.477625 
3958.962392  	92.590702 
3959.926816  	92.666008 
3960.891241  	92.595657 
3961.855665  	92.162964 
3962.820090  	92.151661 
3963.784514  	92.673550 
3964.748939  	92.701070 
3965.713363  	92.736834 
3966.677788  	92.819336 
3967.642212  	92.816395 
3968.606636  	92.666289 
3969.571061  	92.503700 
3970.535485  	92.653596 
3971.499910  	92.726547 
3972.464334  	92.502998 
3973.428759  	92.613336 
3974.393183  	92.702831 
3975.357608  	92.524135 
3976.322032  	92.368663 
3977.286457  	92.569630 
3978.250881  	92.816673 
3979.215305  	92.854554 
3980.179730  	92.833948 
3981.144154  	92.788169 
3982.108579  	92.725980 
3983.073003  	92.753222 
3984.037428  	92.875662 
3985.001852  	92.845296 
3985.966277  	92.811578 
3986.930701  	92.839168 
3987.895126  	92.845987 
3988.859550  	92.807054 
3989.823974  	92.670146 
3990.788399  	92.467422 
3991.752823  	92.583424 
3992.717248  	92.790935 
3993.681672  	92.797005 
3994.646097  	92.708484 
3995.610521  	92.592612 
3996.574946  	92.748242 
3997.539370  	92.877849 
3998.503795  	92.896198 
3999.468219  	92.890282 
4000.432643  	92.937198 
4001.397068  	92.927096 
4002.361492  	92.867832 
4003.325917  	92.782094 
4004.290341  	92.793760 
4005.254766  	92.843295 
4006.219190  	92.870906 
4007.183615  	92.858719 
4008.148039  	92.728118 
4009.112464  	92.582106 
4010.076888  	92.731455 
4011.041313  	92.805685 
4012.005737  	92.837476 
4012.970161  	92.855105 
4013.934586  	92.876072 
4014.899010  	92.848063 
4015.863435  	92.774702 
4016.827859  	92.785664 
4017.792284  	92.839822 
4018.756708  	92.849688 
4019.721133  	92.765195 
4020.685557  	92.739828 
4021.649982  	92.788854 
4022.614406  	92.900095 
4023.578830  	92.882357 
4024.543255  	92.761511 
4025.507679  	92.703953 
4026.472104  	92.779601 
4027.436528  	92.853241 
4028.400953  	92.839903 
4029.365377  	92.798630 
4030.329802  	92.780744 
4031.294226  	92.817634 
4032.258651  	92.823723 
4033.223075  	92.876454 
4034.187499  	92.889084 
4035.151924  	92.843025 
4036.116348  	92.823164 
4037.080773  	92.831256 
4038.045197  	92.892209 
4039.009622  	92.939083 
4039.974046  	92.916298 
4040.938471  	92.922962 
4041.902895  	92.862413 
4042.867320  	92.844983 
4043.831744  	92.757450 
4044.796168  	92.640463 
4045.760593  	92.674010 
4046.725017  	92.809605 
4047.689442  	92.879399 
4048.653866  	92.885968 
4049.618291  	92.872172 
4050.582715  	92.873320 
4051.547140  	92.886737 
4052.511564  	92.905040 
4053.475989  	92.888342 
4054.440413  	92.872354 
4055.404837  	92.860127 
4056.369262  	92.899398 
4057.333686  	92.918377 
4058.298111  	92.889754 
4059.262535  	92.856630 
4060.226960  	92.832580 
4061.191384  	92.795513 
4062.155809  	92.821231 
4063.120233  	92.853523 
4064.084658  	92.872717 
4065.049082  	92.854961 
4066.013506  	92.815312 
4066.977931  	92.830600 
4067.942355  	92.883308 
4068.906780  	92.885502 
4069.871204  	92.872700 
4070.835629  	92.860150 
4071.800053  	92.844348 
4072.764478  	92.806900 
4073.728902  	92.781493 
4074.693327  	92.812500 
4075.657751  	92.829788 
4076.622176  	92.817074 
4077.586600  	92.841594 
4078.551024  	92.821986 
4079.515449  	92.767848 
4080.479873  	92.797661 
4081.444298  	92.829173 
4082.408722  	92.771804 
4083.373147  	92.744038 
4084.337571  	92.731183 
4085.301996  	92.779386 
4086.266420  	92.794572 
4087.230845  	92.784717 
4088.195269  	92.750397 
4089.159693  	92.747641 
4090.124118  	92.826116 
4091.088542  	92.825427 
4092.052967  	92.828808 
4093.017391  	92.813793 
4093.981816  	92.770270 
4094.946240  	92.805739 
4095.910665  	92.883476 
4096.875089  	92.927714 
4097.839514  	92.846697 
4098.803938  	92.751954 
4099.768362  	92.794758 
4100.732787  	92.839036 
4101.697211  	92.787785 
4102.661636  	92.777471 
4103.626060  	92.819689 
4104.590485  	92.857370 
4105.554909  	92.840491 
4106.519334  	92.830470 
4107.483758  	92.799997 
4108.448183  	92.809196 
4109.412607  	92.851589 
4110.377031  	92.838337 
4111.341456  	92.852522 
4112.305880  	92.922434 
4113.270305  	92.909404 
4114.234729  	92.834952 
4115.199154  	92.841986 
4116.163578  	92.868831 
4117.128003  	92.867709 
4118.092427  	92.831057 
4119.056852  	92.776611 
4120.021276  	92.768761 
4120.985700  	92.808516 
4121.950125  	92.845596 
4122.914549  	92.831249 
4123.878974  	92.831725 
4124.843398  	92.856257 
4125.807823  	92.875689 
4126.772247  	92.854014 
4127.736672  	92.829365 
4128.701096  	92.849599 
4129.665521  	92.880248 
4130.629945  	92.865194 
4131.594370  	92.877196 
4132.558794  	92.935506 
4133.523218  	92.881171 
4134.487643  	92.811472 
4135.452067  	92.868394 
4136.416492  	92.944698 
4137.380916  	92.938169 
4138.345341  	92.863545 
4139.309765  	92.841288 
4140.274190  	92.901152 
4141.238614  	92.905937 
4142.203039  	92.915091 
4143.167463  	92.956962 
4144.131887  	92.882200 
4145.096312  	92.877587 
4146.060736  	92.905971 
4147.025161  	92.916863 
4147.989585  	92.914451 
4148.954010  	92.861687 
4149.918434  	92.808384 
4150.882859  	92.826885 
4151.847283  	92.836824 
4152.811708  	92.842182 
4153.776132  	92.828030 
4154.740556  	92.857250 
4155.704981  	92.863682 
4156.669405  	92.890536 
4157.633830  	92.928369 
4158.598254  	92.894890 
4159.562679  	92.893569 
4160.527103  	92.898824 
4161.491528  	92.882926 
4162.455952  	92.894271 
4163.420377  	92.896392 
4164.384801  	92.908894 
4165.349225  	92.916724 
4166.313650  	92.903557 
4167.278074  	92.900724 
4168.242499  	92.950905 
4169.206923  	92.960183 
4170.171348  	92.916393 
4171.135772  	92.884368 
4172.100197  	92.865177 
4173.064621  	92.896980 
4174.029046  	92.920831 
4174.993470  	92.870632 
4175.957894  	92.869205 
4176.922319  	92.907700 
4177.886743  	92.913528 
4178.851168  	92.877232 
4179.815592  	92.795143 
4180.780017  	92.793242 
4181.744441  	92.909211 
4182.708866  	92.917485 
4183.673290  	92.896552 
4184.637715  	92.917825 
4185.602139  	92.919576 
4186.566563  	92.855831 
4187.530988  	92.848957 
4188.495412  	92.925050 
4189.459837  	92.945297 
4190.424261  	92.891042 
4191.388686  	92.902020 
4192.353110  	92.942809 
4193.317535  	92.906591 
4194.281959  	92.869025 
4195.246384  	92.915594 
4196.210808  	92.938362 
4197.175233  	92.891253 
4198.139657  	92.866590 
4199.104081  	92.888868 
4200.068506  	92.910369 
4201.032930  	92.933812 
4201.997355  	92.957625 
4202.961779  	93.026704 
4203.926204  	92.983085 
4204.890628  	92.920207 
4205.855053  	92.921371 
4206.819477  	92.916575 
4207.783902  	92.886737 
4208.748326  	92.909446 
4209.712750  	92.942343 
4210.677175  	92.967281 
4211.641599  	92.948421 
4212.606024  	92.933775 
4213.570448  	92.949550 
4214.534873  	92.968193 
4215.499297  	92.913112 
4216.463722  	92.895397 
4217.428146  	92.823020 
4218.392571  	92.801181 
4219.356995  	92.875816 
4220.321419  	92.935168 
4221.285844  	92.934621 
4222.250268  	92.950175 
4223.214693  	92.892622 
4224.179117  	92.837920 
4225.143542  	92.910481 
4226.107966  	92.994953 
4227.072391  	93.027142 
4228.036815  	92.943127 
4229.001240  	92.887010 
4229.965664  	92.891376 
4230.930088  	92.896553 
4231.894513  	92.891767 
4232.858937  	92.906918 
4233.823362  	92.945344 
4234.787786  	92.970049 
4235.752211  	92.959090 
4236.716635  	92.953783 
4237.681060  	92.969857 
4238.645484  	92.940041 
4239.609909  	92.925175 
4240.574333  	92.927645 
4241.538757  	92.958821 
4242.503182  	92.942858 
4243.467606  	92.925743 
4244.432031  	92.902677 
4245.396455  	92.897618 
4246.360880  	92.905329 
4247.325304  	92.933734 
4248.289729  	92.952287 
4249.254153  	92.957128 
4250.218578  	93.005477 
4251.183002  	93.045538 
4252.147427  	92.996237 
4253.111851  	92.912227 
4254.076275  	92.883594 
4255.040700  	92.900332 
4256.005124  	92.912423 
4256.969549  	92.979158 
4257.933973  	93.016857 
4258.898398  	92.912617 
4259.862822  	92.804253 
4260.827247  	92.829413 
4261.791671  	92.897576 
4262.756096  	92.941318 
4263.720520  	92.889029 
4264.684944  	92.824362 
4265.649369  	92.807557 
4266.613793  	92.913634 
4267.578218  	92.920346 
4268.542642  	92.909998 
4269.507067  	92.967146 
4270.471491  	92.979467 
4271.435916  	92.952195 
4272.400340  	92.881702 
4273.364765  	92.898066 
4274.329189  	92.980628 
4275.293613  	92.996934 
4276.258038  	92.966222 
4277.222462  	92.913035 
4278.186887  	92.856725 
4279.151311  	92.784410 
4280.115736  	92.741267 
4281.080160  	92.814916 
4282.044585  	92.889312 
4283.009009  	92.879907 
4283.973434  	92.873176 
4284.937858  	92.903504 
4285.902282  	92.915202 
4286.866707  	92.886153 
4287.831131  	92.912701 
4288.795556  	92.959490 
4289.759980  	92.920959 
4290.724405  	92.868027 
4291.688829  	92.890535 
4292.653254  	92.911357 
4293.617678  	92.953121 
4294.582103  	92.973271 
4295.546527  	92.970816 
4296.510951  	92.970622 
4297.475376  	92.997438 
4298.439800  	92.960550 
4299.404225  	92.979269 
4300.368649  	92.977660 
4301.333074  	92.877843 
4302.297498  	92.797427 
4303.261923  	92.845776 
4304.226347  	92.944324 
4305.190772  	93.058182 
4306.155196  	93.003755 
4307.119620  	92.936272 
4308.084045  	92.895720 
4309.048469  	92.913486 
4310.012894  	92.947189 
4310.977318  	92.992095 
4311.941743  	92.975354 
4312.906167  	92.932810 
4313.870592  	92.896179 
4314.835016  	92.909339 
4315.799441  	92.889824 
4316.763865  	92.860215 
4317.728290  	92.891016 
4318.692714  	92.938367 
4319.657138  	92.927111 
4320.621563  	92.914909 
4321.585987  	92.931956 
4322.550412  	92.940234 
4323.514836  	92.902056 
4324.479261  	92.890033 
4325.443685  	92.928114 
4326.408110  	92.987773 
4327.372534  	92.972432 
4328.336959  	92.925337 
4329.301383  	92.935474 
4330.265807  	92.995302 
4331.230232  	93.002778 
4332.194656  	92.949722 
4333.159081  	93.004109 
4334.123505  	93.005184 
4335.087930  	92.940785 
4336.052354  	92.938493 
4337.016779  	92.973747 
4337.981203  	93.014012 
4338.945628  	93.022344 
4339.910052  	92.974075 
4340.874476  	92.921824 
4341.838901  	93.004923 
4342.803325  	92.977658 
4343.767750  	92.910828 
4344.732174  	92.903010 
4345.696599  	92.891963 
4346.661023  	92.913659 
4347.625448  	92.871015 
4348.589872  	92.869997 
4349.554297  	92.883981 
4350.518721  	92.879135 
4351.483145  	92.945860 
4352.447570  	92.963294 
4353.411994  	92.958087 
4354.376419  	92.932571 
4355.340843  	92.948972 
4356.305268  	93.015568 
4357.269692  	93.027458 
4358.234117  	93.014498 
4359.198541  	93.035437 
4360.162966  	93.059590 
4361.127390  	92.994469 
4362.091814  	92.931620 
4363.056239  	92.928757 
4364.020663  	92.990820 
4364.985088  	92.955228 
4365.949512  	92.875444 
4366.913937  	92.888645 
4367.878361  	92.887712 
4368.842786  	92.984724 
4369.807210  	93.069375 
4370.771635  	93.011011 
4371.736059  	92.947591 
4372.700484  	92.935724 
4373.664908  	92.955457 
4374.629332  	92.972329 
4375.593757  	92.949274 
4376.558181  	92.978475 
4377.522606  	93.038702 
4378.487030  	93.020973 
4379.451455  	92.977010 
4380.415879  	92.906684 
4381.380304  	92.866608 
4382.344728  	92.916953 
4383.309153  	92.927842 
4384.273577  	92.930478 
4385.238001  	92.926212 
4386.202426  	92.921033 
4387.166850  	92.916654 
4388.131275  	92.925058 
4389.095699  	92.864510 
4390.060124  	92.885815 
4391.024548  	92.958114 
4391.988973  	93.019342 
4392.953397  	93.043493 
4393.917822  	92.996183 
4394.882246  	92.966836 
4395.846670  	92.936580 
4396.811095  	92.915024 
4397.775519  	92.971910 
4398.739944  	92.993715 
4399.704368  	92.998014 
4400.668793  	93.071113 
4401.633217  	92.967789 
4402.597642  	92.874824 
4403.562066  	92.973940 
4404.526491  	92.990234 
4405.490915  	92.963023 
4406.455339  	92.958718 
4407.419764  	92.935578 
4408.384188  	92.934057 
4409.348613  	92.950985 
4410.313037  	92.971638 
4411.277462  	92.943740 
4412.241886  	92.876399 
4413.206311  	92.929970 
4414.170735  	92.987943 
4415.135160  	93.025551 
4416.099584  	92.988529 
4417.064008  	92.878324 
4418.028433  	92.878511 
4418.992857  	92.969123 
4419.957282  	92.942409 
4420.921706  	92.890076 
4421.886131  	92.900350 
4422.850555  	92.912616 
4423.814980  	92.894157 
4424.779404  	92.938759 
4425.743829  	92.933595 
4426.708253  	92.882882 
4427.672677  	92.891978 
4428.637102  	92.921843 
4429.601526  	92.929234 
4430.565951  	92.913031 
4431.530375  	92.880513 
4432.494800  	92.832749 
4433.459224  	92.796254 
4434.423649  	92.828423 
4435.388073  	92.889773 
4436.352498  	92.991032 
4437.316922  	93.038920 
4438.281347  	93.030179 
4439.245771  	92.931544 
4440.210195  	92.911480 
4441.174620  	92.909867 
4442.139044  	92.898432 
4443.103469  	92.927149 
4444.067893  	92.968625 
4445.032318  	93.004956 
4445.996742  	93.015102 
4446.961167  	92.925870 
4447.925591  	92.864154 
4448.890016  	92.825240 
4449.854440  	92.855573 
4450.818864  	92.936851 
4451.783289  	92.986331 
4452.747713  	92.928366 
4453.712138  	92.943147 
4454.676562  	92.934285 
4455.640987  	92.858530 
4456.605411  	92.855949 
4457.569836  	92.915958 
4458.534260  	92.878856 
4459.498685  	92.847826 
4460.463109  	92.866885 
4461.427533  	92.869173 
4462.391958  	92.871272 
4463.356382  	92.883662 
4464.320807  	92.893720 
4465.285231  	92.881690 
4466.249656  	92.903299 
4467.214080  	92.889263 
4468.178505  	92.874166 
4469.142929  	92.903278 
4470.107354  	92.968792 
4471.071778  	92.966966 
4472.036202  	92.987236 
4473.000627  	92.978113 
4473.965051  	92.902607 
4474.929476  	92.841388 
4475.893900  	92.910277 
4476.858325  	92.958228 
4477.822749  	92.931161 
4478.787174  	92.982440 
4479.751598  	92.989992 
4480.716023  	92.913408 
4481.680447  	92.873927 
4482.644871  	92.874389 
4483.609296  	92.903002 
4484.573720  	92.923239 
4485.538145  	92.927618 
4486.502569  	92.942550 
4487.466994  	92.950643 
4488.431418  	92.958017 
4489.395843  	92.912285 
4490.360267  	92.877587 
4491.324692  	92.869589 
4492.289116  	92.911546 
4493.253541  	92.959826 
4494.217965  	93.002642 
4495.182389  	92.969102 
4496.146814  	92.935615 
4497.111238  	92.923390 
4498.075663  	92.987549 
4499.040087  	92.998947 
4500.004512  	92.963136 
4500.968936  	92.976004 
4501.933361  	92.940974 
4502.897785  	92.937971 
4503.862210  	92.971454 
4504.826634  	92.953721 
4505.791058  	92.930674 
4506.755483  	92.985481 
4507.719907  	92.958852 
4508.684332  	92.918971 
4509.648756  	92.915975 
4510.613181  	92.906529 
4511.577605  	92.976247 
4512.542030  	92.970907 
4513.506454  	92.916229 
4514.470879  	92.915071 
4515.435303  	92.895262 
4516.399727  	92.913580 
4517.364152  	92.922373 
4518.328576  	92.920113 
4519.293001  	92.966488 
4520.257425  	92.951499 
4521.221850  	92.904406 
4522.186274  	92.985489 
4523.150699  	93.001303 
4524.115123  	92.902495 
4525.079548  	92.866609 
4526.043972  	92.861254 
4527.008396  	92.860279 
4527.972821  	92.919615 
4528.937245  	93.015605 
4529.901670  	93.026989 
4530.866094  	93.004624 
4531.830519  	92.966315 
4532.794943  	92.936627 
4533.759368  	92.974632 
4534.723792  	92.970984 
4535.688217  	92.922100 
4536.652641  	92.983441 
4537.617065  	93.070249 
4538.581490  	93.118303 
4539.545914  	93.089279 
4540.510339  	93.014660 
4541.474763  	92.886462 
4542.439188  	92.840324 
4543.403612  	92.858431 
4544.368037  	92.829464 
4545.332461  	92.855061 
4546.296886  	92.968324 
4547.261310  	93.005324 
4548.225734  	93.006762 
4549.190159  	92.976607 
4550.154583  	93.003632 
4551.119008  	93.001549 
4552.083432  	92.989306 
4553.047857  	92.969802 
4554.012281  	92.986732 
4554.976706  	92.934621 
4555.941130  	92.918083 
4556.905555  	92.876985 
4557.869979  	92.862291 
4558.834404  	92.960645 
4559.798828  	92.920225 
4560.763252  	92.803716 
4561.727677  	92.800411 
4562.692101  	92.837759 
4563.656526  	92.938383 
4564.620950  	92.999025 
4565.585375  	92.923526 
4566.549799  	92.894841 
4567.514224  	92.923118 
4568.478648  	92.977837 
4569.443073  	93.022872 
4570.407497  	93.002502 
4571.371921  	93.009822 
4572.336346  	92.969505 
4573.300770  	92.999359 
4574.265195  	92.963291 
4575.229619  	92.905202 
4576.194044  	92.923581 
4577.158468  	92.953754 
4578.122893  	93.013859 
4579.087317  	93.009551 
4580.051742  	92.961744 
4581.016166  	93.009653 
4581.980590  	93.038851 
4582.945015  	93.038660 
4583.909439  	92.988178 
4584.873864  	92.933017 
4585.838288  	92.859706 
4586.802713  	92.926972 
4587.767137  	92.923873 
4588.731562  	92.913597 
4589.695986  	92.915291 
4590.660411  	92.955409 
4591.624835  	93.003624 
4592.589259  	93.012021 
4593.553684  	93.018046 
4594.518108  	92.895752 
4595.482533  	92.836788 
4596.446957  	92.872136 
4597.411382  	92.797750 
4598.375806  	92.779152 
4599.340231  	92.908297 
4600.304655  	92.966263 
4601.269080  	92.908115 
4602.233504  	92.847422 
4603.197928  	92.861817 
4604.162353  	92.950439 
4605.126777  	93.005246 
4606.091202  	93.031954 
4607.055626  	93.053714 
4608.020051  	93.031866 
4608.984475  	92.971311 
4609.948900  	93.001672 
4610.913324  	93.007238 
4611.877749  	92.965755 
4612.842173  	92.943024 
4613.806598  	92.984157 
4614.771022  	92.968408 
4615.735446  	92.937906 
4616.699871  	92.934832 
4617.664295  	92.903739 
4618.628720  	92.915289 
4619.593144  	92.963470 
4620.557569  	92.976210 
4621.521993  	92.947063 
4622.486418  	92.889036 
4623.450842  	92.872828 
4624.415267  	92.884953 
4625.379691  	92.947799 
4626.344115  	92.976713 
4627.308540  	92.970490 
4628.272964  	92.947105 
4629.237389  	92.926090 
4630.201813  	92.887397 
4631.166238  	92.863821 
4632.130662  	92.927025 
4633.095087  	92.908287 
4634.059511  	92.848227 
4635.023936  	92.966195 
4635.988360  	93.043482 
4636.952784  	92.999814 
4637.917209  	92.963315 
4638.881633  	92.818625 
4639.846058  	92.790268 
4640.810482  	92.941920 
4641.774907  	93.004126 
4642.739331  	92.878315 
4643.703756  	92.813312 
4644.668180  	92.832140 
4645.632605  	92.799498 
4646.597029  	92.854756 
4647.561453  	92.927464 
4648.525878  	92.934877 
4649.490302  	92.945359 
4650.454727  	92.919296 
4651.419151  	92.905240 
4652.383576  	92.873166 
4653.348000  	92.844769 
4654.312425  	92.918256 
4655.276849  	93.008606 
4656.241274  	93.021638 
4657.205698  	92.988838 
4658.170122  	92.876551 
4659.134547  	92.827048 
4660.098971  	92.826797 
4661.063396  	92.860145 
4662.027820  	92.911898 
4662.992245  	92.886944 
4663.956669  	92.919125 
4664.921094  	92.952666 
4665.885518  	92.930249 
4666.849943  	92.927321 
4667.814367  	92.876906 
4668.778791  	92.897851 
4669.743216  	92.970113 
4670.707640  	92.916806 
4671.672065  	92.901334 
4672.636489  	92.889033 
4673.600914  	92.842135 
4674.565338  	92.885714 
4675.529763  	92.998941 
4676.494187  	93.067882 
4677.458612  	93.062552 
4678.423036  	93.009603 
4679.387461  	93.045215 
4680.351885  	93.014854 
4681.316309  	92.914746 
4682.280734  	92.883315 
4683.245158  	92.921703 
4684.209583  	92.920190 
4685.174007  	92.912325 
4686.138432  	92.936652 
4687.102856  	92.956644 
4688.067281  	92.934765 
4689.031705  	92.844894 
4689.996130  	92.876432 
4690.960554  	92.962234 
4691.924978  	92.958954 
4692.889403  	92.960901 
4693.853827  	92.991795 
4694.818252  	92.978100 
4695.782676  	92.982150 
4696.747101  	92.939664 
4697.711525  	92.956602 
4698.675950  	92.977693 
4699.640374  	92.907905 