##TITLE=No Description
##DATA TYPE=INFRARED SPECTRUM
##XUNITS=1/CM
##YUNITS=%T
400.236149  	108.062616 
401.200574  	93.604367 
402.164998  	78.562508 
403.129423  	84.634021 
404.093847  	91.745829 
405.058272  	78.076806 
406.022696  	81.700698 
406.987120  	83.445008 
407.951545  	92.415237 
408.915969  	92.556564 
409.880394  	93.146661 
410.844818  	96.831449 
411.809243  	97.880470 
412.773667  	93.368758 
413.738092  	83.360327 
414.702516  	71.600364 
415.666941  	74.622252 
416.631365  	85.546063 
417.595789  	91.099182 
418.560214  	85.507248 
419.524638  	78.915609 
420.489063  	80.455468 
421.453487  	81.702141 
422.417912  	81.599528 
423.382336  	84.063419 
424.346761  	84.259086 
425.311185  	78.763796 
426.275610  	79.950691 
427.240034  	83.191423 
428.204458  	82.669854 
429.168883  	79.523302 
430.133307  	77.672639 
431.097732  	76.276699 
432.062156  	75.843436 
433.026581  	75.312228 
433.991005  	76.650014 
434.955430  	77.978344 
435.919854  	77.458834 
436.884279  	77.269855 
437.848703  	78.241542 
438.813127  	79.735959 
439.777552  	79.366598 
440.741976  	78.971407 
441.706401  	80.711558 
442.670825  	82.659284 
443.635250  	80.868057 
444.599674  	81.880899 
445.564099  	83.046820 
446.528523  	83.358636 
447.492948  	85.200867 
448.457372  	86.151729 
449.421796  	84.415159 
450.386221  	82.461570 
451.350645  	83.434001 
452.315070  	83.753867 
453.279494  	83.397156 
454.243919  	83.985316 
455.208343  	83.538118 
456.172768  	82.669548 
457.137192  	82.522975 
458.101617  	83.586804 
459.066041  	83.955774 
460.030466  	83.296037 
460.994890  	82.347929 
461.959314  	82.003006 
462.923739  	82.736084 
463.888163  	82.891012 
464.852588  	82.794152 
465.817012  	83.074352 
466.781437  	83.483215 
467.745861  	82.404340 
468.710286  	81.268724 
469.674710  	80.822295 
470.639135  	80.612609 
471.603559  	80.908499 
472.567983  	81.101001 
473.532408  	82.216224 
474.496832  	82.486218 
475.461257  	82.154296 
476.425681  	81.345987 
477.390106  	81.871805 
478.354530  	82.635702 
479.318955  	82.306958 
480.283379  	81.797500 
481.247804  	81.875568 
482.212228  	81.941129 
483.176652  	82.420680 
484.141077  	82.180169 
485.105501  	81.671236 
486.069926  	81.094093 
487.034350  	81.942883 
487.998775  	82.178424 
488.963199  	82.061791 
489.927624  	82.145415 
490.892048  	81.272277 
491.856473  	80.340382 
492.820897  	81.097369 
493.785321  	81.071295 
494.749746  	80.190253 
495.714170  	80.061096 
496.678595  	79.852364 
497.643019  	79.635123 
498.607444  	79.353511 
499.571868  	79.000985 
500.536293  	78.587426 
501.500717  	77.647173 
502.465142  	77.416043 
503.429566  	77.741079 
504.393990  	77.863243 
505.358415  	78.032446 
506.322839  	77.528029 
507.287264  	77.938798 
508.251688  	79.662322 
509.216113  	80.726386 
510.180537  	80.780971 
511.144962  	81.565453 
512.109386  	82.518224 
513.073811  	82.567985 
514.038235  	82.422204 
515.002660  	82.448758 
515.967084  	82.301309 
516.931508  	81.879768 
517.895933  	81.983473 
518.860357  	82.196687 
519.824782  	81.729471 
520.789206  	81.993660 
521.753631  	82.499210 
522.718055  	82.715705 
523.682480  	82.571998 
524.646904  	82.549325 
525.611329  	82.107336 
526.575753  	81.971474 
527.540177  	82.609769 
528.504602  	83.005930 
529.469026  	83.073167 
530.433451  	83.155798 
531.397875  	83.440739 
532.362300  	83.495408 
533.326724  	83.529285 
534.291149  	83.353332 
535.255573  	83.448077 
536.219998  	83.658291 
537.184422  	83.728629 
538.148846  	83.421498 
539.113271  	83.575187 
540.077695  	83.615260 
541.042120  	84.070815 
542.006544  	84.229292 
542.970969  	84.053605 
543.935393  	84.089999 
544.899818  	84.072446 
545.864242  	83.609787 
546.828667  	83.525744 
547.793091  	83.349176 
548.757515  	83.602675 
549.721940  	84.075688 
550.686364  	84.177182 
551.650789  	84.402398 
552.615213  	84.201701 
553.579638  	84.281159 
554.544062  	84.507225 
555.508487  	84.494191 
556.472911  	84.373702 
557.437336  	84.296271 
558.401760  	84.368101 
559.366184  	84.538356 
560.330609  	84.507837 
561.295033  	84.290559 
562.259458  	84.176497 
563.223882  	83.832473 
564.188307  	83.613697 
565.152731  	83.963955 
566.117156  	84.232354 
567.081580  	83.783519 
568.046005  	83.537049 
569.010429  	83.525413 
569.974853  	83.752883 
570.939278  	83.767099 
571.903702  	83.699014 
572.868127  	83.679005 
573.832551  	83.631884 
574.796976  	83.583579 
575.761400  	83.074240 
576.725825  	83.281645 
577.690249  	83.646355 
578.654674  	83.847753 
579.619098  	83.686109 
580.583523  	83.127395 
581.547947  	83.318772 
582.512371  	83.608915 
583.476796  	83.605152 
584.441220  	83.343367 
585.405645  	83.328619 
586.370069  	83.833344 
587.334494  	83.936086 
588.298918  	83.804871 
589.263343  	83.680293 
590.227767  	83.581055 
591.192192  	83.188493 
592.156616  	82.820438 
593.121040  	83.211830 
594.085465  	83.425642 
595.049889  	83.468242 
596.014314  	83.359766 
596.978738  	83.306761 
597.943163  	83.331412 
598.907587  	83.415981 
599.872012  	83.051737 
600.836436  	83.037629 
601.800861  	83.248921 
602.765285  	83.154465 
603.729709  	83.115052 
604.694134  	83.360869 
605.658558  	83.352708 
606.622983  	83.237185 
607.587407  	83.044724 
608.551832  	82.976943 
609.516256  	82.973183 
610.480681  	82.773772 
611.445105  	82.627176 
612.409530  	82.843620 
613.373954  	83.103079 
614.338378  	82.999792 
615.302803  	82.657187 
616.267227  	82.482163 
617.231652  	82.653264 
618.196076  	82.636729 
619.160501  	82.670525 
620.124925  	82.484738 
621.089350  	82.285394 
622.053774  	82.218188 
623.018199  	82.412653 
623.982623  	82.193965 
624.947047  	81.991848 
625.911472  	81.783940 
626.875896  	81.893766 
627.840321  	81.745892 
628.804745  	81.641390 
629.769170  	81.288904 
630.733594  	80.819552 
631.698019  	80.697566 
632.662443  	80.879076 
633.626868  	81.221613 
634.591292  	81.565790 
635.555717  	81.482587 
636.520141  	81.767191 
637.484565  	82.024509 
638.448990  	82.038440 
639.413414  	81.800967 
640.377839  	81.721622 
641.342263  	81.588582 
642.306688  	81.396496 
643.271112  	81.410540 
644.235537  	81.400453 
645.199961  	81.369169 
646.164386  	81.501556 
647.128810  	81.469937 
648.093234  	81.213053 
649.057659  	81.043502 
650.022083  	81.060932 
650.986508  	81.126224 
651.950932  	81.053691 
652.915357  	80.906806 
653.879781  	80.830113 
654.844206  	80.759157 
655.808630  	80.656319 
656.773055  	80.527065 
657.737479  	80.463299 
658.701903  	80.348033 
659.666328  	80.213085 
660.630752  	80.225125 
661.595177  	80.212139 
662.559601  	80.041089 
663.524026  	79.854151 
664.488450  	79.776920 
665.452875  	79.594128 
666.417299  	79.612283 
667.381724  	79.988680 
668.346148  	79.740707 
669.310572  	78.899392 
670.274997  	78.792538 
671.239421  	78.890270 
672.203846  	78.868314 
673.168270  	78.566491 
674.132695  	78.236982 
675.097119  	78.062087 
676.061544  	77.737057 
677.025968  	77.479166 
677.990393  	77.264155 
678.954817  	77.145522 
679.919241  	77.038408 
680.883666  	76.923199 
681.848090  	76.879870 
682.812515  	76.842798 
683.776939  	76.600037 
684.741364  	76.443897 
685.705788  	76.269344 
686.670213  	76.180193 
687.634637  	75.887852 
688.599062  	75.528565 
689.563486  	75.207247 
690.527910  	74.905015 
691.492335  	74.532374 
692.456759  	74.223342 
693.421184  	73.743083 
694.385608  	73.256652 
695.350033  	72.680329 
696.314457  	72.038320 
697.278882  	71.281876 
698.243306  	70.422871 
699.207731  	69.514300 
700.172155  	68.750665 
701.136580  	68.001054 
702.101004  	67.357269 
703.065428  	66.792225 
704.029853  	66.185912 
704.994277  	65.429562 
705.958702  	64.597428 
706.923126  	63.799757 
707.887551  	63.040874 
708.851975  	62.199067 
709.816400  	61.117413 
710.780824  	59.930283 
711.745249  	58.725480 
712.709673  	57.484373 
713.674097  	56.132685 
714.638522  	54.700494 
715.602946  	53.150752 
716.567371  	51.364838 
717.531795  	49.687001 
718.496220  	48.143024 
719.460644  	46.737113 
720.425069  	45.486918 
721.389493  	44.561492 
722.353918  	43.982006 
723.318342  	43.917014 
724.282766  	44.685711 
725.247191  	46.437926 
726.211615  	48.892422 
727.176040  	51.602340 
728.140464  	54.323469 
729.104889  	57.060673 
730.069313  	59.847252 
731.033738  	62.712064 
731.998162  	65.507088 
732.962587  	68.341325 
733.927011  	71.135825 
734.891435  	73.842364 
735.855860  	76.530124 
736.820284  	79.138078 
737.784709  	81.504259 
738.749133  	83.539559 
739.713558  	85.177714 
740.677982  	86.458885 
741.642407  	87.432021 
742.606831  	88.159825 
743.571256  	88.577266 
744.535680  	88.728725 
745.500104  	88.852848 
746.464529  	88.941644 
747.428953  	88.922773 
748.393378  	88.921841 
749.357802  	88.805439 
750.322227  	88.655347 
751.286651  	88.483001 
752.251076  	88.356602 
753.215500  	88.342856 
754.179925  	88.269596 
755.144349  	88.152887 
756.108774  	88.058515 
757.073198  	87.888928 
758.037622  	87.685015 
759.002047  	87.473103 
759.966471  	87.364434 
760.930896  	87.245086 
761.895320  	87.176893 
762.859745  	87.072980 
763.824169  	86.910418 
764.788594  	86.726993 
765.753018  	86.572148 
766.717443  	86.403866 
767.681867  	86.249437 
768.646291  	86.085193 
769.610716  	85.927664 
770.575140  	85.732865 
771.539565  	85.609815 
772.503989  	85.436043 
773.468414  	85.303203 
774.432838  	85.118277 
775.397263  	84.955448 
776.361687  	84.735390 
777.326112  	84.608705 
778.290536  	84.533312 
779.254960  	84.505957 
780.219385  	84.299911 
781.183809  	84.253538 
782.148234  	83.946363 
783.112658  	83.881109 
784.077083  	83.580925 
785.041507  	83.203078 
786.005932  	83.033930 
786.970356  	82.638871 
787.934781  	82.214358 
788.899205  	81.998206 
789.863629  	81.762059 
790.828054  	81.320517 
791.792478  	81.006404 
792.756903  	80.949105 
793.721327  	81.137020 
794.685752  	81.468446 
795.650176  	82.022398 
796.614601  	82.662503 
797.579025  	83.128018 
798.543450  	83.153196 
799.507874  	83.176036 
800.472298  	83.276981 
801.436723  	83.237719 
802.401147  	83.118764 
803.365572  	83.034277 
804.329996  	82.985489 
805.294421  	82.995165 
806.258845  	82.890231 
807.223270  	82.823105 
808.187694  	82.797125 
809.152119  	82.806484 
810.116543  	82.769159 
811.080967  	82.686756 
812.045392  	82.665105 
813.009816  	82.650847 
813.974241  	82.619804 
814.938665  	82.623909 
815.903090  	82.604781 
816.867514  	82.540265 
817.831939  	82.499637 
818.796363  	82.541075 
819.760788  	82.461167 
820.725212  	82.358830 
821.689637  	82.249097 
822.654061  	82.122076 
823.618485  	81.978398 
824.582910  	81.836495 
825.547334  	81.616338 
826.511759  	81.443747 
827.476183  	81.320037 
828.440608  	81.173763 
829.405032  	80.937012 
830.369457  	80.733862 
831.333881  	80.619582 
832.298306  	80.429826 
833.262730  	80.110073 
834.227154  	79.866652 
835.191579  	79.640590 
836.156003  	79.357798 
837.120428  	79.002807 
838.084852  	78.625603 
839.049277  	78.378194 
840.013701  	78.086182 
840.978126  	77.707925 
841.942550  	77.438732 
842.906975  	77.103439 
843.871399  	76.721622 
844.835823  	76.396226 
845.800248  	76.216943 
846.764672  	76.231256 
847.729097  	76.345057 
848.693521  	76.490650 
849.657946  	76.899444 
850.622370  	77.422874 
851.586795  	77.767744 
852.551219  	77.915777 
853.515644  	78.109041 
854.480068  	78.345878 
855.444492  	78.482674 
856.408917  	78.555434 
857.373341  	78.671594 
858.337766  	78.806653 
859.302190  	78.860379 
860.266615  	78.868189 
861.231039  	78.811070 
862.195464  	78.671794 
863.159888  	78.378936 
864.124313  	77.994269 
865.088737  	77.510126 
866.053161  	76.869165 
867.017586  	75.976910 
867.982010  	74.787935 
868.946435  	73.344616 
869.910859  	71.503333 
870.875284  	69.557712 
871.839708  	68.645646 
872.804133  	69.553710 
873.768557  	71.610124 
874.732982  	73.699634 
875.697406  	75.391768 
876.661831  	76.648304 
877.626255  	77.650029 
878.590679  	78.550798 
879.555104  	79.359125 
880.519528  	80.035364 
881.483953  	80.636979 
882.448377  	81.166947 
883.412802  	81.637176 
884.377226  	82.008192 
885.341651  	82.241613 
886.306075  	82.409395 
887.270500  	82.515797 
888.234924  	82.602239 
889.199348  	82.593786 
890.163773  	82.467489 
891.128197  	82.432346 
892.092622  	82.448055 
893.057046  	82.346875 
894.021471  	82.227019 
894.985895  	82.155945 
895.950320  	82.022875 
896.914744  	81.912486 
897.879169  	81.902867 
898.843593  	81.924351 
899.808017  	81.982118 
900.772442  	82.012045 
901.736866  	82.038732 
902.701291  	82.209686 
903.665715  	82.343635 
904.630140  	82.431818 
905.594564  	82.531831 
906.558989  	82.674590 
907.523413  	82.794381 
908.487838  	82.847275 
909.452262  	82.974090 
910.416686  	83.145320 
911.381111  	83.158001 
912.345535  	83.076600 
913.309960  	83.031458 
914.274384  	83.033428 
915.238809  	83.030770 
916.203233  	82.994485 
917.167658  	83.004182 
918.132082  	82.986032 
919.096507  	82.918355 
920.060931  	82.878840 
921.025355  	82.850859 
921.989780  	82.763287 
922.954204  	82.640151 
923.918629  	82.570704 
924.883053  	82.508694 
925.847478  	82.418142 
926.811902  	82.320964 
927.776327  	82.240502 
928.740751  	82.157889 
929.705176  	82.061811 
930.669600  	81.951211 
931.634024  	81.873341 
932.598449  	81.830641 
933.562873  	81.724591 
934.527298  	81.600374 
935.491722  	81.458072 
936.456147  	81.346676 
937.420571  	81.294998 
938.384996  	81.191600 
939.349420  	81.082484 
940.313845  	80.994906 
941.278269  	80.873298 
942.242694  	80.759557 
943.207118  	80.617727 
944.171542  	80.479234 
945.135967  	80.359549 
946.100391  	80.240744 
947.064816  	80.102735 
948.029240  	79.923614 
948.993665  	79.741686 
949.958089  	79.585191 
950.922514  	79.424803 
951.886938  	79.295469 
952.851363  	79.148598 
953.815787  	78.942041 
954.780211  	78.735667 
955.744636  	78.542479 
956.709060  	78.326599 
957.673485  	78.098207 
958.637909  	77.797060 
959.602334  	77.482521 
960.566758  	77.251183 
961.531183  	76.979655 
962.495607  	76.668194 
963.460032  	76.436917 
964.424456  	76.204558 
965.388880  	75.887147 
966.353305  	75.633150 
967.317729  	75.489518 
968.282154  	75.326731 
969.246578  	75.191189 
970.211003  	75.186014 
971.175427  	75.283535 
972.139852  	75.457659 
973.104276  	75.718947 
974.068701  	76.037820 
975.033125  	76.404626 
975.997549  	76.790158 
976.961974  	77.126768 
977.926398  	77.410969 
978.890823  	77.691767 
979.855247  	77.908860 
980.819672  	78.019291 
981.784096  	78.097874 
982.748521  	78.187015 
983.712945  	78.201133 
984.677370  	78.113851 
985.641794  	78.037720 
986.606218  	77.955910 
987.570643  	77.834348 
988.535067  	77.736425 
989.499492  	77.693857 
990.463916  	77.651813 
991.428341  	77.560599 
992.392765  	77.415739 
993.357190  	77.265493 
994.321614  	77.139484 
995.286039  	76.973558 
996.250463  	76.779874 
997.214888  	76.565819 
998.179312  	76.338547 
999.143736  	76.063614 
1000.108161  	75.767495 
1001.072585  	75.495776 
1002.037010  	75.201736 
1003.001434  	74.816723 
1003.965859  	74.376992 
1004.930283  	73.919572 
1005.894708  	73.415178 
1006.859132  	72.804497 
1007.823557  	72.096844 
1008.787981  	71.324843 
1009.752405  	70.462081 
1010.716830  	69.396250 
1011.681254  	68.169780 
1012.645679  	66.800667 
1013.610103  	65.285895 
1014.574528  	63.757164 
1015.538952  	62.581976 
1016.503377  	62.088555 
1017.467801  	62.299910 
1018.432226  	63.183334 
1019.396650  	64.601491 
1020.361074  	66.236513 
1021.325499  	67.853118 
1022.289923  	69.357019 
1023.254348  	70.930003 
1024.218772  	72.698262 
1025.183197  	74.538345 
1026.147621  	76.149431 
1027.112046  	77.291604 
1028.076470  	77.857733 
1029.040895  	77.948504 
1030.005319  	77.774626 
1030.969743  	77.521052 
1031.934168  	77.246601 
1032.898592  	76.933702 
1033.863017  	76.584653 
1034.827441  	76.207686 
1035.791866  	75.839397 
1036.756290  	75.521404 
1037.720715  	75.234548 
1038.685139  	74.949396 
1039.649564  	74.715914 
1040.613988  	74.515967 
1041.578412  	74.298446 
1042.542837  	74.107293 
1043.507261  	74.002642 
1044.471686  	73.919845 
1045.436110  	73.850266 
1046.400535  	73.816083 
1047.364959  	73.800034 
1048.329384  	73.754458 
1049.293808  	73.714350 
1050.258233  	73.694293 
1051.222657  	73.669170 
1052.187081  	73.614030 
1053.151506  	73.498445 
1054.115930  	73.396732 
1055.080355  	73.233919 
1056.044779  	73.048872 
1057.009204  	72.812693 
1057.973628  	72.509742 
1058.938053  	72.195996 
1059.902477  	71.844534 
1060.866902  	71.418070 
1061.831326  	71.024898 
1062.795751  	70.639564 
1063.760175  	70.202568 
1064.724599  	69.663450 
1065.689024  	69.146941 
1066.653448  	68.672574 
1067.617873  	68.158235 
1068.582297  	67.593391 
1069.546722  	66.981077 
1070.511146  	66.340032 
1071.475571  	65.690368 
1072.439995  	64.965133 
1073.404420  	64.219654 
1074.368844  	63.473119 
1075.333268  	62.663287 
1076.297693  	61.814391 
1077.262117  	60.942319 
1078.226542  	60.156953 
1079.190966  	59.396673 
1080.155391  	58.570742 
1081.119815  	57.857325 
1082.084240  	57.302627 
1083.048664  	56.845999 
1084.013089  	56.431994 
1084.977513  	56.048891 
1085.941937  	55.705989 
1086.906362  	55.406450 
1087.870786  	55.105243 
1088.835211  	54.813688 
1089.799635  	54.590906 
1090.764060  	54.350773 
1091.728484  	54.153990 
1092.692909  	54.045343 
1093.657333  	53.953420 
1094.621758  	53.867426 
1095.586182  	53.879151 
1096.550606  	54.005689 
1097.515031  	54.236356 
1098.479455  	54.550451 
1099.443880  	54.953037 
1100.408304  	55.468705 
1101.372729  	56.084799 
1102.337153  	56.734154 
1103.301578  	57.405059 
1104.266002  	58.148768 
1105.230427  	58.873157 
1106.194851  	59.615558 
1107.159275  	60.407246 
1108.123700  	61.166079 
1109.088124  	61.814414 
1110.052549  	62.295776 
1111.016973  	62.657461 
1111.981398  	62.916050 
1112.945822  	63.048614 
1113.910247  	63.061965 
1114.874671  	63.010633 
1115.839096  	62.897141 
1116.803520  	62.780204 
1117.767945  	62.710111 
1118.732369  	62.806803 
1119.696793  	63.054627 
1120.661218  	63.378876 
1121.625642  	63.765157 
1122.590067  	64.278236 
1123.554491  	64.851020 
1124.518916  	65.459617 
1125.483340  	66.198611 
1126.447765  	67.019981 
1127.412189  	67.858051 
1128.376614  	68.747509 
1129.341038  	69.732510 
1130.305462  	70.777013 
1131.269887  	71.854243 
1132.234311  	72.916748 
1133.198736  	73.989288 
1134.163160  	75.052460 
1135.127585  	76.078363 
1136.092009  	77.052589 
1137.056434  	78.008610 
1138.020858  	78.949417 
1138.985283  	79.780752 
1139.949707  	80.509101 
1140.914131  	81.222294 
1141.878556  	81.866180 
1142.842980  	82.400372 
1143.807405  	82.926925 
1144.771829  	83.442672 
1145.736254  	83.892650 
1146.700678  	84.255149 
1147.665103  	84.571217 
1148.629527  	84.904329 
1149.593952  	85.206961 
1150.558376  	85.447148 
1151.522800  	85.625271 
1152.487225  	85.799303 
1153.451649  	85.950165 
1154.416074  	86.083025 
1155.380498  	86.183957 
1156.344923  	86.256193 
1157.309347  	86.289372 
1158.273772  	86.303100 
1159.238196  	86.262815 
1160.202621  	86.278352 
1161.167045  	86.294536 
1162.131469  	86.221911 
1163.095894  	86.130679 
1164.060318  	86.037306 
1165.024743  	85.903447 
1165.989167  	85.707003 
1166.953592  	85.467396 
1167.918016  	85.199304 
1168.882441  	84.867157 
1169.846865  	84.458766 
1170.811290  	84.092832 
1171.775714  	83.760547 
1172.740138  	83.489575 
1173.704563  	83.267235 
1174.668987  	83.057712 
1175.633412  	83.028922 
1176.597836  	83.074547 
1177.562261  	83.078949 
1178.526685  	83.108029 
1179.491110  	83.150081 
1180.455534  	83.178427 
1181.419959  	83.214164 
1182.384383  	83.211125 
1183.348808  	83.144851 
1184.313232  	83.074621 
1185.277656  	82.928635 
1186.242081  	82.688492 
1187.206505  	82.455128 
1188.170930  	82.256640 
1189.135354  	81.984249 
1190.099779  	81.645446 
1191.064203  	81.332277 
1192.028628  	81.015511 
1192.993052  	80.624644 
1193.957477  	80.192650 
1194.921901  	79.753304 
1195.886325  	79.327197 
1196.850750  	78.870040 
1197.815174  	78.411565 
1198.779599  	77.999453 
1199.744023  	77.582612 
1200.708448  	77.095661 
1201.672872  	76.601459 
1202.637297  	76.160563 
1203.601721  	75.740130 
1204.566146  	75.277065 
1205.530570  	74.778546 
1206.494994  	74.316646 
1207.459419  	73.884400 
1208.423843  	73.401155 
1209.388268  	72.873014 
1210.352692  	72.365625 
1211.317117  	71.826980 
1212.281541  	71.258774 
1213.245966  	70.696953 
1214.210390  	70.132170 
1215.174815  	69.515255 
1216.139239  	68.845111 
1217.103663  	68.153131 
1218.068088  	67.477560 
1219.032512  	66.764841 
1219.996937  	66.079587 
1220.961361  	65.429582 
1221.925786  	64.798722 
1222.890210  	64.220236 
1223.854635  	63.642398 
1224.819059  	63.017484 
1225.783484  	62.437061 
1226.747908  	61.821888 
1227.712332  	61.078687 
1228.676757  	60.288533 
1229.641181  	59.482779 
1230.605606  	58.627217 
1231.570030  	57.711208 
1232.534455  	56.821636 
1233.498879  	55.961301 
1234.463304  	55.115750 
1235.427728  	54.322604 
1236.392153  	53.654013 
1237.356577  	53.103854 
1238.321002  	52.644988 
1239.285426  	52.296832 
1240.249850  	52.133649 
1241.214275  	52.095459 
1242.178699  	52.129274 
1243.143124  	52.280708 
1244.107548  	52.550059 
1245.071973  	52.926932 
1246.036397  	53.360896 
1247.000822  	53.829849 
1247.965246  	54.317940 
1248.929671  	54.841218 
1249.894095  	55.358003 
1250.858519  	55.864404 
1251.822944  	56.365403 
1252.787368  	56.807803 
1253.751793  	57.197552 
1254.716217  	57.544527 
1255.680642  	57.874884 
1256.645066  	58.148684 
1257.609491  	58.389829 
1258.573915  	58.657084 
1259.538340  	58.903743 
1260.502764  	59.162415 
1261.467188  	59.674656 
1262.431613  	60.248629 
1263.396037  	60.814057 
1264.360462  	61.431938 
1265.324886  	62.157424 
1266.289311  	62.919304 
1267.253735  	63.710915 
1268.218160  	64.540706 
1269.182584  	65.374812 
1270.147009  	66.171255 
1271.111433  	66.995536 
1272.075857  	67.777326 
1273.040282  	68.651411 
1274.004706  	69.417607 
1274.969131  	70.077507 
1275.933555  	70.680987 
1276.897980  	71.269868 
1277.862404  	71.836873 
1278.826829  	72.390562 
1279.791253  	72.879130 
1280.755678  	73.397225 
1281.720102  	73.951525 
1282.684526  	74.490259 
1283.648951  	74.975600 
1284.613375  	75.436017 
1285.577800  	75.938352 
1286.542224  	76.385187 
1287.506649  	76.720541 
1288.471073  	77.232940 
1289.435498  	77.921650 
1290.399922  	78.502336 
1291.364347  	79.100240 
1292.328771  	79.750655 
1293.293195  	80.364092 
1294.257620  	80.984325 
1295.222044  	81.588988 
1296.186469  	82.094521 
1297.150893  	82.664799 
1298.115318  	83.408965 
1299.079742  	84.022870 
1300.044167  	84.588995 
1301.008591  	85.123904 
1301.973016  	85.584172 
1302.937440  	85.945856 
1303.901865  	86.256417 
1304.866289  	86.567367 
1305.830713  	86.857168 
1306.795138  	87.075670 
1307.759562  	87.231372 
1308.723987  	87.474271 
1309.688411  	87.882470 
1310.652836  	88.129468 
1311.617260  	88.181507 
1312.581685  	87.944786 
1313.546109  	88.143961 
1314.510534  	88.449797 
1315.474958  	88.764220 
1316.439382  	88.778512 
1317.403807  	88.725699 
1318.368231  	88.754997 
1319.332656  	88.648850 
1320.297080  	89.046286 
1321.261505  	89.376367 
1322.225929  	89.577112 
1323.190354  	89.581171 
1324.154778  	89.619749 
1325.119203  	89.617545 
1326.083627  	89.482994 
1327.048051  	89.265951 
1328.012476  	88.978493 
1328.976900  	88.536615 
1329.941325  	87.863620 
1330.905749  	87.110138 
1331.870174  	86.181088 
1332.834598  	84.962844 
1333.799023  	83.602377 
1334.763447  	82.197035 
1335.727872  	80.633269 
1336.692296  	78.952434 
1337.656720  	77.948107 
1338.621145  	76.782891 
1339.585569  	75.946066 
1340.549994  	76.609009 
1341.514418  	78.626254 
1342.478843  	80.281695 
1343.443267  	81.627367 
1344.407692  	83.054293 
1345.372116  	84.457058 
1346.336541  	85.731136 
1347.300965  	86.791807 
1348.265389  	87.593678 
1349.229814  	88.119560 
1350.194238  	88.752542 
1351.158663  	89.306653 
1352.123087  	89.593721 
1353.087512  	89.803671 
1354.051936  	89.797749 
1355.016361  	89.637743 
1355.980785  	89.967151 
1356.945210  	90.099944 
1357.909634  	89.927744 
1358.874059  	89.954961 
1359.838483  	89.917134 
1360.802907  	89.130117 
1361.767332  	88.483236 
1362.731756  	87.416110 
1363.696181  	87.368379 
1364.660605  	88.700640 
1365.625030  	88.846948 
1366.589454  	88.662640 
1367.553879  	88.221291 
1368.518303  	87.502029 
1369.482728  	87.475396 
1370.447152  	87.923778 
1371.411576  	87.918610 
1372.376001  	87.717609 
1373.340425  	86.917539 
1374.304850  	86.298249 
1375.269274  	86.838130 
1376.233699  	87.810461 
1377.198123  	87.987964 
1378.162548  	87.683412 
1379.126972  	87.774200 
1380.091397  	87.962857 
1381.055821  	88.166519 
1382.020245  	88.188942 
1382.984670  	88.194921 
1383.949094  	88.208596 
1384.913519  	88.169945 
1385.877943  	87.678159 
1386.842368  	86.511033 
1387.806792  	86.318942 
1388.771217  	87.553628 
1389.735641  	88.014363 
1390.700066  	87.897820 
1391.664490  	87.901435 
1392.628914  	87.865477 
1393.593339  	87.090430 
1394.557763  	85.565457 
1395.522188  	85.233070 
1396.486612  	85.841115 
1397.451037  	85.594158 
1398.415461  	84.587419 
1399.379886  	84.051241 
1400.344310  	84.500544 
1401.308735  	84.520221 
1402.273159  	83.823485 
1403.237583  	82.912542 
1404.202008  	81.390848 
1405.166432  	79.610366 
1406.130857  	79.256755 
1407.095281  	79.068760 
1408.059706  	78.602895 
1409.024130  	78.529134 
1409.988555  	78.840720 
1410.952979  	79.728971 
1411.917404  	80.948753 
1412.881828  	82.877550 
1413.846252  	84.638144 
1414.810677  	85.986489 
1415.775101  	86.689950 
1416.739526  	86.926938 
1417.703950  	87.043778 
1418.668375  	86.879245 
1419.632799  	86.853924 
1420.597224  	89.271887 
1421.561648  	90.198051 
1422.526073  	90.348791 
1423.490497  	89.328884 
1424.454922  	89.022093 
1425.419346  	90.313859 
1426.383770  	90.734473 
1427.348195  	90.607343 
1428.312619  	90.243947 
1429.277044  	89.639304 
1430.241468  	89.158001 
1431.205893  	89.640030 
1432.170317  	89.561002 
1433.134742  	89.174466 
1434.099166  	89.295556 
1435.063591  	88.975649 
1436.028015  	87.345022 
1436.992439  	86.264460 
1437.956864  	88.033175 
1438.921288  	88.786745 
1439.885713  	88.897669 
1440.850137  	88.884272 
1441.814562  	88.843229 
1442.778986  	88.841189 
1443.743411  	88.762286 
1444.707835  	88.632221 
1445.672260  	88.492109 
1446.636684  	88.206916 
1447.601108  	87.200946 
1448.565533  	87.100072 
1449.529957  	88.003497 
1450.494382  	88.149940 
1451.458806  	87.606629 
1452.423231  	87.151144 
1453.387655  	87.598968 
1454.352080  	87.130760 
1455.316504  	85.810541 
1456.280929  	84.750934 
1457.245353  	84.039927 
1458.209777  	84.353358 
1459.174202  	85.464026 
1460.138626  	87.190775 
1461.103051  	88.172899 
1462.067475  	88.452944 
1463.031900  	88.500962 
1463.996324  	87.956444 
1464.960749  	86.976813 
1465.925173  	87.655296 
1466.889598  	88.221155 
1467.854022  	88.199410 
1468.818446  	88.158568 
1469.782871  	87.816215 
1470.747295  	86.961728 
1471.711720  	85.097257 
1472.676144  	84.017946 
1473.640569  	84.900017 
1474.604993  	86.700710 
1475.569418  	86.873622 
1476.533842  	86.476853 
1477.498267  	88.100901 
1478.462691  	89.014322 
1479.427116  	89.246815 
1480.391540  	89.072616 
1481.355964  	88.609465 
1482.320389  	89.291729 
1483.284813  	89.933247 
1484.249238  	90.142468 
1485.213662  	90.016195 
1486.178087  	89.400338 
1487.142511  	88.772609 
1488.106936  	88.922905 
1489.071360  	87.823862 
1490.035785  	86.283165 
1491.000209  	87.900350 
1491.964633  	89.816462 
1492.929058  	90.571619 
1493.893482  	90.606789 
1494.857907  	90.161864 
1495.822331  	88.907973 
1496.786756  	88.308180 
1497.751180  	88.803338 
1498.715605  	88.064132 
1499.680029  	88.090162 
1500.644454  	88.226428 
1501.608878  	87.324864 
1502.573302  	86.779451 
1503.537727  	86.476575 
1504.502151  	85.500847 
1505.466576  	83.665127 
1506.431000  	80.491272 
1507.395425  	80.100375 
1508.359849  	82.885962 
1509.324274  	85.086471 
1510.288698  	86.788756 
1511.253123  	88.323972 
1512.217547  	88.317395 
1513.181971  	89.240409 
1514.146396  	89.670202 
1515.110820  	88.559088 
1516.075245  	87.335123 
1517.039669  	85.894933 
1518.004094  	87.898503 
1518.968518  	89.270065 
1519.932943  	88.127813 
1520.897367  	85.477311 
1521.861792  	85.896204 
1522.826216  	87.389427 
1523.790640  	88.533742 
1524.755065  	87.992458 
1525.719489  	87.514238 
1526.683914  	88.200711 
1527.648338  	87.769915 
1528.612763  	88.303843 
1529.577187  	89.552170 
1530.541612  	89.899561 
1531.506036  	88.974797 
1532.470461  	88.349848 
1533.434885  	87.360876 
1534.399309  	87.837066 
1535.363734  	88.877847 
1536.328158  	89.419245 
1537.292583  	89.544312 
1538.257007  	88.371732 
1539.221432  	85.544857 
1540.185856  	85.347803 
1541.150281  	86.695411 
1542.114705  	86.695710 
1543.079130  	86.883734 
1544.043554  	86.937015 
1545.007979  	86.466920 
1545.972403  	87.920937 
1546.936827  	89.624548 
1547.901252  	89.922152 
1548.865676  	89.252468 
1549.830101  	87.214880 
1550.794525  	87.842924 
1551.758950  	89.488633 
1552.723374  	89.509545 
1553.687799  	88.481526 
1554.652223  	87.451190 
1555.616648  	88.567524 
1556.581072  	88.672845 
1557.545496  	87.233990 
1558.509921  	83.221623 
1559.474345  	82.578537 
1560.438770  	85.775937 
1561.403194  	88.458416 
1562.367619  	89.304599 
1563.332043  	89.482340 
1564.296468  	88.997394 
1565.260892  	88.652928 
1566.225317  	89.291687 
1567.189741  	89.505880 
1568.154165  	88.980766 
1569.118590  	87.371463 
1570.083014  	87.112476 
1571.047439  	88.582667 
1572.011863  	88.882732 
1572.976288  	88.755800 
1573.940712  	88.584117 
1574.905137  	88.018818 
1575.869561  	86.653571 
1576.833986  	86.051589 
1577.798410  	87.067294 
1578.762834  	87.825782 
1579.727259  	88.260829 
1580.691683  	88.596106 
1581.656108  	88.801961 
1582.620532  	88.966879 
1583.584957  	89.143846 
1584.549381  	89.366957 
1585.513806  	89.517047 
1586.478230  	89.598764 
1587.442655  	89.636089 
1588.407079  	89.637435 
1589.371503  	89.481665 
1590.335928  	89.399837 
1591.300352  	89.446332 
1592.264777  	89.488948 
1593.229201  	89.480203 
1594.193626  	89.162294 
1595.158050  	89.058412 
1596.122475  	89.184652 
1597.086899  	89.277213 
1598.051324  	89.389736 
1599.015748  	89.326851 
1599.980173  	89.265971 
1600.944597  	89.004114 
1601.909021  	88.853096 
1602.873446  	88.604776 
1603.837870  	88.635288 
1604.802295  	88.876592 
1605.766719  	88.794149 
1606.731144  	88.360258 
1607.695568  	88.163847 
1608.659993  	88.127323 
1609.624417  	87.758036 
1610.588842  	88.040866 
1611.553266  	88.181236 
1612.517690  	88.058292 
1613.482115  	88.001969 
1614.446539  	87.932884 
1615.410964  	87.491481 
1616.375388  	86.371116 
1617.339813  	86.474433 
1618.304237  	87.541194 
1619.268662  	87.862162 
1620.233086  	87.889423 
1621.197511  	87.873380 
1622.161935  	87.398345 
1623.126359  	86.306771 
1624.090784  	86.573009 
1625.055208  	87.537050 
1626.019633  	87.672189 
1626.984057  	87.324856 
1627.948482  	86.785292 
1628.912906  	87.274224 
1629.877331  	87.585005 
1630.841755  	87.548287 
1631.806180  	87.473845 
1632.770604  	87.418547 
1633.735028  	87.027975 
1634.699453  	85.901925 
1635.663877  	84.164712 
1636.628302  	85.114151 
1637.592726  	85.314514 
1638.557151  	86.168369 
1639.521575  	86.655558 
1640.486000  	86.587459 
1641.450424  	86.590920 
1642.414849  	86.504006 
1643.379273  	86.524707 
1644.343697  	86.377338 
1645.308122  	85.422912 
1646.272546  	83.840700 
1647.236971  	83.191554 
1648.201395  	83.542843 
1649.165820  	85.050895 
1650.130244  	85.608922 
1651.094669  	85.253965 
1652.059093  	84.065519 
1653.023518  	80.735273 
1653.987942  	80.452363 
1654.952366  	82.950274 
1655.916791  	84.433530 
1656.881215  	84.717456 
1657.845640  	84.867114 
1658.810064  	84.968181 
1659.774489  	84.885831 
1660.738913  	84.387378 
1661.703338  	83.628802 
1662.667762  	82.777902 
1663.632187  	83.118131 
1664.596611  	83.494668 
1665.561036  	83.407015 
1666.525460  	83.203941 
1667.489884  	82.522618 
1668.454309  	80.930108 
1669.418733  	80.015610 
1670.383158  	80.862188 
1671.347582  	80.471220 
1672.312007  	80.604231 
1673.276431  	80.990881 
1674.240856  	80.424207 
1675.205280  	79.055561 
1676.169705  	79.288869 
1677.134129  	79.822681 
1678.098553  	79.628257 
1679.062978  	78.874582 
1680.027402  	77.220644 
1680.991827  	77.082090 
1681.956251  	77.553278 
1682.920676  	76.242552 
1683.885100  	72.588452 
1684.849525  	72.586250 
1685.813949  	75.754188 
1686.778374  	76.254040 
1687.742798  	75.506117 
1688.707222  	74.739885 
1689.671647  	74.582430 
1690.636071  	74.284399 
1691.600496  	74.273951 
1692.564920  	73.790207 
1693.529345  	72.915420 
1694.493769  	71.659707 
1695.458194  	69.615622 
1696.422618  	67.853226 
1697.387043  	67.771997 
1698.351467  	67.128417 
1699.315891  	65.755215 
1700.280316  	62.444528 
1701.244740  	62.279034 
1702.209165  	62.410819 
1703.173589  	61.518381 
1704.138014  	59.874608 
1705.102438  	58.320572 
1706.066863  	57.133709 
1707.031287  	55.873009 
1707.995712  	55.395776 
1708.960136  	54.707107 
1709.924560  	53.604858 
1710.888985  	53.034411 
1711.853409  	53.035026 
1712.817834  	52.747933 
1713.782258  	52.308975 
1714.746683  	52.106571 
1715.711107  	53.157680 
1716.675532  	53.800129 
1717.639956  	53.505811 
1718.604381  	55.242665 
1719.568805  	58.161336 
1720.533230  	59.836678 
1721.497654  	61.051880 
1722.462078  	62.150762 
1723.426503  	62.966665 
1724.390927  	64.370504 
1725.355352  	65.785220 
1726.319776  	66.980645 
1727.284201  	68.168117 
1728.248625  	69.323610 
1729.213050  	69.732979 
1730.177474  	70.048952 
1731.141899  	72.178147 
1732.106323  	73.290514 
1733.070747  	72.938382 
1734.035172  	72.212400 
1734.999596  	75.771143 
1735.964021  	78.595502 
1736.928445  	79.894932 
1737.892870  	80.984469 
1738.857294  	81.651725 
1739.821719  	82.184284 
1740.786143  	84.402677 
1741.750568  	85.768197 
1742.714992  	85.752723 
1743.679416  	85.791797 
1744.643841  	87.506679 
1745.608265  	88.712915 
1746.572690  	88.977069 
1747.537114  	89.011544 
1748.501539  	89.066418 
1749.465963  	89.668610 
1750.430388  	90.171583 
1751.394812  	89.505725 
1752.359237  	91.047175 
1753.323661  	92.369861 
1754.288085  	92.958110 
1755.252510  	93.070576 
1756.216934  	92.319871 
1757.181359  	91.627240 
1758.145783  	92.393568 
1759.110208  	92.914220 
1760.074632  	93.184825 
1761.039057  	92.505002 
1762.003481  	91.485894 
1762.967906  	92.589414 
1763.932330  	93.307597 
1764.896754  	93.473343 
1765.861179  	93.536417 
1766.825603  	93.268775 
1767.790028  	92.138451 
1768.754452  	91.923352 
1769.718877  	93.006480 
1770.683301  	92.617920 
1771.647726  	91.400180 
1772.612150  	90.975504 
1773.576575  	92.209478 
1774.540999  	92.816185 
1775.505423  	92.365993 
1776.469848  	92.703619 
1777.434272  	93.388527 
1778.398697  	93.156134 
1779.363121  	92.782683 
1780.327546  	92.269027 
1781.291970  	92.184951 
1782.256395  	92.971348 
1783.220819  	93.310152 
1784.185244  	92.881767 
1785.149668  	92.266713 
1786.114093  	92.898824 
1787.078517  	93.320647 
1788.042941  	93.292020 
1789.007366  	93.199839 
1789.971790  	92.763606 
1790.936215  	91.656433 
1791.900639  	91.189600 
1792.865064  	91.181880 
1793.829488  	92.264597 
1794.793913  	92.676561 
1795.758337  	91.937234 
1796.722762  	91.970927 
1797.687186  	92.814582 
1798.651610  	92.792467 
1799.616035  	92.142147 
1800.580459  	92.148597 
1801.544884  	91.879102 
1802.509308  	91.638810 
1803.473733  	92.482347 
1804.438157  	92.995648 
1805.402582  	92.995545 
1806.367006  	92.930142 
1807.331431  	92.576114 
1808.295855  	92.463573 
1809.260279  	92.808266 
1810.224704  	92.274388 
1811.189128  	91.875578 
1812.153553  	92.199793 
1813.117977  	92.587026 
1814.082402  	93.017821 
1815.046826  	93.081747 
1816.011251  	93.067228 
1816.975675  	92.752398 
1817.940100  	92.572768 
1818.904524  	92.915239 
1819.868948  	93.027227 
1820.833373  	92.953344 
1821.797797  	92.827688 
1822.762222  	92.575485 
1823.726646  	92.575837 
1824.691071  	91.895009 
1825.655495  	91.240579 
1826.619920  	92.395540 
1827.584344  	92.797270 
1828.548769  	92.251144 
1829.513193  	90.974206 
1830.477617  	91.064761 
1831.442042  	92.364498 
1832.406466  	92.738638 
1833.370891  	92.582394 
1834.335315  	92.813375 
1835.299740  	93.059394 
1836.264164  	92.846175 
1837.228589  	92.287128 
1838.193013  	92.496054 
1839.157438  	92.929207 
1840.121862  	93.024421 
1841.086287  	92.946557 
1842.050711  	92.499997 
1843.015135  	92.084054 
1843.979560  	91.313907 
1844.943984  	91.316760 
1845.908409  	92.172501 
1846.872833  	92.436592 
1847.837258  	91.992050 
1848.801682  	92.333932 
1849.766107  	92.991330 
1850.730531  	93.209219 
1851.694956  	93.249682 
1852.659380  	93.236710 
1853.623804  	93.262923 
1854.588229  	93.206658 
1855.552653  	93.183334 
1856.517078  	93.165041 
1857.481502  	93.130237 
1858.445927  	92.936692 
1859.410351  	92.891044 
1860.374776  	92.967973 
1861.339200  	92.850745 
1862.303625  	92.935966 
1863.268049  	93.104274 
1864.232473  	93.139340 
1865.196898  	93.113455 
1866.161322  	92.689109 
1867.125747  	92.188458 
1868.090171  	91.573435 
1869.054596  	91.140686 
1870.019020  	91.702570 
1870.983445  	92.495195 
1871.947869  	93.018287 
1872.912294  	93.297800 
1873.876718  	93.293817 
1874.841142  	93.219431 
1875.805567  	93.202874 
1876.769991  	93.195091 
1877.734416  	93.165746 
1878.698840  	93.085236 
1879.663265  	92.991886 
1880.627689  	93.095602 
1881.592114  	93.097501 
1882.556538  	93.111082 
1883.520963  	93.155621 
1884.485387  	93.036480 
1885.449811  	92.904742 
1886.414236  	93.093839 
1887.378660  	93.199197 
1888.343085  	92.967547 
1889.307509  	92.016693 
1890.271934  	91.978904 
1891.236358  	92.763781 
1892.200783  	92.934497 
1893.165207  	92.973122 
1894.129632  	92.877252 
1895.094056  	92.406152 
1896.058480  	92.551699 
1897.022905  	93.012316 
1897.987329  	93.039332 
1898.951754  	92.960113 
1899.916178  	92.906111 
1900.880603  	92.996733 
1901.845027  	92.964271 
1902.809452  	92.918937 
1903.773876  	92.872221 
1904.738301  	92.872271 
1905.702725  	92.858366 
1906.667150  	92.852749 
1907.631574  	92.584213 
1908.595998  	92.480724 
1909.560423  	92.344513 
1910.524847  	92.273784 
1911.489272  	92.733978 
1912.453696  	92.821994 
1913.418121  	92.868020 
1914.382545  	92.837280 
1915.346970  	92.850254 
1916.311394  	92.802641 
1917.275819  	92.319830 
1918.240243  	91.681796 
1919.204667  	92.372523 
1920.169092  	92.738594 
1921.133516  	92.548652 
1922.097941  	91.938505 
1923.062365  	91.350934 
1924.026790  	92.253719 
1924.991214  	92.976362 
1925.955639  	92.909457 
1926.920063  	92.872728 
1927.884488  	92.910022 
1928.848912  	92.957056 
1929.813336  	92.918520 
1930.777761  	92.894388 
1931.742185  	92.820656 
1932.706610  	92.805413 
1933.671034  	92.890055 
1934.635459  	92.941538 
1935.599883  	92.872348 
1936.564308  	92.875357 
1937.528732  	92.739910 
1938.493157  	92.756941 
1939.457581  	92.889053 
1940.422005  	92.810830 
1941.386430  	92.263339 
1942.350854  	91.158983 
1943.315279  	91.325861 
1944.279703  	92.308387 
1945.244128  	92.414950 
1946.208552  	92.404596 
1947.172977  	92.396431 
1948.137401  	92.499079 
1949.101826  	92.445192 
1950.066250  	92.702950 
1951.030674  	92.715069 
1951.995099  	92.494235 
1952.959523  	92.478847 
1953.923948  	92.316787 
1954.888372  	92.115648 
1955.852797  	92.228296 
1956.817221  	92.701055 
1957.781646  	92.966558 
1958.746070  	92.811627 
1959.710495  	92.662071 
1960.674919  	92.370689 
1961.639344  	92.226206 
1962.603768  	92.175653 
1963.568192  	92.394225 
1964.532617  	92.870832 
1965.497041  	93.270779 
1966.461466  	92.894974 
1967.425890  	92.419257 
1968.390315  	92.749973 
1969.354739  	92.864288 
1970.319164  	92.849874 
1971.283588  	93.041625 
1972.248013  	92.840413 
1973.212437  	92.854052 
1974.176861  	93.102653 
1975.141286  	93.193375 
1976.105710  	93.087917 
1977.070135  	93.247556 
1978.034559  	93.300773 
1978.998984  	92.897612 
1979.963408  	92.519808 
1980.927833  	92.499182 
1981.892257  	92.785560 
1982.856682  	92.717796 
1983.821106  	92.580014 
1984.785530  	92.665762 
1985.749955  	92.727257 
1986.714379  	92.917231 
1987.678804  	92.734291 
1988.643228  	92.316938 
1989.607653  	92.644782 
1990.572077  	92.802794 
1991.536502  	92.102946 
1992.500926  	91.785396 
1993.465351  	92.305389 
1994.429775  	92.698101 
1995.394199  	92.866419 
1996.358624  	93.090108 
1997.323048  	93.087516 
1998.287473  	92.968140 
1999.251897  	93.000609 
2000.216322  	93.267514 
2001.180746  	93.360156 
2002.145171  	93.394951 
2003.109595  	93.732731 
2004.074020  	93.868169 
2005.038444  	93.651045 
2006.002868  	93.511098 
2006.967293  	93.317208 
2007.931717  	92.976693 
2008.896142  	93.159581 
2009.860566  	93.545835 
2010.824991  	93.330509 
2011.789415  	93.009706 
2012.753840  	93.031532 
2013.718264  	93.029775 
2014.682689  	93.046775 
2015.647113  	93.248167 
2016.611537  	92.948653 
2017.575962  	92.860541 
2018.540386  	93.165044 
2019.504811  	93.396602 
2020.469235  	93.633157 
2021.433660  	93.563270 
2022.398084  	93.441520 
2023.362509  	93.569422 
2024.326933  	93.449398 
2025.291358  	93.138011 
2026.255782  	93.146341 
2027.220207  	93.339401 
2028.184631  	93.417543 
2029.149055  	93.582860 
2030.113480  	93.689084 
2031.077904  	93.769636 
2032.042329  	93.521691 
2033.006753  	93.191732 
2033.971178  	93.204840 
2034.935602  	93.427752 
2035.900027  	93.325620 
2036.864451  	93.265583 
2037.828876  	93.112433 
2038.793300  	93.127779 
2039.757724  	93.028192 
2040.722149  	92.998178 
2041.686573  	92.754301 
2042.650998  	92.601523 
2043.615422  	92.422208 
2044.579847  	92.688951 
2045.544271  	93.034406 
2046.508696  	93.167858 
2047.473120  	93.125975 
2048.437545  	93.255927 
2049.401969  	93.217926 
2050.366393  	92.811226 
2051.330818  	92.644506 
2052.295242  	92.897302 
2053.259667  	93.078266 
2054.224091  	92.808647 
2055.188516  	92.518041 
2056.152940  	92.536456 
2057.117365  	92.429010 
2058.081789  	92.528247 
2059.046214  	92.893043 
2060.010638  	92.859868 
2060.975062  	92.509024 
2061.939487  	92.538992 
2062.903911  	92.775447 
2063.868336  	92.692444 
2064.832760  	92.334196 
2065.797185  	92.480481 
2066.761609  	92.615165 
2067.726034  	92.632708 
2068.690458  	92.661445 
2069.654883  	92.644293 
2070.619307  	92.650685 
2071.583731  	92.670859 
2072.548156  	92.555791 
2073.512580  	92.421018 
2074.477005  	92.304737 
2075.441429  	92.435167 
2076.405854  	92.540921 
2077.370278  	92.507213 
2078.334703  	92.510920 
2079.299127  	92.515281 
2080.263552  	92.462591 
2081.227976  	92.482711 
2082.192401  	92.494248 
2083.156825  	92.402618 
2084.121249  	92.432233 
2085.085674  	92.657640 
2086.050098  	92.532600 
2087.014523  	92.342729 
2087.978947  	92.332191 
2088.943372  	92.350332 
2089.907796  	92.344815 
2090.872221  	92.490731 
2091.836645  	92.749703 
2092.801070  	92.789138 
2093.765494  	92.605497 
2094.729918  	92.510681 
2095.694343  	92.538933 
2096.658767  	92.551698 
2097.623192  	92.519209 
2098.587616  	92.501144 
2099.552041  	92.564164 
2100.516465  	92.602922 
2101.480890  	92.534523 
2102.445314  	92.379996 
2103.409739  	92.373351 
2104.374163  	92.401555 
2105.338587  	92.341239 
2106.303012  	92.271038 
2107.267436  	92.200447 
2108.231861  	92.239769 
2109.196285  	92.301208 
2110.160710  	92.455072 
2111.125134  	92.567393 
2112.089559  	92.484295 
2113.053983  	92.446400 
2114.018408  	92.427879 
2114.982832  	92.335526 
2115.947256  	92.282894 
2116.911681  	92.416001 
2117.876105  	92.678815 
2118.840530  	92.680265 
2119.804954  	92.582307 
2120.769379  	92.567085 
2121.733803  	92.579441 
2122.698228  	92.717924 
2123.662652  	92.839120 
2124.627077  	92.836012 
2125.591501  	92.900380 
2126.555925  	92.996473 
2127.520350  	92.922314 
2128.484774  	92.930870 
2129.449199  	93.087102 
2130.413623  	93.103360 
2131.378048  	93.079915 
2132.342472  	93.163553 
2133.306897  	93.142186 
2134.271321  	93.009007 
2135.235746  	92.808203 
2136.200170  	92.796891 
2137.164594  	93.011455 
2138.129019  	93.050921 
2139.093443  	93.092069 
2140.057868  	93.079855 
2141.022292  	92.992782 
2141.986717  	93.078899 
2142.951141  	93.132074 
2143.915566  	93.167951 
2144.879990  	93.047768 
2145.844415  	93.062530 
2146.808839  	93.112981 
2147.773264  	93.295339 
2148.737688  	93.548894 
2149.702112  	93.329533 
2150.666537  	93.358215 
2151.630961  	93.645385 
2152.595386  	93.907026 
2153.559810  	93.638827 
2154.524235  	93.613957 
2155.488659  	94.022699 
2156.453084  	94.406184 
2157.417508  	94.411679 
2158.381933  	94.277219 
2159.346357  	93.538614 
2160.310781  	92.941394 
2161.275206  	92.708649 
2162.239630  	93.070018 
2163.204055  	93.335516 
2164.168479  	93.260193 
2165.132904  	92.946835 
2166.097328  	93.196462 
2167.061753  	93.519658 
2168.026177  	93.336182 
2168.990602  	93.039317 
2169.955026  	92.835370 
2170.919450  	93.148915 
2171.883875  	93.085154 
2172.848299  	93.037780 
2173.812724  	93.307313 
2174.777148  	93.512401 
2175.741573  	93.460099 
2176.705997  	93.138525 
2177.670422  	93.146646 
2178.634846  	93.213336 
2179.599271  	93.177960 
2180.563695  	93.268155 
2181.528119  	93.384908 
2182.492544  	93.132465 
2183.456968  	92.812784 
2184.421393  	92.879230 
2185.385817  	93.156671 
2186.350242  	93.089784 
2187.314666  	92.792872 
2188.279091  	92.748581 
2189.243515  	92.824464 
2190.207940  	92.946748 
2191.172364  	92.991889 
2192.136788  	92.966351 
2193.101213  	93.014015 
2194.065637  	92.771163 
2195.030062  	92.651135 
2195.994486  	92.555008 
2196.958911  	92.700617 
2197.923335  	93.015299 
2198.887760  	93.099022 
2199.852184  	93.123477 
2200.816609  	93.023451 
2201.781033  	92.882070 
2202.745458  	92.941828 
2203.709882  	92.922497 
2204.674306  	92.804431 
2205.638731  	92.781879 
2206.603155  	92.823621 
2207.567580  	92.778666 
2208.532004  	92.715569 
2209.496429  	92.730636 
2210.460853  	92.597368 
2211.425278  	92.676826 
2212.389702  	92.739303 
2213.354127  	92.558306 
2214.318551  	92.569092 
2215.282975  	92.513049 
2216.247400  	92.417032 
2217.211824  	92.638518 
2218.176249  	92.835610 
2219.140673  	92.899988 
2220.105098  	92.823920 
2221.069522  	92.721845 
2222.033947  	92.746477 
2222.998371  	92.710181 
2223.962796  	92.571182 
2224.927220  	92.653205 
2225.891644  	92.574502 
2226.856069  	92.385377 
2227.820493  	92.492790 
2228.784918  	92.695859 
2229.749342  	92.646558 
2230.713767  	92.566338 
2231.678191  	92.516035 
2232.642616  	92.454010 
2233.607040  	92.551536 
2234.571465  	92.534187 
2235.535889  	92.488510 
2236.500313  	92.534482 
2237.464738  	92.589803 
2238.429162  	92.622274 
2239.393587  	92.543355 
2240.358011  	92.556046 
2241.322436  	92.755900 
2242.286860  	92.684277 
2243.251285  	92.595462 
2244.215709  	92.533857 
2245.180134  	92.417140 
2246.144558  	92.379732 
2247.108982  	92.530300 
2248.073407  	92.656085 
2249.037831  	92.464604 
2250.002256  	92.357380 
2250.966680  	92.367339 
2251.931105  	92.373580 
2252.895529  	92.562831 
2253.859954  	92.655151 
2254.824378  	92.452278 
2255.788803  	92.257468 
2256.753227  	92.283584 
2257.717651  	92.470946 
2258.682076  	92.402424 
2259.646500  	92.340009 
2260.610925  	92.295716 
2261.575349  	92.318599 
2262.539774  	92.357932 
2263.504198  	92.382174 
2264.468623  	92.284160 
2265.433047  	92.302115 
2266.397472  	92.385671 
2267.361896  	92.329642 
2268.326321  	92.319927 
2269.290745  	92.379397 
2270.255169  	92.391419 
2271.219594  	92.392964 
2272.184018  	92.313109 
2273.148443  	92.249137 
2274.112867  	92.279880 
2275.077292  	92.317048 
2276.041716  	92.275360 
2277.006141  	92.290605 
2277.970565  	92.317615 
2278.934990  	92.237958 
2279.899414  	92.096880 
2280.863838  	92.134668 
2281.828263  	92.151349 
2282.792687  	92.126280 
2283.757112  	92.142992 
2284.721536  	92.114291 
2285.685961  	92.057928 
2286.650385  	92.080266 
2287.614810  	92.030200 
2288.579234  	91.982944 
2289.543659  	91.982691 
2290.508083  	92.069222 
2291.472507  	92.108059 
2292.436932  	92.194817 
2293.401356  	92.148493 
2294.365781  	92.068286 
2295.330205  	92.078695 
2296.294630  	92.018967 
2297.259054  	92.030941 
2298.223479  	91.959330 
2299.187903  	91.934856 
2300.152328  	91.944608 
2301.116752  	91.927211 
2302.081176  	91.993514 
2303.045601  	91.877170 
2304.010025  	91.950649 
2304.974450  	91.797572 
2305.938874  	91.818355 
2306.903299  	91.731555 
2307.867723  	91.805895 
2308.832148  	91.720022 
2309.796572  	91.813551 
2310.760997  	91.726149 
2311.725421  	91.725804 
2312.689845  	91.819776 
2313.654270  	91.890844 
2314.618694  	91.933075 
2315.583119  	92.048467 
2316.547543  	92.123002 
2317.511968  	92.256063 
2318.476392  	92.218538 
2319.440817  	92.182607 
2320.405241  	92.173566 
2321.369666  	92.281827 
2322.334090  	92.401473 
2323.298515  	92.349452 
2324.262939  	92.268432 
2325.227363  	92.543500 
2326.191788  	92.940555 
2327.156212  	93.245564 
2328.120637  	93.380213 
2329.085061  	93.442383 
2330.049486  	93.467634 
2331.013910  	93.519375 
2331.978335  	93.721222 
2332.942759  	93.912406 
2333.907184  	94.032191 
2334.871608  	94.136020 
2335.836032  	94.258918 
2336.800457  	94.352290 
2337.764881  	94.369754 
2338.729306  	94.362072 
2339.693730  	94.314847 
2340.658155  	94.446250 
2341.622579  	94.541057 
2342.587004  	94.426552 
2343.551428  	94.234741 
2344.515853  	93.906248 
2345.480277  	93.657387 
2346.444701  	93.395991 
2347.409126  	93.147549 
2348.373550  	92.745635 
2349.337975  	92.527195 
2350.302399  	92.805833 
2351.266824  	93.315415 
2352.231248  	93.861819 
2353.195673  	94.100747 
2354.160097  	94.161199 
2355.124522  	94.321394 
2356.088946  	94.664587 
2357.053370  	94.943465 
2358.017795  	95.079044 
2358.982219  	95.042849 
2359.946644  	95.281419 
2360.911068  	95.314242 
2361.875493  	95.097742 
2362.839917  	95.105118 
2363.804342  	95.037390 
2364.768766  	94.824497 
2365.733191  	94.718002 
2366.697615  	94.510739 
2367.662039  	94.299934 
2368.626464  	94.038150 
2369.590888  	93.767912 
2370.555313  	93.507714 
2371.519737  	93.199086 
2372.484162  	92.937792 
2373.448586  	92.799181 
2374.413011  	92.653154 
2375.377435  	92.444284 
2376.341860  	92.259634 
2377.306284  	92.103600 
2378.270708  	92.023574 
2379.235133  	91.881779 
2380.199557  	91.868766 
2381.163982  	91.932638 
2382.128406  	91.970372 
2383.092831  	92.025809 
2384.057255  	92.091514 
2385.021680  	92.164270 
2385.986104  	92.235087 
2386.950529  	92.281703 
2387.914953  	92.350121 
2388.879378  	92.351619 
2389.843802  	92.398504 
2390.808226  	92.415349 
2391.772651  	92.374675 
2392.737075  	92.373403 
2393.701500  	92.427362 
2394.665924  	92.453536 
2395.630349  	92.419662 
2396.594773  	92.367433 
2397.559198  	92.394948 
2398.523622  	92.475522 
2399.488047  	92.510872 
2400.452471  	92.490841 
2401.416895  	92.482118 
2402.381320  	92.449784 
2403.345744  	92.476817 
2404.310169  	92.525177 
2405.274593  	92.468224 
2406.239018  	92.386057 
2407.203442  	92.406567 
2408.167867  	92.452052 
2409.132291  	92.446577 
2410.096716  	92.420910 
2411.061140  	92.386526 
2412.025564  	92.413376 
2412.989989  	92.451361 
2413.954413  	92.456147 
2414.918838  	92.490149 
2415.883262  	92.499369 
2416.847687  	92.496071 
2417.812111  	92.508107 
2418.776536  	92.479338 
2419.740960  	92.432337 
2420.705385  	92.449403 
2421.669809  	92.427222 
2422.634233  	92.461608 
2423.598658  	92.450092 
2424.563082  	92.443585 
2425.527507  	92.505483 
2426.491931  	92.522087 
2427.456356  	92.485680 
2428.420780  	92.538605 
2429.385205  	92.572543 
2430.349629  	92.533387 
2431.314054  	92.459763 
2432.278478  	92.482920 
2433.242902  	92.508994 
2434.207327  	92.480553 
2435.171751  	92.441450 
2436.136176  	92.504364 
2437.100600  	92.562493 
2438.065025  	92.525891 
2439.029449  	92.564127 
2439.993874  	92.564180 
2440.958298  	92.497634 
2441.922723  	92.455104 
2442.887147  	92.464143 
2443.851572  	92.496355 
2444.815996  	92.482171 
2445.780420  	92.488728 
2446.744845  	92.489254 
2447.709269  	92.481548 
2448.673694  	92.492161 
2449.638118  	92.478367 
2450.602543  	92.459062 
2451.566967  	92.477858 
2452.531392  	92.465590 
2453.495816  	92.434929 
2454.460241  	92.420781 
2455.424665  	92.427688 
2456.389089  	92.440677 
2457.353514  	92.483500 
2458.317938  	92.458782 
2459.282363  	92.421167 
2460.246787  	92.453725 
2461.211212  	92.465505 
2462.175636  	92.490365 
2463.140061  	92.479047 
2464.104485  	92.450390 
2465.068910  	92.485511 
2466.033334  	92.469512 
2466.997758  	92.460598 
2467.962183  	92.537085 
2468.926607  	92.538628 
2469.891032  	92.512809 
2470.855456  	92.511876 
2471.819881  	92.487391 
2472.784305  	92.513087 
2473.748730  	92.511587 
2474.713154  	92.520696 
2475.677579  	92.490770 
2476.642003  	92.454176 
2477.606427  	92.448151 
2478.570852  	92.531728 
2479.535276  	92.522262 
2480.499701  	92.487500 
2481.464125  	92.487088 
2482.428550  	92.502523 
2483.392974  	92.530210 
2484.357399  	92.532826 
2485.321823  	92.508938 
2486.286248  	92.459912 
2487.250672  	92.475155 
2488.215096  	92.525640 
2489.179521  	92.505219 
2490.143945  	92.444128 
2491.108370  	92.399937 
2492.072794  	92.410413 
2493.037219  	92.448769 
2494.001643  	92.462725 
2494.966068  	92.489259 
2495.930492  	92.540577 
2496.894917  	92.484312 
2497.859341  	92.414136 
2498.823765  	92.432196 
2499.788190  	92.456958 
2500.752614  	92.455481 
2501.717039  	92.458121 
2502.681463  	92.428995 
2503.645888  	92.405390 
2504.610312  	92.393805 
2505.574737  	92.406669 
2506.539161  	92.420527 
2507.503586  	92.447203 
2508.468010  	92.421344 
2509.432435  	92.406867 
2510.396859  	92.400045 
2511.361283  	92.407211 
2512.325708  	92.386621 
2513.290132  	92.396674 
2514.254557  	92.430185 
2515.218981  	92.425073 
2516.183406  	92.387267 
2517.147830  	92.431482 
2518.112255  	92.380470 
2519.076679  	92.359206 
2520.041104  	92.408997 
2521.005528  	92.436336 
2521.969952  	92.361241 
2522.934377  	92.310658 
2523.898801  	92.308046 
2524.863226  	92.358954 
2525.827650  	92.368356 
2526.792075  	92.369843 
2527.756499  	92.406355 
2528.720924  	92.405862 
2529.685348  	92.277420 
2530.649773  	92.279550 
2531.614197  	92.330697 
2532.578621  	92.342409 
2533.543046  	92.374474 
2534.507470  	92.395651 
2535.471895  	92.365688 
2536.436319  	92.367364 
2537.400744  	92.385655 
2538.365168  	92.346689 
2539.329593  	92.356787 
2540.294017  	92.348835 
2541.258442  	92.343316 
2542.222866  	92.354337 
2543.187290  	92.373172 
2544.151715  	92.380486 
2545.116139  	92.384884 
2546.080564  	92.353808 
2547.044988  	92.262365 
2548.009413  	92.218527 
2548.973837  	92.291519 
2549.938262  	92.354398 
2550.902686  	92.393191 
2551.867111  	92.422058 
2552.831535  	92.380262 
2553.795959  	92.307492 
2554.760384  	92.250595 
2555.724808  	92.239257 
2556.689233  	92.236649 
2557.653657  	92.280369 
2558.618082  	92.304966 
2559.582506  	92.355699 
2560.546931  	92.322559 
2561.511355  	92.228888 
2562.475780  	92.249651 
2563.440204  	92.302185 
2564.404629  	92.368889 
2565.369053  	92.378914 
2566.333477  	92.361202 
2567.297902  	92.365352 
2568.262326  	92.320506 
2569.226751  	92.293441 
2570.191175  	92.306981 
2571.155600  	92.352856 
2572.120024  	92.343809 
2573.084449  	92.364249 
2574.048873  	92.314619 
2575.013298  	92.253127 
2575.977722  	92.271427 
2576.942146  	92.275105 
2577.906571  	92.216733 
2578.870995  	92.270667 
2579.835420  	92.278019 
2580.799844  	92.235012 
2581.764269  	92.189058 
2582.728693  	92.255280 
2583.693118  	92.293266 
2584.657542  	92.252536 
2585.621967  	92.281685 
2586.586391  	92.273254 
2587.550815  	92.268920 
2588.515240  	92.295346 
2589.479664  	92.273179 
2590.444089  	92.238745 
2591.408513  	92.266834 
2592.372938  	92.307375 
2593.337362  	92.288130 
2594.301787  	92.264119 
2595.266211  	92.244167 
2596.230636  	92.286607 
2597.195060  	92.333809 
2598.159484  	92.340860 
2599.123909  	92.354454 
2600.088333  	92.310754 
2601.052758  	92.279714 
2602.017182  	92.299856 
2602.981607  	92.323082 
2603.946031  	92.318586 
2604.910456  	92.296193 
2605.874880  	92.305472 
2606.839305  	92.297137 
2607.803729  	92.310629 
2608.768153  	92.326852 
2609.732578  	92.315333 
2610.697002  	92.280634 
2611.661427  	92.266387 
2612.625851  	92.241243 
2613.590276  	92.295707 
2614.554700  	92.315551 
2615.519125  	92.285885 
2616.483549  	92.301686 
2617.447974  	92.292702 
2618.412398  	92.309907 
2619.376822  	92.305466 
2620.341247  	92.261396 
2621.305671  	92.257344 
2622.270096  	92.252498 
2623.234520  	92.250660 
2624.198945  	92.230176 
2625.163369  	92.268026 
2626.127794  	92.247474 
2627.092218  	92.222793 
2628.056643  	92.238078 
2629.021067  	92.258022 
2629.985492  	92.263960 
2630.949916  	92.293117 
2631.914340  	92.286019 
2632.878765  	92.221600 
2633.843189  	92.220487 
2634.807614  	92.255520 
2635.772038  	92.233527 
2636.736463  	92.208565 
2637.700887  	92.252284 
2638.665312  	92.299366 
2639.629736  	92.260612 
2640.594161  	92.288669 
2641.558585  	92.336891 
2642.523009  	92.295891 
2643.487434  	92.270419 
2644.451858  	92.294843 
2645.416283  	92.294200 
2646.380707  	92.280614 
2647.345132  	92.287476 
2648.309556  	92.318575 
2649.273981  	92.303188 
2650.238405  	92.293210 
2651.202830  	92.304975 
2652.167254  	92.314086 
2653.131678  	92.316515 
2654.096103  	92.297551 
2655.060527  	92.293225 
2656.024952  	92.307347 
2656.989376  	92.298131 
2657.953801  	92.275327 
2658.918225  	92.296865 
2659.882650  	92.329899 
2660.847074  	92.340028 
2661.811499  	92.338272 
2662.775923  	92.340636 
2663.740347  	92.364742 
2664.704772  	92.373046 
2665.669196  	92.389876 
2666.633621  	92.400953 
2667.598045  	92.395774 
2668.562470  	92.363448 
2669.526894  	92.358628 
2670.491319  	92.362800 
2671.455743  	92.397839 
2672.420168  	92.416401 
2673.384592  	92.393320 
2674.349016  	92.392724 
2675.313441  	92.393284 
2676.277865  	92.386931 
2677.242290  	92.398461 
2678.206714  	92.413184 
2679.171139  	92.417295 
2680.135563  	92.390715 
2681.099988  	92.392810 
2682.064412  	92.395496 
2683.028837  	92.383511 
2683.993261  	92.374901 
2684.957686  	92.388154 
2685.922110  	92.394654 
2686.886534  	92.389550 
2687.850959  	92.368080 
2688.815383  	92.372393 
2689.779808  	92.380956 
2690.744232  	92.370084 
2691.708657  	92.373361 
2692.673081  	92.403809 
2693.637506  	92.390284 
2694.601930  	92.406425 
2695.566355  	92.440363 
2696.530779  	92.423170 
2697.495203  	92.411769 
2698.459628  	92.398310 
2699.424052  	92.406541 
2700.388477  	92.419633 
2701.352901  	92.384205 
2702.317326  	92.363903 
2703.281750  	92.407611 
2704.246175  	92.423164 
2705.210599  	92.413174 
2706.175024  	92.398941 
2707.139448  	92.362396 
2708.103872  	92.377137 
2709.068297  	92.408347 
2710.032721  	92.391954 
2710.997146  	92.364840 
2711.961570  	92.360292 
2712.925995  	92.383458 
2713.890419  	92.410460 
2714.854844  	92.416163 
2715.819268  	92.414559 
2716.783693  	92.401714 
2717.748117  	92.409555 
2718.712541  	92.411947 
2719.676966  	92.386482 
2720.641390  	92.375359 
2721.605815  	92.416100 
2722.570239  	92.422851 
2723.534664  	92.409044 
2724.499088  	92.391796 
2725.463513  	92.359944 
2726.427937  	92.355785 
2727.392362  	92.355443 
2728.356786  	92.341765 
2729.321210  	92.315514 
2730.285635  	92.304769 
2731.250059  	92.296055 
2732.214484  	92.303710 
2733.178908  	92.344475 
2734.143333  	92.389074 
2735.107757  	92.392902 
2736.072182  	92.376794 
2737.036606  	92.373021 
2738.001031  	92.367581 
2738.965455  	92.354588 
2739.929879  	92.348080 
2740.894304  	92.332515 
2741.858728  	92.325989 
2742.823153  	92.326099 
2743.787577  	92.325672 
2744.752002  	92.313656 
2745.716426  	92.302317 
2746.680851  	92.306038 
2747.645275  	92.299827 
2748.609700  	92.316405 
2749.574124  	92.332033 
2750.538549  	92.304869 
2751.502973  	92.285432 
2752.467397  	92.308996 
2753.431822  	92.300648 
2754.396246  	92.310165 
2755.360671  	92.326834 
2756.325095  	92.342777 
2757.289520  	92.335014 
2758.253944  	92.326391 
2759.218369  	92.329215 
2760.182793  	92.327341 
2761.147218  	92.311568 
2762.111642  	92.298161 
2763.076066  	92.293480 
2764.040491  	92.317777 
2765.004915  	92.328120 
2765.969340  	92.315657 
2766.933764  	92.293390 
2767.898189  	92.292524 
2768.862613  	92.314515 
2769.827038  	92.311123 
2770.791462  	92.296397 
2771.755887  	92.274639 
2772.720311  	92.266356 
2773.684735  	92.305846 
2774.649160  	92.310925 
2775.613584  	92.293067 
2776.578009  	92.276970 
2777.542433  	92.265180 
2778.506858  	92.268188 
2779.471282  	92.279785 
2780.435707  	92.258977 
2781.400131  	92.220802 
2782.364556  	92.231812 
2783.328980  	92.265102 
2784.293404  	92.266449 
2785.257829  	92.259566 
2786.222253  	92.275895 
2787.186678  	92.311054 
2788.151102  	92.274535 
2789.115527  	92.272312 
2790.079951  	92.281861 
2791.044376  	92.275162 
2792.008800  	92.245048 
2792.973225  	92.185984 
2793.937649  	92.190906 
2794.902073  	92.200202 
2795.866498  	92.188661 
2796.830922  	92.207811 
2797.795347  	92.211628 
2798.759771  	92.202160 
2799.724196  	92.159954 
2800.688620  	92.148390 
2801.653045  	92.158472 
2802.617469  	92.171747 
2803.581894  	92.181141 
2804.546318  	92.215378 
2805.510743  	92.220382 
2806.475167  	92.175689 
2807.439591  	92.149327 
2808.404016  	92.142208 
2809.368440  	92.176460 
2810.332865  	92.206818 
2811.297289  	92.164982 
2812.261714  	92.136266 
2813.226138  	92.140520 
2814.190563  	92.147097 
2815.154987  	92.182558 
2816.119412  	92.193326 
2817.083836  	92.157723 
2818.048260  	92.142370 
2819.012685  	92.143267 
2819.977109  	92.172231 
2820.941534  	92.175311 
2821.905958  	92.173724 
2822.870383  	92.142466 
2823.834807  	92.123351 
2824.799232  	92.111494 
2825.763656  	92.137171 
2826.728081  	92.143440 
2827.692505  	92.125122 
2828.656929  	92.120232 
2829.621354  	92.126573 
2830.585778  	92.119887 
2831.550203  	92.117123 
2832.514627  	92.099931 
2833.479052  	92.090717 
2834.443476  	92.073765 
2835.407901  	92.079529 
2836.372325  	92.075367 
2837.336750  	92.040629 
2838.301174  	92.013408 
2839.265598  	91.984251 
2840.230023  	91.962802 
2841.194447  	91.944382 
2842.158872  	91.910498 
2843.123296  	91.879230 
2844.087721  	91.842643 
2845.052145  	91.806649 
2846.016570  	91.757954 
2846.980994  	91.718401 
2847.945419  	91.692463 
2848.909843  	91.671819 
2849.874267  	91.640708 
2850.838692  	91.627499 
2851.803116  	91.588689 
2852.767541  	91.566738 
2853.731965  	91.612052 
2854.696390  	91.616402 
2855.660814  	91.607733 
2856.625239  	91.642471 
2857.589663  	91.661366 
2858.554088  	91.674356 
2859.518512  	91.656781 
2860.482936  	91.661304 
2861.447361  	91.716656 
2862.411785  	91.756237 
2863.376210  	91.745122 
2864.340634  	91.702311 
2865.305059  	91.682803 
2866.269483  	91.699893 
2867.233908  	91.693853 
2868.198332  	91.676470 
2869.162757  	91.680543 
2870.127181  	91.711454 
2871.091606  	91.684080 
2872.056030  	91.671357 
2873.020454  	91.671595 
2873.984879  	91.685455 
2874.949303  	91.657679 
2875.913728  	91.662526 
2876.878152  	91.653375 
2877.842577  	91.625616 
2878.807001  	91.651598 
2879.771426  	91.704535 
2880.735850  	91.663073 
2881.700275  	91.610729 
2882.664699  	91.579747 
2883.629123  	91.569174 
2884.593548  	91.573990 
2885.557972  	91.575790 
2886.522397  	91.553580 
2887.486821  	91.529707 
2888.451246  	91.513248 
2889.415670  	91.541112 
2890.380095  	91.529597 
2891.344519  	91.513730 
2892.308944  	91.492828 
2893.273368  	91.476126 
2894.237792  	91.454975 
2895.202217  	91.397124 
2896.166641  	91.371002 
2897.131066  	91.385726 
2898.095490  	91.381212 
2899.059915  	91.360538 
2900.024339  	91.311247 
2900.988764  	91.254315 
2901.953188  	91.209972 
2902.917613  	91.143507 
2903.882037  	91.113183 
2904.846461  	91.118900 
2905.810886  	91.068415 
2906.775310  	91.013174 
2907.739735  	91.006370 
2908.704159  	90.965276 
2909.668584  	90.937838 
2910.633008  	90.943872 
2911.597433  	90.956529 
2912.561857  	91.024562 
2913.526282  	91.043099 
2914.490706  	91.050508 
2915.455130  	91.039587 
2916.419555  	91.057287 
2917.383979  	91.111862 
2918.348404  	91.136289 
2919.312828  	91.138438 
2920.277253  	91.143670 
2921.241677  	91.122639 
2922.206102  	91.133520 
2923.170526  	91.158614 
2924.134951  	91.191206 
2925.099375  	91.221282 
2926.063800  	91.247384 
2927.028224  	91.252705 
2927.992648  	91.249275 
2928.957073  	91.282678 
2929.921497  	91.288582 
2930.885922  	91.286130 
2931.850346  	91.338403 
2932.814771  	91.376479 
2933.779195  	91.384221 
2934.743620  	91.394600 
2935.708044  	91.387530 
2936.672469  	91.380778 
2937.636893  	91.397607 
2938.601317  	91.422879 
2939.565742  	91.442919 
2940.530166  	91.434467 
2941.494591  	91.395412 
2942.459015  	91.335161 
2943.423440  	91.304835 
2944.387864  	91.249911 
2945.352289  	91.209729 
2946.316713  	91.190803 
2947.281138  	91.174941 
2948.245562  	91.145308 
2949.209986  	91.060748 
2950.174411  	90.987295 
2951.138835  	90.963251 
2952.103260  	90.922186 
2953.067684  	90.862762 
2954.032109  	90.807778 
2954.996533  	90.766570 
2955.960958  	90.697630 
2956.925382  	90.645932 
2957.889807  	90.639154 
2958.854231  	90.637703 
2959.818655  	90.622107 
2960.783080  	90.604243 
2961.747504  	90.576876 
2962.711929  	90.551388 
2963.676353  	90.511635 
2964.640778  	90.453654 
2965.605202  	90.385465 
2966.569627  	90.340351 
2967.534051  	90.384978 
2968.498476  	90.472370 
2969.462900  	90.478291 
2970.427324  	90.468922 
2971.391749  	90.499053 
2972.356173  	90.571727 
2973.320598  	90.675626 
2974.285022  	90.765029 
2975.249447  	90.778498 
2976.213871  	90.821621 
2977.178296  	90.903420 
2978.142720  	90.974774 
2979.107145  	91.029537 
2980.071569  	91.114921 
2981.035993  	91.157249 
2982.000418  	91.208041 
2982.964842  	91.275629 
2983.929267  	91.344850 
2984.893691  	91.393453 
2985.858116  	91.418993 
2986.822540  	91.476414 
2987.786965  	91.509863 
2988.751389  	91.522910 
2989.715814  	91.568616 
2990.680238  	91.610983 
2991.644663  	91.649594 
2992.609087  	91.671786 
2993.573511  	91.643182 
2994.537936  	91.617231 
2995.502360  	91.696567 
2996.466785  	91.724007 
2997.431209  	91.717475 
2998.395634  	91.736821 
2999.360058  	91.766527 
3000.324483  	91.788541 
3001.288907  	91.761667 
3002.253332  	91.755936 
3003.217756  	91.773729 
3004.182180  	91.763977 
3005.146605  	91.772902 
3006.111029  	91.806323 
3007.075454  	91.845621 
3008.039878  	91.875746 
3009.004303  	91.920259 
3009.968727  	91.922312 
3010.933152  	91.895829 
3011.897576  	91.865901 
3012.862001  	91.797755 
3013.826425  	91.875801 
3014.790849  	91.968058 
3015.755274  	91.959801 
3016.719698  	91.998139 
3017.684123  	92.079461 
3018.648547  	92.126517 
3019.612972  	92.139297 
3020.577396  	92.164637 
3021.541821  	92.193124 
3022.506245  	92.225144 
3023.470670  	92.239494 
3024.435094  	92.272225 
3025.399518  	92.256969 
3026.363943  	92.268094 
3027.328367  	92.311765 
3028.292792  	92.309595 
3029.257216  	92.331396 
3030.221641  	92.281385 
3031.186065  	92.176012 
3032.150490  	92.142772 
3033.114914  	92.243080 
3034.079339  	92.264509 
3035.043763  	92.248293 
3036.008187  	92.270112 
3036.972612  	92.272594 
3037.937036  	92.249500 
3038.901461  	92.244230 
3039.865885  	92.272522 
3040.830310  	92.316368 
3041.794734  	92.323766 
3042.759159  	92.271911 
3043.723583  	92.276111 
3044.688008  	92.304065 
3045.652432  	92.314790 
3046.616857  	92.281362 
3047.581281  	92.213210 
3048.545705  	92.130966 
3049.510130  	92.073900 
3050.474554  	92.063612 
3051.438979  	92.088268 
3052.403403  	92.062791 
3053.367828  	92.016533 
3054.332252  	92.008455 
3055.296677  	92.027691 
3056.261101  	91.907797 
3057.225526  	91.899891 
3058.189950  	92.032294 
3059.154374  	92.081184 
3060.118799  	92.092503 
3061.083223  	92.145355 
3062.047648  	92.175108 
3063.012072  	92.125650 
3063.976497  	92.012283 
3064.940921  	91.948165 
3065.905346  	92.026898 
3066.869770  	91.997789 
3067.834195  	91.993833 
3068.798619  	92.057141 
3069.763043  	92.073188 
3070.727468  	92.154719 
3071.691892  	92.196246 
3072.656317  	92.157733 
3073.620741  	92.111267 
3074.585166  	92.112727 
3075.549590  	92.165636 
3076.514015  	92.169834 
3077.478439  	92.097301 
3078.442864  	92.079207 
3079.407288  	92.070159 
3080.371712  	92.088656 
3081.336137  	92.119853 
3082.300561  	92.103813 
3083.264986  	92.164983 
3084.229410  	92.213351 
3085.193835  	92.179071 
3086.158259  	92.162335 
3087.122684  	92.179331 
3088.087108  	92.227376 
3089.051533  	92.244520 
3090.015957  	92.216714 
3090.980381  	92.238881 
3091.944806  	92.257422 
3092.909230  	92.255379 
3093.873655  	92.243192 
3094.838079  	92.213263 
3095.802504  	92.184216 
3096.766928  	92.235067 
3097.731353  	92.282761 
3098.695777  	92.262272 
3099.660202  	92.222145 
3100.624626  	92.197602 
3101.589050  	92.160685 
3102.553475  	92.163450 
3103.517899  	92.177895 
3104.482324  	92.209793 
3105.446748  	92.215134 
3106.411173  	92.184195 
3107.375597  	92.204313 
3108.340022  	92.265137 
3109.304446  	92.285316 
3110.268871  	92.287037 
3111.233295  	92.286275 
3112.197720  	92.232737 
3113.162144  	92.266339 
3114.126568  	92.335713 
3115.090993  	92.276181 
3116.055417  	92.211719 
3117.019842  	92.268469 
3117.984266  	92.261174 
3118.948691  	92.174220 
3119.913115  	92.297325 
3120.877540  	92.404258 
3121.841964  	92.339937 
3122.806389  	92.245172 
3123.770813  	92.279016 
3124.735237  	92.279059 
3125.699662  	92.224098 
3126.664086  	92.221041 
3127.628511  	92.296252 
3128.592935  	92.334519 
3129.557360  	92.340286 
3130.521784  	92.355726 
3131.486209  	92.359146 
3132.450633  	92.293015 
3133.415058  	92.212851 
3134.379482  	92.337164 
3135.343906  	92.440553 
3136.308331  	92.474240 
3137.272755  	92.441698 
3138.237180  	92.444962 
3139.201604  	92.446287 
3140.166029  	92.442752 
3141.130453  	92.460146 
3142.094878  	92.442643 
3143.059302  	92.385023 
3144.023727  	92.390182 
3144.988151  	92.444780 
3145.952575  	92.426845 
3146.917000  	92.420340 
3147.881424  	92.461614 
3148.845849  	92.502326 
3149.810273  	92.471298 
3150.774698  	92.441766 
3151.739122  	92.445491 
3152.703547  	92.454899 
3153.667971  	92.448366 
3154.632396  	92.459059 
3155.596820  	92.440343 
3156.561244  	92.384972 
3157.525669  	92.432883 
3158.490093  	92.463063 
3159.454518  	92.449728 
3160.418942  	92.404540 
3161.383367  	92.395817 
3162.347791  	92.429549 
3163.312216  	92.409868 
3164.276640  	92.423540 
3165.241065  	92.511027 
3166.205489  	92.530405 
3167.169914  	92.466022 
3168.134338  	92.408380 
3169.098762  	92.420092 
3170.063187  	92.402578 
3171.027611  	92.357108 
3171.992036  	92.377029 
3172.956460  	92.431320 
3173.920885  	92.457540 
3174.885309  	92.451402 
3175.849734  	92.457528 
3176.814158  	92.422770 
3177.778583  	92.296745 
3178.743007  	92.267426 
3179.707431  	92.342966 
3180.671856  	92.413337 
3181.636280  	92.505150 
3182.600705  	92.473598 
3183.565129  	92.380084 
3184.529554  	92.345560 
3185.493978  	92.359663 
3186.458403  	92.420609 
3187.422827  	92.419530 
3188.387252  	92.383291 
3189.351676  	92.430013 
3190.316100  	92.471569 
3191.280525  	92.446316 
3192.244949  	92.454692 
3193.209374  	92.464581 
3194.173798  	92.442386 
3195.138223  	92.444747 
3196.102647  	92.391700 
3197.067072  	92.329826 
3198.031496  	92.277060 
3198.995921  	92.327312 
3199.960345  	92.407188 
3200.924769  	92.469709 
3201.889194  	92.537334 
3202.853618  	92.536734 
3203.818043  	92.458970 
3204.782467  	92.417981 
3205.746892  	92.437051 
3206.711316  	92.419111 
3207.675741  	92.419742 
3208.640165  	92.440416 
3209.604590  	92.421206 
3210.569014  	92.385806 
3211.533438  	92.440489 
3212.497863  	92.459508 
3213.462287  	92.389024 
3214.426712  	92.305860 
3215.391136  	92.345082 
3216.355561  	92.381062 
3217.319985  	92.379559 
3218.284410  	92.378248 
3219.248834  	92.367342 
3220.213259  	92.368982 
3221.177683  	92.433597 
3222.142107  	92.417807 
3223.106532  	92.378789 
3224.070956  	92.413175 
3225.035381  	92.449564 
3225.999805  	92.417283 
3226.964230  	92.342560 
3227.928654  	92.297136 
3228.893079  	92.338445 
3229.857503  	92.373195 
3230.821928  	92.361758 
3231.786352  	92.414845 
3232.750777  	92.445220 
3233.715201  	92.428881 
3234.679625  	92.416371 
3235.644050  	92.399738 
3236.608474  	92.351011 
3237.572899  	92.346731 
3238.537323  	92.397442 
3239.501748  	92.360008 
3240.466172  	92.307972 
3241.430597  	92.378628 
3242.395021  	92.425968 
3243.359446  	92.416784 
3244.323870  	92.338872 
3245.288294  	92.251716 
3246.252719  	92.330451 
3247.217143  	92.405633 
3248.181568  	92.420742 
3249.145992  	92.422561 
3250.110417  	92.445544 
3251.074841  	92.433434 
3252.039266  	92.360116 
3253.003690  	92.360765 
3253.968115  	92.316740 
3254.932539  	92.267574 
3255.896963  	92.296582 
3256.861388  	92.283705 
3257.825812  	92.308819 
3258.790237  	92.334676 
3259.754661  	92.364421 
3260.719086  	92.391222 
3261.683510  	92.393730 
3262.647935  	92.440577 
3263.612359  	92.469204 
3264.576784  	92.403311 
3265.541208  	92.342519 
3266.505632  	92.359381 
3267.470057  	92.393085 
3268.434481  	92.407481 
3269.398906  	92.403690 
3270.363330  	92.369184 
3271.327755  	92.347199 
3272.292179  	92.323001 
3273.256604  	92.246111 
3274.221028  	92.248857 
3275.185453  	92.372714 
3276.149877  	92.342621 
3277.114301  	92.279060 
3278.078726  	92.314471 
3279.043150  	92.331941 
3280.007575  	92.318433 
3280.971999  	92.316770 
3281.936424  	92.365617 
3282.900848  	92.380007 
3283.865273  	92.312148 
3284.829697  	92.295646 
3285.794122  	92.350480 
3286.758546  	92.331007 
3287.722971  	92.256643 
3288.687395  	92.226037 
3289.651819  	92.288452 
3290.616244  	92.346380 
3291.580668  	92.271451 
3292.545093  	92.230275 
3293.509517  	92.242988 
3294.473942  	92.305636 
3295.438366  	92.302972 
3296.402791  	92.271761 
3297.367215  	92.252105 
3298.331640  	92.270664 
3299.296064  	92.344708 
3300.260488  	92.395753 
3301.224913  	92.372975 
3302.189337  	92.377025 
3303.153762  	92.332989 
3304.118186  	92.306460 
3305.082611  	92.354402 
3306.047035  	92.391636 
3307.011460  	92.401171 
3307.975884  	92.324270 
3308.940309  	92.279731 
3309.904733  	92.358099 
3310.869157  	92.341794 
3311.833582  	92.321804 
3312.798006  	92.343809 
3313.762431  	92.364369 
3314.726855  	92.402054 
3315.691280  	92.380430 
3316.655704  	92.366741 
3317.620129  	92.339878 
3318.584553  	92.327883 
3319.548978  	92.319025 
3320.513402  	92.353214 
3321.477826  	92.392817 
3322.442251  	92.406150 
3323.406675  	92.367212 
3324.371100  	92.354064 
3325.335524  	92.349515 
3326.299949  	92.360143 
3327.264373  	92.315052 
3328.228798  	92.298292 
3329.193222  	92.312297 
3330.157647  	92.325379 
3331.122071  	92.331164 
3332.086495  	92.412316 
3333.050920  	92.400435 
3334.015344  	92.312179 
3334.979769  	92.232954 
3335.944193  	92.265859 
3336.908618  	92.267612 
3337.873042  	92.300415 
3338.837467  	92.357747 
3339.801891  	92.341124 
3340.766316  	92.377485 
3341.730740  	92.376526 
3342.695164  	92.336608 
3343.659589  	92.372103 
3344.624013  	92.469911 
3345.588438  	92.490671 
3346.552862  	92.433206 
3347.517287  	92.429763 
3348.481711  	92.438386 
3349.446136  	92.453589 
3350.410560  	92.470490 
3351.374985  	92.499761 
3352.339409  	92.569287 
3353.303834  	92.538831 
3354.268258  	92.480552 
3355.232682  	92.391703 
3356.197107  	92.228536 
3357.161531  	92.241736 
3358.125956  	92.358483 
3359.090380  	92.399463 
3360.054805  	92.288547 
3361.019229  	92.232088 
3361.983654  	92.245912 
3362.948078  	92.331879 
3363.912503  	92.352583 
3364.876927  	92.295849 
3365.841351  	92.337378 
3366.805776  	92.337522 
3367.770200  	92.267782 
3368.734625  	92.275718 
3369.699049  	92.387055 
3370.663474  	92.510427 
3371.627898  	92.573265 
3372.592323  	92.487061 
3373.556747  	92.392940 
3374.521172  	92.430088 
3375.485596  	92.460627 
3376.450020  	92.423814 
3377.414445  	92.392352 
3378.378869  	92.383877 
3379.343294  	92.426267 
3380.307718  	92.464915 
3381.272143  	92.521584 
3382.236567  	92.495483 
3383.200992  	92.423312 
3384.165416  	92.293232 
3385.129841  	92.232362 
3386.094265  	92.355243 
3387.058689  	92.475912 
3388.023114  	92.508005 
3388.987538  	92.525170 
3389.951963  	92.468221 
3390.916387  	92.389025 
3391.880812  	92.291547 
3392.845236  	92.057271 
3393.809661  	92.131322 
3394.774085  	92.354710 
3395.738510  	92.386261 
3396.702934  	92.339403 
3397.667358  	92.227296 
3398.631783  	92.351504 
3399.596207  	92.520565 
3400.560632  	92.510507 
3401.525056  	92.398842 
3402.489481  	92.421624 
3403.453905  	92.402249 
3404.418330  	92.340539 
3405.382754  	92.374158 
3406.347179  	92.370855 
3407.311603  	92.345313 
3408.276028  	92.369456 
3409.240452  	92.335211 
3410.204876  	92.285317 
3411.169301  	92.319049 
3412.133725  	92.334279 
3413.098150  	92.333610 
3414.062574  	92.294344 
3415.026999  	92.255463 
3415.991423  	92.222061 
3416.955848  	92.218704 
3417.920272  	92.219021 
3418.884697  	92.141111 
3419.849121  	91.895065 
3420.813545  	91.631576 
3421.777970  	91.645872 
3422.742394  	91.746512 
3423.706819  	91.896761 
3424.671243  	92.068328 
3425.635668  	92.121484 
3426.600092  	92.074906 
3427.564517  	92.041406 
3428.528941  	92.048706 
3429.493366  	92.098206 
3430.457790  	92.049107 
3431.422214  	92.004639 
3432.386639  	92.000254 
3433.351063  	92.056432 
3434.315488  	92.152038 
3435.279912  	92.131795 
3436.244337  	92.128873 
3437.208761  	92.225982 
3438.173186  	92.202717 
3439.137610  	92.099363 
3440.102035  	92.130753 
3441.066459  	92.229231 
3442.030883  	92.133354 
3442.995308  	91.873402 
3443.959732  	92.040623 
3444.924157  	92.122824 
3445.888581  	92.008881 
3446.853006  	91.584991 
3447.817430  	91.281253 
3448.781855  	91.907938 
3449.746279  	92.282441 
3450.710704  	92.349905 
3451.675128  	92.326132 
3452.639552  	92.350938 
3453.603977  	92.381652 
3454.568401  	92.361186 
3455.532826  	92.324549 
3456.497250  	92.358596 
3457.461675  	92.338931 
3458.426099  	92.276771 
3459.390524  	92.279005 
3460.354948  	92.259480 
3461.319373  	92.119732 
3462.283797  	92.099737 
3463.248221  	92.096649 
3464.212646  	92.317208 
3465.177070  	92.387450 
3466.141495  	92.271396 
3467.105919  	92.089495 
3468.070344  	92.287181 
3469.034768  	92.472098 
3469.999193  	92.412252 
3470.963617  	92.290019 
3471.928042  	92.255263 
3472.892466  	92.330031 
3473.856891  	92.417761 
3474.821315  	92.247810 
3475.785739  	92.240487 
3476.750164  	92.420655 
3477.714588  	92.455802 
3478.679013  	92.457754 
3479.643437  	92.384833 
3480.607862  	92.067111 
3481.572286  	91.919516 
3482.536711  	91.777333 
3483.501135  	92.058346 
3484.465560  	92.335314 
3485.429984  	92.313266 
3486.394408  	92.370935 
3487.358833  	92.384182 
3488.323257  	92.023047 
3489.287682  	92.028664 
3490.252106  	92.306581 
3491.216531  	92.297478 
3492.180955  	92.332437 
3493.145380  	92.452164 
3494.109804  	92.537182 
3495.074229  	92.384661 
3496.038653  	92.107164 
3497.003077  	91.968401 
3497.967502  	92.158745 
3498.931926  	92.331022 
3499.896351  	92.253927 
3500.860775  	92.162496 
3501.825200  	91.807071 
3502.789624  	91.269503 
3503.754049  	91.186561 
3504.718473  	91.611271 
3505.682898  	91.926398 
3506.647322  	92.235270 
3507.611746  	92.383028 
3508.576171  	92.070269 
3509.540595  	91.325633 
3510.505020  	91.480032 
3511.469444  	91.976109 
3512.433869  	92.096028 
3513.398293  	92.173074 
3514.362718  	92.323126 
3515.327142  	92.465591 
3516.291567  	92.394330 
3517.255991  	92.196088 
3518.220415  	92.154118 
3519.184840  	92.164157 
3520.149264  	92.182447 
3521.113689  	92.323616 
3522.078113  	92.068908 
3523.042538  	91.170312 
3524.006962  	90.812007 
3524.971387  	91.208405 
3525.935811  	91.365249 
3526.900236  	91.273792 
3527.864660  	91.144722 
3528.829085  	91.301779 
3529.793509  	91.576720 
3530.757933  	91.888526 
3531.722358  	91.877247 
3532.686782  	92.102836 
3533.651207  	92.323297 
3534.615631  	92.385815 
3535.580056  	92.050288 
3536.544480  	91.319120 
3537.508905  	91.592428 
3538.473329  	92.216874 
3539.437754  	92.173424 
3540.402178  	92.212217 
3541.366602  	92.244749 
3542.331027  	92.206591 
3543.295451  	91.919155 
3544.259876  	91.415342 
3545.224300  	90.430503 
3546.188725  	90.211677 
3547.153149  	90.320073 
3548.117574  	90.864434 
3549.081998  	91.759585 
3550.046423  	92.047166 
3551.010847  	91.959321 
3551.975271  	91.336576 
3552.939696  	91.014050 
3553.904120  	91.381020 
3554.868545  	91.797533 
3555.832969  	92.214778 
3556.797394  	92.119906 
3557.761818  	92.133273 
3558.726243  	92.285327 
3559.690667  	91.825734 
3560.655092  	91.282239 
3561.619516  	91.699389 
3562.583940  	91.724214 
3563.548365  	91.627247 
3564.512789  	91.604604 
3565.477214  	90.703270 
3566.441638  	88.283613 
3567.406063  	88.065641 
3568.370487  	88.552981 
3569.334912  	90.322850 
3570.299336  	91.570308 
3571.263761  	91.739244 
3572.228185  	92.110626 
3573.192609  	92.124328 
3574.157034  	92.014849 
3575.121458  	91.967031 
3576.085883  	92.049042 
3577.050307  	91.935984 
3578.014732  	91.995166 
3578.979156  	92.140161 
3579.943581  	91.709570 
3580.908005  	91.630928 
3581.872430  	92.067686 
3582.836854  	92.079810 
3583.801278  	91.926256 
3584.765703  	91.949564 
3585.730127  	91.500868 
3586.694552  	89.749754 
3587.658976  	88.816524 
3588.623401  	89.129369 
3589.587825  	90.294954 
3590.552250  	91.784111 
3591.516674  	92.139385 
3592.481099  	91.968810 
3593.445523  	91.225507 
3594.409948  	91.258595 
3595.374372  	90.753455 
3596.338796  	90.636196 
3597.303221  	91.595040 
3598.267645  	91.612270 
3599.232070  	91.289341 
3600.196494  	91.376847 
3601.160919  	91.076247 
3602.125343  	91.431789 
3603.089768  	91.692763 
3604.054192  	92.036172 
3605.018617  	92.296979 
3605.983041  	92.093094 
3606.947465  	90.858618 
3607.911890  	90.246872 
3608.876314  	90.526706 
3609.840739  	90.213826 
3610.805163  	91.326936 
3611.769588  	91.280889 
3612.734012  	89.925163 
3613.698437  	90.046365 
3614.662861  	90.278558 
3615.627286  	90.476052 
3616.591710  	91.537026 
3617.556134  	90.827162 
3618.520559  	89.817592 
3619.484983  	89.744511 
3620.449408  	89.905379 
3621.413832  	90.724722 
3622.378257  	91.459565 
3623.342681  	91.984823 
3624.307106  	92.179046 
3625.271530  	92.077003 
3626.235955  	91.522046 
3627.200379  	91.262758 
3628.164803  	90.270012 
3629.129228  	87.293143 
3630.093652  	87.983863 
3631.058077  	90.586938 
3632.022501  	91.620942 
3632.986926  	91.672959 
3633.951350  	90.939900 
3634.915775  	91.371307 
3635.880199  	92.101295 
3636.844624  	92.193968 
3637.809048  	91.983432 
3638.773472  	91.856272 
3639.737897  	92.121804 
3640.702321  	92.173263 
3641.666746  	91.867729 
3642.631170  	91.432156 
3643.595595  	91.724509 
3644.560019  	92.126804 
3645.524444  	91.795394 
3646.488868  	90.567116 
3647.453293  	88.578903 
3648.417717  	88.783914 
3649.382142  	88.519738 
3650.346566  	87.643922 
3651.310990  	87.970848 
3652.275415  	90.261708 
3653.239839  	91.701434 
3654.204264  	92.101310 
3655.168688  	91.912248 
3656.133113  	90.832117 
3657.097537  	90.657850 
3658.061962  	91.882218 
3659.026386  	92.160321 
3659.990811  	92.070102 
3660.955235  	92.186226 
3661.919659  	92.412610 
3662.884084  	92.441465 
3663.848508  	92.466694 
3664.812933  	92.408821 
3665.777357  	92.390792 
3666.741782  	92.468118 
3667.706206  	92.352479 
3668.670631  	91.266414 
3669.635055  	90.025978 
3670.599480  	89.248636 
3671.563904  	89.923244 
3672.528328  	91.613653 
3673.492753  	91.835974 
3674.457177  	90.521098 
3675.421602  	87.423388 
3676.386026  	88.158567 
3677.350451  	90.261930 
3678.314875  	91.096601 
3679.279300  	91.099674 
3680.243724  	91.167667 
3681.208149  	92.076368 
3682.172573  	92.467103 
3683.136997  	92.468062 
3684.101422  	92.304281 
3685.065846  	92.185514 
3686.030271  	92.366100 
3686.994695  	92.220395 
3687.959120  	91.308063 
3688.923544  	90.242802 
3689.887969  	90.892584 
3690.852393  	90.141281 
3691.816818  	89.963913 
3692.781242  	91.704877 
3693.745666  	92.159840 
3694.710091  	92.289399 
3695.674515  	92.413511 
3696.638940  	92.276909 
3697.603364  	92.377592 
3698.567789  	92.633562 
3699.532213  	92.556966 
3700.496638  	92.481524 
3701.461062  	91.594282 
3702.425487  	90.942070 
3703.389911  	92.075326 
3704.354335  	92.569755 
3705.318760  	92.454107 
3706.283184  	92.454817 
3707.247609  	92.583057 
3708.212033  	92.428305 
3709.176458  	91.635788 
3710.140882  	90.988870 
3711.105307  	90.659715 
3712.069731  	89.470259 
3713.034156  	89.894465 
3713.998580  	91.414931 
3714.963005  	91.420994 
3715.927429  	91.789612 
3716.891853  	92.506136 
3717.856278  	92.553925 
3718.820702  	91.803103 
3719.785127  	91.458474 
3720.749551  	92.102109 
3721.713976  	91.665897 
3722.678400  	90.288760 
3723.642825  	90.979479 
3724.607249  	91.340347 
3725.571674  	90.629487 
3726.536098  	90.431120 
3727.500522  	90.711064 
3728.464947  	91.753838 
3729.429371  	92.370287 
3730.393796  	92.290615 
3731.358220  	91.812725 
3732.322645  	90.925625 
3733.287069  	91.112334 
3734.251494  	90.366747 
3735.215918  	86.960085 
3736.180343  	87.430075 
3737.144767  	89.165207 
3738.109191  	90.261618 
3739.073616  	90.762964 
3740.038040  	91.398811 
3741.002465  	90.968193 
3741.966889  	91.149166 
3742.931314  	91.800485 
3743.895738  	90.621664 
3744.860163  	86.902538 
3745.824587  	89.577436 
3746.789012  	90.736651 
3747.753436  	90.758378 
3748.717860  	90.574552 
3749.682285  	89.988314 
3750.646709  	89.930116 
3751.611134  	89.439697 
3752.575558  	88.230047 
3753.539983  	90.208297 
3754.504407  	91.274593 
3755.468832  	91.788152 
3756.433256  	91.495926 
3757.397681  	91.594165 
3758.362105  	91.818193 
3759.326529  	90.724314 
3760.290954  	90.294311 
3761.255378  	91.897783 
3762.219803  	92.289343 
3763.184227  	92.373606 
3764.148652  	92.421547 
3765.113076  	91.920227 
3766.077501  	90.957746 
3767.041925  	91.782344 
3768.006350  	92.329415 
3768.970774  	91.971501 
3769.935199  	90.921871 
3770.899623  	91.187742 
3771.864047  	92.051113 
3772.828472  	92.410774 
3773.792896  	92.571351 
3774.757321  	92.665228 
3775.721745  	92.723895 
3776.686170  	92.763128 
3777.650594  	92.635632 
3778.615019  	92.152355 
3779.579443  	91.209600 
3780.543868  	91.491853 
3781.508292  	92.374953 
3782.472716  	92.449689 
3783.437141  	92.497754 
3784.401565  	92.059738 
3785.365990  	91.544537 
3786.330414  	91.960703 
3787.294839  	92.356415 
3788.259263  	92.586622 
3789.223688  	92.638915 
3790.188112  	92.622400 
3791.152537  	92.719841 
3792.116961  	92.746763 
3793.081385  	92.735219 
3794.045810  	92.742539 
3795.010234  	92.605157 
3795.974659  	92.007093 
3796.939083  	91.094119 
3797.903508  	91.426312 
3798.867932  	92.051842 
3799.832357  	92.130219 
3800.796781  	91.000101 
3801.761206  	89.502953 
3802.725630  	90.151433 
3803.690054  	91.241779 
3804.654479  	92.223606 
3805.618903  	92.353073 
3806.583328  	91.554692 
3807.547752  	90.885289 
3808.512177  	92.023994 
3809.476601  	92.408857 
3810.441026  	92.455219 
3811.405450  	92.649641 
3812.369875  	92.765175 
3813.334299  	92.760862 
3814.298723  	92.598177 
3815.263148  	91.845917 
3816.227572  	90.248077 
3817.191997  	90.944433 
3818.156421  	91.889784 
3819.120846  	91.787616 
3820.085270  	91.005532 
3821.049695  	89.274672 
3822.014119  	89.291261 
3822.978544  	91.091868 
3823.942968  	91.676104 
3824.907392  	91.968330 
3825.871817  	91.937228 
3826.836241  	91.306113 
3827.800666  	91.463741 
3828.765090  	92.186404 
3829.729515  	92.491541 
3830.693939  	92.361993 
3831.658364  	91.503703 
3832.622788  	91.577965 
3833.587213  	92.231831 
3834.551637  	91.675059 
3835.516062  	91.113173 
3836.480486  	91.800208 
3837.444910  	91.209534 
3838.409335  	89.996037 
3839.373759  	90.521361 
3840.338184  	89.872836 
3841.302608  	90.068432 
3842.267033  	91.626769 
3843.231457  	91.624055 
3844.195882  	90.777886 
3845.160306  	91.743343 
3846.124731  	92.339230 
3847.089155  	92.455353 
3848.053579  	92.543413 
3849.018004  	92.287765 
3849.982428  	91.708797 
3850.946853  	91.698472 
3851.911277  	90.803465 
3852.875702  	89.070058 
3853.840126  	88.170721 
3854.804551  	88.722681 
3855.768975  	91.081687 
3856.733400  	91.139037 
3857.697824  	90.636776 
3858.662248  	91.821927 
3859.626673  	92.551884 
3860.591097  	92.490235 
3861.555522  	91.743942 
3862.519946  	91.164736 
3863.484371  	91.580433 
3864.448795  	90.702594 
3865.413220  	89.543572 
3866.377644  	91.185873 
3867.342069  	92.270851 
3868.306493  	92.201520 
3869.270917  	90.807471 
3870.235342  	88.646286 
3871.199766  	90.085152 
3872.164191  	91.468521 
3873.128615  	91.820722 
3874.093040  	90.428982 
3875.057464  	90.504521 
3876.021889  	92.224006 
3876.986313  	92.602631 
3877.950738  	92.704750 
3878.915162  	92.617399 
3879.879586  	91.426302 
3880.844011  	89.437921 
3881.808435  	90.832837 
3882.772860  	91.844230 
3883.737284  	91.576426 
3884.701709  	91.553993 
3885.666133  	90.573243 
3886.630558  	90.229953 
3887.594982  	91.968258 
3888.559407  	92.517406 
3889.523831  	92.583105 
3890.488256  	92.095553 
3891.452680  	90.710109 
3892.417104  	90.727047 
3893.381529  	91.723604 
3894.345953  	91.637625 
3895.310378  	92.067743 
3896.274802  	92.631144 
3897.239227  	92.617482 
3898.203651  	91.844088 
3899.168076  	90.631386 
3900.132500  	90.566900 
3901.096925  	91.339079 
3902.061349  	89.949993 
3903.025773  	90.107160 
3903.990198  	90.518659 
3904.954622  	89.926111 
3905.919047  	90.329449 
3906.883471  	91.250436 
3907.847896  	92.396125 
3908.812320  	92.732298 
3909.776745  	92.765105 
3910.741169  	92.756429 
3911.705594  	92.757357 
3912.670018  	92.725985 
3913.634442  	92.736134 
3914.598867  	92.775458 
3915.563291  	92.601381 
3916.527716  	91.556818 
3917.492140  	90.674504 
3918.456565  	91.698301 
3919.420989  	91.999723 
3920.385414  	91.265076 
3921.349838  	91.935120 
3922.314263  	92.659250 
3923.278687  	92.268344 
3924.243111  	91.345131 
3925.207536  	90.827321 
3926.171960  	91.690216 
3927.136385  	92.603379 
3928.100809  	92.620579 
3929.065234  	92.359839 
3930.029658  	92.010906 
3930.994083  	91.787557 
3931.958507  	91.288004 
3932.922932  	90.810471 
3933.887356  	91.711045 
3934.851780  	92.236442 
3935.816205  	92.607425 
3936.780629  	92.818537 
3937.745054  	92.731275 
3938.709478  	92.468247 
3939.673903  	92.633098 
3940.638327  	92.762386 
3941.602752  	92.544610 
3942.567176  	91.495966 
3943.531601  	91.038609 
3944.496025  	91.983121 
3945.460449  	92.501681 
3946.424874  	92.640376 
3947.389298  	91.915320 
3948.353723  	91.449297 
3949.318147  	91.763370 
3950.282572  	91.464067 
3951.246996  	91.962806 
3952.211421  	92.605234 
3953.175845  	92.483262 
3954.140270  	92.609528 
3955.104694  	92.737845 
3956.069119  	92.657117 
3957.033543  	92.491457 
3957.997967  	92.483052 
3958.962392  	92.572145 
3959.926816  	92.623662 
3960.891241  	92.588906 
3961.855665  	92.104471 
3962.820090  	92.052297 
3963.784514  	92.612329 
3964.748939  	92.691178 
3965.713363  	92.751548 
3966.677788  	92.805473 
3967.642212  	92.785225 
3968.606636  	92.588107 
3969.571061  	92.433571 
3970.535485  	92.643403 
3971.499910  	92.722241 
3972.464334  	92.481915 
3973.428759  	92.579155 
3974.393183  	92.657342 
3975.357608  	92.460964 
3976.322032  	92.292533 
3977.286457  	92.520717 
3978.250881  	92.800012 
3979.215305  	92.814676 
3980.179730  	92.766292 
3981.144154  	92.714910 
3982.108579  	92.669021 
3983.073003  	92.731077 
3984.037428  	92.852264 
3985.001852  	92.816355 
3985.966277  	92.762292 
3986.930701  	92.824940 
3987.895126  	92.834999 
3988.859550  	92.792528 
3989.823974  	92.651013 
3990.788399  	92.427595 
3991.752823  	92.547200 
3992.717248  	92.740503 
3993.681672  	92.780533 
3994.646097  	92.697511 
3995.610521  	92.579181 
3996.574946  	92.744515 
3997.539370  	92.842577 
3998.503795  	92.849056 
3999.468219  	92.830388 
4000.432643  	92.854884 
4001.397068  	92.864461 
4002.361492  	92.837740 
4003.325917  	92.804295 
4004.290341  	92.844484 
4005.254766  	92.857388 
4006.219190  	92.829468 
4007.183615  	92.826777 
4008.148039  	92.737004 
4009.112464  	92.600959 
4010.076888  	92.738261 
4011.041313  	92.789870 
4012.005737  	92.773337 
4012.970161  	92.759652 
4013.934586  	92.791139 
4014.899010  	92.806267 
4015.863435  	92.812212 
4016.827859  	92.829716 
4017.792284  	92.874198 
4018.756708  	92.861362 
4019.721133  	92.773983 
4020.685557  	92.749673 
4021.649982  	92.777069 
4022.614406  	92.816960 
4023.578830  	92.857043 
4024.543255  	92.792211 
4025.507679  	92.683713 
4026.472104  	92.726461 
4027.436528  	92.852558 
4028.400953  	92.835682 
4029.365377  	92.804529 
4030.329802  	92.822750 
4031.294226  	92.861681 
4032.258651  	92.872869 
4033.223075  	92.912120 
4034.187499  	92.893910 
4035.151924  	92.843860 
4036.116348  	92.850783 
4037.080773  	92.907756 
4038.045197  	92.926219 
4039.009622  	92.921646 
4039.974046  	92.886035 
4040.938471  	92.868272 
4041.902895  	92.845101 
4042.867320  	92.889803 
4043.831744  	92.817981 
4044.796168  	92.705133 
4045.760593  	92.708064 
4046.725017  	92.809827 
4047.689442  	92.846239 
4048.653866  	92.852567 
4049.618291  	92.867838 
4050.582715  	92.881810 
4051.547140  	92.848842 
4052.511564  	92.839693 
4053.475989  	92.879558 
4054.440413  	92.873974 
4055.404837  	92.836104 
4056.369262  	92.885520 
4057.333686  	92.924886 
4058.298111  	92.885982 
4059.262535  	92.866143 
4060.226960  	92.822707 
4061.191384  	92.764937 
4062.155809  	92.829154 
4063.120233  	92.878185 
4064.084658  	92.877337 
4065.049082  	92.866663 
4066.013506  	92.871613 
4066.977931  	92.824752 
4067.942355  	92.816004 
4068.906780  	92.851565 
4069.871204  	92.863765 
4070.835629  	92.825778 
4071.800053  	92.845029 
4072.764478  	92.811205 
4073.728902  	92.761846 
4074.693327  	92.782488 
4075.657751  	92.821294 
4076.622176  	92.814337 
4077.586600  	92.852260 
4078.551024  	92.853181 
4079.515449  	92.818105 
4080.479873  	92.797740 
4081.444298  	92.791385 
4082.408722  	92.771793 
4083.373147  	92.755715 
4084.337571  	92.725351 
4085.301996  	92.727994 
4086.266420  	92.726512 
4087.230845  	92.756581 
4088.195269  	92.688714 
4089.159693  	92.696194 
4090.124118  	92.796961 
4091.088542  	92.808761 
4092.052967  	92.791364 
4093.017391  	92.826826 
4093.981816  	92.820265 
4094.946240  	92.785556 
4095.910665  	92.812416 
4096.875089  	92.907356 
4097.839514  	92.893381 
4098.803938  	92.856303 
4099.768362  	92.883066 
4100.732787  	92.873511 
4101.697211  	92.843693 
4102.661636  	92.847985 
4103.626060  	92.855679 
4104.590485  	92.848617 
4105.554909  	92.781371 
4106.519334  	92.746528 
4107.483758  	92.738813 
4108.448183  	92.820488 
4109.412607  	92.871804 
4110.377031  	92.809142 
4111.341456  	92.800099 
4112.305880  	92.851576 
4113.270305  	92.866502 
4114.234729  	92.859636 
4115.199154  	92.894430 
4116.163578  	92.860314 
4117.128003  	92.870464 
4118.092427  	92.877049 
4119.056852  	92.843814 
4120.021276  	92.791919 
4120.985700  	92.777727 
4121.950125  	92.841806 
4122.914549  	92.840903 
4123.878974  	92.843523 
4124.843398  	92.872027 
4125.807823  	92.888389 
4126.772247  	92.836097 
4127.736672  	92.837594 
4128.701096  	92.862213 
4129.665521  	92.853686 
4130.629945  	92.864666 
4131.594370  	92.870913 
4132.558794  	92.850123 
4133.523218  	92.815200 
4134.487643  	92.838168 
4135.452067  	92.917489 
4136.416492  	92.955612 
4137.380916  	92.928855 
4138.345341  	92.888252 
4139.309765  	92.825011 
4140.274190  	92.832604 
4141.238614  	92.862852 
4142.203039  	92.851106 
4143.167463  	92.934048 
4144.131887  	92.932829 
4145.096312  	92.891460 
4146.060736  	92.861429 
4147.025161  	92.891169 
4147.989585  	92.890811 
4148.954010  	92.843365 
4149.918434  	92.826682 
4150.882859  	92.850597 
4151.847283  	92.874474 
4152.811708  	92.883982 
4153.776132  	92.907758 
4154.740556  	92.904225 
4155.704981  	92.843721 
4156.669405  	92.824151 
4157.633830  	92.858671 
4158.598254  	92.904368 
4159.562679  	92.874306 
4160.527103  	92.839821 
4161.491528  	92.877877 
4162.455952  	92.918726 
4163.420377  	92.942165 
4164.384801  	92.935113 
4165.349225  	92.913903 
4166.313650  	92.912189 
4167.278074  	92.902725 
4168.242499  	92.889125 
4169.206923  	92.923650 
4170.171348  	92.929468 
4171.135772  	92.873546 
4172.100197  	92.897766 
4173.064621  	92.929543 
4174.029046  	92.933334 
4174.993470  	92.944302 
4175.957894  	92.984021 
4176.922319  	92.987697 
4177.886743  	92.951397 
4178.851168  	92.889184 
4179.815592  	92.843282 
4180.780017  	92.840462 
4181.744441  	92.885235 
4182.708866  	92.930024 
4183.673290  	92.946185 
4184.637715  	92.921249 
4185.602139  	92.876688 
4186.566563  	92.825147 
4187.530988  	92.840247 
4188.495412  	92.871902 
4189.459837  	92.961483 
4190.424261  	93.001365 
4191.388686  	92.935226 
4192.353110  	92.945983 
4193.317535  	92.937770 
4194.281959  	92.890676 
4195.246384  	92.914464 
4196.210808  	92.908717 
4197.175233  	92.892829 
4198.139657  	92.918076 
4199.104081  	92.908609 
4200.068506  	92.882945 
4201.032930  	92.856454 
4201.997355  	92.895781 
4202.961779  	92.964825 
4203.926204  	92.943164 
4204.890628  	92.917431 
4205.855053  	92.920088 
4206.819477  	92.886630 
4207.783902  	92.881227 
4208.748326  	92.894654 
4209.712750  	92.899358 
4210.677175  	92.908260 
4211.641599  	92.891959 
4212.606024  	92.919724 
4213.570448  	92.944617 
4214.534873  	92.991672 
4215.499297  	92.931688 
4216.463722  	92.893917 
4217.428146  	92.870216 
4218.392571  	92.848909 
4219.356995  	92.878456 
4220.321419  	92.942587 
4221.285844  	92.977867 
4222.250268  	92.976393 
4223.214693  	92.869451 
4224.179117  	92.825211 
4225.143542  	92.893398 
4226.107966  	92.925537 
4227.072391  	92.951557 
4228.036815  	92.922340 
4229.001240  	92.897731 
4229.965664  	92.893913 
4230.930088  	92.899629 
4231.894513  	92.936708 
4232.858937  	92.938969 
4233.823362  	92.948096 
4234.787786  	92.936644 
4235.752211  	92.938593 
4236.716635  	92.919442 
4237.681060  	92.906675 
4238.645484  	92.905505 
4239.609909  	92.941251 
4240.574333  	92.924341 
4241.538757  	92.914961 
4242.503182  	92.940614 
4243.467606  	92.958857 
4244.432031  	92.904818 
4245.396455  	92.872056 
4246.360880  	92.892079 
4247.325304  	92.947624 
4248.289729  	92.945614 
4249.254153  	92.921804 
4250.218578  	92.939309 
4251.183002  	92.952658 
4252.147427  	92.929026 
4253.111851  	92.918419 
4254.076275  	92.887210 
4255.040700  	92.855441 
4256.005124  	92.850153 
4256.969549  	92.967949 
4257.933973  	93.016975 
4258.898398  	92.931242 
4259.862822  	92.861856 
4260.827247  	92.840296 
4261.791671  	92.848535 
4262.756096  	92.867221 
4263.720520  	92.873181 
4264.684944  	92.889835 
4265.649369  	92.897495 
4266.613793  	92.908998 
4267.578218  	92.876918 
4268.542642  	92.852568 
4269.507067  	92.853733 
4270.471491  	92.889321 
4271.435916  	92.947810 
4272.400340  	92.944393 
4273.364765  	92.920204 
4274.329189  	92.915832 
4275.293613  	92.900611 
4276.258038  	92.929905 
4277.222462  	92.969965 
4278.186887  	92.922262 
4279.151311  	92.806643 
4280.115736  	92.800819 
4281.080160  	92.907562 
4282.044585  	92.928004 
4283.009009  	92.858564 
4283.973434  	92.864507 
4284.937858  	92.852515 
4285.902282  	92.817793 
4286.866707  	92.844356 
4287.831131  	92.877426 
4288.795556  	92.957493 
4289.759980  	92.971631 
4290.724405  	92.869878 
4291.688829  	92.857142 
4292.653254  	92.857052 
4293.617678  	92.896917 
4294.582103  	92.931696 
4295.546527  	92.920697 
4296.510951  	92.877188 
4297.475376  	92.882178 
4298.439800  	92.902435 
4299.404225  	92.917707 
4300.368649  	92.915686 
4301.333074  	92.881791 
4302.297498  	92.818683 
4303.261923  	92.877538 
4304.226347  	92.951974 
4305.190772  	93.026431 
4306.155196  	92.943611 
4307.119620  	92.878364 
4308.084045  	92.865906 
4309.048469  	92.909721 
4310.012894  	92.942916 
4310.977318  	92.953362 
4311.941743  	92.905553 
4312.906167  	92.874781 
4313.870592  	92.890534 
4314.835016  	92.923707 
4315.799441  	92.876366 
4316.763865  	92.831727 
4317.728290  	92.901899 
4318.692714  	93.016328 
4319.657138  	93.011417 
4320.621563  	92.994485 
4321.585987  	92.918431 
4322.550412  	92.885712 
4323.514836  	92.892832 
4324.479261  	92.893566 
4325.443685  	92.896906 
4326.408110  	92.964535 
4327.372534  	93.023684 
4328.336959  	93.040499 
4329.301383  	93.014069 
4330.265807  	92.989095 
4331.230232  	92.978605 
4332.194656  	92.912598 
4333.159081  	92.920743 
4334.123505  	92.974953 
4335.087930  	92.944372 
4336.052354  	92.912494 
4337.016779  	92.908812 
4337.981203  	92.946670 
4338.945628  	92.958516 
4339.910052  	92.896767 
4340.874476  	92.863956 
4341.838901  	92.950190 
4342.803325  	92.998390 
4343.767750  	92.946143 
4344.732174  	92.920611 
4345.696599  	92.876455 
4346.661023  	92.877441 
4347.625448  	92.893797 
4348.589872  	92.870316 
4349.554297  	92.933613 
4350.518721  	92.994445 
4351.483145  	92.974688 
4352.447570  	92.936022 
4353.411994  	92.954963 
4354.376419  	92.925410 
4355.340843  	92.903212 
4356.305268  	92.938329 
4357.269692  	92.955480 
4358.234117  	92.977395 
4359.198541  	92.949246 
4360.162966  	92.910480 
4361.127390  	92.950892 
4362.091814  	92.960017 
4363.056239  	92.950011 
4364.020663  	92.990129 
4364.985088  	92.981467 
4365.949512  	92.923900 
4366.913937  	92.877544 
4367.878361  	92.824472 
4368.842786  	92.880104 
4369.807210  	92.928838 
4370.771635  	92.918508 
4371.736059  	92.916528 
4372.700484  	92.942262 
4373.664908  	93.007105 
4374.629332  	93.065485 
4375.593757  	93.081112 
4376.558181  	93.069853 
4377.522606  	93.037472 
4378.487030  	92.964835 
4379.451455  	92.906159 
4380.415879  	92.895118 
4381.380304  	92.885712 
4382.344728  	92.949385 
4383.309153  	92.970157 
4384.273577  	92.983854 
4385.238001  	93.040906 
4386.202426  	93.018644 
4387.166850  	92.946161 
4388.131275  	92.937825 
4389.095699  	92.912273 
4390.060124  	92.887460 
4391.024548  	92.929933 
4391.988973  	93.022172 
4392.953397  	93.014195 
4393.917822  	92.992946 
4394.882246  	92.924370 
4395.846670  	92.894497 
4396.811095  	92.883517 
4397.775519  	92.943032 
4398.739944  	92.984757 
4399.704368  	92.986315 
4400.668793  	93.026402 
4401.633217  	92.917182 
4402.597642  	92.831165 
4403.562066  	92.925073 
4404.526491  	92.990116 
4405.490915  	92.956823 
4406.455339  	92.880334 
4407.419764  	92.910158 
4408.384188  	92.989474 
4409.348613  	93.020405 
4410.313037  	92.963084 
4411.277462  	92.921223 
4412.241886  	92.941403 
4413.206311  	92.971886 
4414.170735  	92.972511 
4415.135160  	92.958795 
4416.099584  	92.953281 
4417.064008  	92.894556 
4418.028433  	92.854223 
4418.992857  	92.897723 
4419.957282  	92.889377 
4420.921706  	92.874858 
4421.886131  	92.870912 
4422.850555  	92.795476 
4423.814980  	92.823516 
4424.779404  	92.869502 
4425.743829  	92.863070 
4426.708253  	92.882673 
4427.672677  	92.840217 
4428.637102  	92.850531 
4429.601526  	92.910968 
4430.565951  	92.912093 
4431.530375  	92.841359 
4432.494800  	92.772087 
4433.459224  	92.761643 
4434.423649  	92.825069 
4435.388073  	92.887530 
4436.352498  	92.940979 
4437.316922  	92.926067 
4438.281347  	92.911019 
4439.245771  	92.887348 
4440.210195  	92.919361 
4441.174620  	92.900660 
4442.139044  	92.868902 
4443.103469  	92.942004 
4444.067893  	92.932307 
4445.032318  	92.942828 
4445.996742  	92.959128 
4446.961167  	92.909237 
4447.925591  	92.892702 
4448.890016  	92.860724 
4449.854440  	92.819420 
4450.818864  	92.853656 
4451.783289  	92.913153 
4452.747713  	92.911656 
4453.712138  	92.921181 
4454.676562  	92.881428 
4455.640987  	92.869094 
4456.605411  	92.955594 
4457.569836  	92.963095 
4458.534260  	92.872739 
4459.498685  	92.834353 
4460.463109  	92.810247 
4461.427533  	92.842310 
4462.391958  	92.897723 
4463.356382  	92.958556 
4464.320807  	92.965956 
4465.285231  	92.927455 
4466.249656  	92.923068 
4467.214080  	92.932844 
4468.178505  	92.929915 
4469.142929  	92.965409 
4470.107354  	92.958992 
4471.071778  	92.919285 
4472.036202  	92.944772 
4473.000627  	92.974380 
4473.965051  	92.976728 
4474.929476  	92.902003 
4475.893900  	92.900110 
4476.858325  	92.946663 
4477.822749  	92.951385 
4478.787174  	92.976199 
4479.751598  	92.932541 
4480.716023  	92.923845 
4481.680447  	92.955841 
4482.644871  	92.917046 
4483.609296  	92.915162 
4484.573720  	92.973508 
4485.538145  	93.002351 
4486.502569  	92.958848 
4487.466994  	92.944659 
4488.431418  	93.002672 
4489.395843  	92.941978 
4490.360267  	92.899372 
4491.324692  	92.953324 
4492.289116  	92.979434 
4493.253541  	92.993678 
4494.217965  	92.939119 
4495.182389  	92.917729 
4496.146814  	92.961981 
4497.111238  	93.015891 
4498.075663  	93.020417 
4499.040087  	93.006948 
4500.004512  	92.985492 
4500.968936  	92.990591 
4501.933361  	93.004570 
4502.897785  	92.977301 
4503.862210  	93.003353 
4504.826634  	93.002905 
4505.791058  	92.989410 
4506.755483  	92.949756 
4507.719907  	92.906664 
4508.684332  	92.949426 
4509.648756  	92.962472 
4510.613181  	92.945600 
4511.577605  	93.045897 
4512.542030  	93.108165 
4513.506454  	93.094023 
4514.470879  	92.966922 
4515.435303  	92.866970 
4516.399727  	92.888804 
4517.364152  	92.915769 
4518.328576  	92.978259 
4519.293001  	93.007134 
4520.257425  	92.966290 
4521.221850  	92.931307 
4522.186274  	92.971502 
4523.150699  	92.996250 
4524.115123  	92.917837 
4525.079548  	92.880909 
4526.043972  	92.876008 
4527.008396  	92.929311 
4527.972821  	92.936016 
4528.937245  	92.932954 
4529.901670  	92.930984 
4530.866094  	93.000138 
4531.830519  	93.011863 
4532.794943  	92.954014 
4533.759368  	92.945556 
4534.723792  	92.967377 
4535.688217  	92.964156 
4536.652641  	92.989111 
4537.617065  	93.032619 
4538.581490  	93.031004 
4539.545914  	92.971757 
4540.510339  	92.965751 
4541.474763  	92.970533 
4542.439188  	92.952551 
4543.403612  	92.982074 
4544.368037  	92.978989 
4545.332461  	92.952473 
4546.296886  	92.998392 
4547.261310  	93.013326 
4548.225734  	93.065331 
4549.190159  	93.058088 
4550.154583  	93.013961 
4551.119008  	92.952463 
4552.083432  	92.950356 
4553.047857  	93.000697 
4554.012281  	93.023761 
4554.976706  	92.983962 
4555.941130  	92.962887 
4556.905555  	92.934699 
4557.869979  	92.969048 
4558.834404  	93.046974 
4559.798828  	92.978454 
4560.763252  	92.881879 
4561.727677  	92.890607 
4562.692101  	92.945040 
4563.656526  	93.047897 
4564.620950  	93.009564 
4565.585375  	92.928917 
4566.549799  	92.931048 
4567.514224  	92.920961 
4568.478648  	92.884672 
4569.443073  	92.888805 
4570.407497  	92.927085 
4571.371921  	92.992266 
4572.336346  	93.011932 
4573.300770  	92.980831 
4574.265195  	92.930533 
4575.229619  	92.925968 
4576.194044  	92.899186 
4577.158468  	92.865043 
4578.122893  	92.983411 
4579.087317  	93.097723 
4580.051742  	93.056794 
4581.016166  	92.996497 
4581.980590  	92.951168 
4582.945015  	92.986768 
4583.909439  	93.012254 
4584.873864  	92.988618 
4585.838288  	92.934455 
4586.802713  	92.961839 
4587.767137  	92.934889 
4588.731562  	92.931500 
4589.695986  	92.928644 
4590.660411  	92.873890 
4591.624835  	92.856653 
4592.589259  	92.918691 
4593.553684  	92.970955 
4594.518108  	92.945845 
4595.482533  	92.906401 
4596.446957  	92.935193 
4597.411382  	92.843872 
4598.375806  	92.828232 
4599.340231  	92.944495 
4600.304655  	93.017710 
4601.269080  	92.999417 
4602.233504  	92.966101 
4603.197928  	92.981836 
4604.162353  	93.030736 
4605.126777  	93.030411 
4606.091202  	93.012521 
4607.055626  	92.985800 
4608.020051  	92.977485 
4608.984475  	92.953151 
4609.948900  	92.936320 
4610.913324  	92.927262 
4611.877749  	92.924259 
4612.842173  	92.938541 
4613.806598  	93.028253 
4614.771022  	93.016504 
4615.735446  	92.964027 
4616.699871  	92.950820 
4617.664295  	92.946162 
4618.628720  	92.933095 
4619.593144  	92.940122 
4620.557569  	93.001609 
4621.521993  	92.991647 
4622.486418  	92.883765 
4623.450842  	92.901612 
4624.415267  	92.994796 
4625.379691  	93.054540 
4626.344115  	93.027486 
4627.308540  	92.999040 
4628.272964  	92.961249 
4629.237389  	92.917943 
4630.201813  	92.882223 
4631.166238  	92.879414 
4632.130662  	92.902717 
4633.095087  	92.895003 
4634.059511  	92.874872 
4635.023936  	93.016954 
4635.988360  	93.052839 
4636.952784  	92.953805 
4637.917209  	92.942319 
4638.881633  	92.902025 
4639.846058  	92.925586 
4640.810482  	92.999563 
4641.774907  	92.990308 
4642.739331  	92.911290 
4643.703756  	92.859881 
4644.668180  	92.938956 
4645.632605  	92.921100 
4646.597029  	92.953295 
4647.561453  	92.950273 
4648.525878  	92.986071 
4649.490302  	93.031977 
4650.454727  	92.994111 
4651.419151  	92.946766 
4652.383576  	92.886284 
4653.348000  	92.860041 
4654.312425  	92.894054 
4655.276849  	92.933409 
4656.241274  	92.971023 
4657.205698  	92.921068 
4658.170122  	92.852726 
4659.134547  	92.820695 
4660.098971  	92.856203 
4661.063396  	92.961849 
4662.027820  	93.038732 
4662.992245  	92.988933 
4663.956669  	92.967129 
4664.921094  	92.965234 
4665.885518  	92.959594 
4666.849943  	92.973702 
4667.814367  	92.949895 
4668.778791  	92.989817 
4669.743216  	92.941913 
4670.707640  	92.877774 
4671.672065  	92.893992 
4672.636489  	92.889932 
4673.600914  	92.938639 
4674.565338  	92.892788 
4675.529763  	92.868178 
4676.494187  	92.968359 
4677.458612  	93.046107 
4678.423036  	93.064697 
4679.387461  	93.098744 
4680.351885  	93.082974 
4681.316309  	93.002776 
4682.280734  	92.947914 
4683.245158  	92.876019 
4684.209583  	92.876033 
4685.174007  	92.928351 
4686.138432  	92.910609 
4687.102856  	92.849199 
4688.067281  	92.875082 
4689.031705  	92.868907 
4689.996130  	92.902670 
4690.960554  	92.949926 
4691.924978  	92.923755 
4692.889403  	92.928446 
4693.853827  	92.952325 
4694.818252  	92.962148 
4695.782676  	92.936405 
4696.747101  	92.910274 
4697.711525  	92.969433 
4698.675950  	92.987650 
4699.640374  	92.933039 