##TITLE=No Description
##DATA TYPE=INFRARED SPECTRUM
##XUNITS=1/CM
##YUNITS=%T
400.236149  	157.651488 
401.200574  	116.023239 
402.164998  	74.645586 
403.129423  	73.874560 
404.093847  	84.161221 
405.058272  	86.415277 
406.022696  	97.855600 
406.987120  	99.618441 
407.951545  	98.430832 
408.915969  	89.920896 
409.880394  	83.229253 
410.844818  	81.959385 
411.809243  	90.596701 
412.773667  	94.281909 
413.738092  	87.327843 
414.702516  	78.973628 
415.666941  	76.922443 
416.631365  	84.047235 
417.595789  	90.623455 
418.560214  	95.167388 
419.524638  	90.700730 
420.489063  	86.040441 
421.453487  	85.419153 
422.417912  	85.226792 
423.382336  	83.926630 
424.346761  	80.920876 
425.311185  	77.894420 
426.275610  	78.510772 
427.240034  	79.098977 
428.204458  	80.529804 
429.168883  	82.007447 
430.133307  	82.194206 
431.097732  	80.468155 
432.062156  	77.374624 
433.026581  	75.771106 
433.991005  	76.594515 
434.955430  	77.058489 
435.919854  	76.252416 
436.884279  	76.327289 
437.848703  	77.729471 
438.813127  	77.961743 
439.777552  	78.540297 
440.741976  	79.427763 
441.706401  	81.715246 
442.670825  	81.304934 
443.635250  	81.493664 
444.599674  	83.307077 
445.564099  	82.253644 
446.528523  	81.570936 
447.492948  	81.084715 
448.457372  	81.846974 
449.421796  	82.424963 
450.386221  	82.869090 
451.350645  	82.617166 
452.315070  	81.526345 
453.279494  	81.756157 
454.243919  	82.858513 
455.208343  	82.658448 
456.172768  	81.737231 
457.137192  	81.416121 
458.101617  	81.982053 
459.066041  	82.469550 
460.030466  	82.346211 
460.994890  	82.102176 
461.959314  	82.341025 
462.923739  	82.743225 
463.888163  	82.604840 
464.852588  	82.117434 
465.817012  	82.529142 
466.781437  	82.917371 
467.745861  	81.611774 
468.710286  	80.633972 
469.674710  	80.840368 
470.639135  	80.424022 
471.603559  	79.849830 
472.567983  	79.874362 
473.532408  	81.115053 
474.496832  	81.020585 
475.461257  	81.296044 
476.425681  	80.873223 
477.390106  	80.786258 
478.354530  	81.114680 
479.318955  	80.885812 
480.283379  	80.638451 
481.247804  	80.956401 
482.212228  	80.660350 
483.176652  	80.946768 
484.141077  	81.468055 
485.105501  	81.203530 
486.069926  	80.443119 
487.034350  	80.439801 
487.998775  	80.460662 
488.963199  	80.741916 
489.927624  	81.108373 
490.892048  	80.459042 
491.856473  	79.693824 
492.820897  	80.262440 
493.785321  	80.151127 
494.749746  	79.336029 
495.714170  	78.729853 
496.678595  	78.365317 
497.643019  	78.205406 
498.607444  	77.854977 
499.571868  	77.593751 
500.536293  	77.417136 
501.500717  	76.581300 
502.465142  	76.017201 
503.429566  	76.642762 
504.393990  	76.833992 
505.358415  	76.796112 
506.322839  	76.634420 
507.287264  	76.775744 
508.251688  	78.177178 
509.216113  	79.500107 
510.180537  	80.105720 
511.144962  	80.845828 
512.109386  	81.556591 
513.073811  	81.328242 
514.038235  	81.075991 
515.002660  	81.022656 
515.967084  	80.645822 
516.931508  	80.257453 
517.895933  	81.170892 
518.860357  	81.170165 
519.824782  	80.480476 
520.789206  	80.952883 
521.753631  	81.385908 
522.718055  	81.674983 
523.682480  	81.593732 
524.646904  	81.399749 
525.611329  	80.989537 
526.575753  	80.910849 
527.540177  	81.578771 
528.504602  	82.008294 
529.469026  	82.111752 
530.433451  	82.038098 
531.397875  	81.890476 
532.362300  	82.259372 
533.326724  	82.494179 
534.291149  	82.348080 
535.255573  	82.593888 
536.219998  	82.625522 
537.184422  	82.721779 
538.148846  	82.553150 
539.113271  	82.714413 
540.077695  	82.900510 
541.042120  	83.417470 
542.006544  	83.478851 
542.970969  	83.455340 
543.935393  	83.411466 
544.899818  	83.298729 
545.864242  	83.123850 
546.828667  	83.335313 
547.793091  	83.293798 
548.757515  	83.297433 
549.721940  	83.375145 
550.686364  	83.453745 
551.650789  	83.684166 
552.615213  	83.306778 
553.579638  	83.345848 
554.544062  	83.520747 
555.508487  	83.578266 
556.472911  	83.447580 
557.437336  	83.327474 
558.401760  	83.409709 
559.366184  	83.451193 
560.330609  	83.114361 
561.295033  	83.040190 
562.259458  	83.284935 
563.223882  	83.098569 
564.188307  	82.952542 
565.152731  	83.193289 
566.117156  	83.186420 
567.081580  	82.985523 
568.046005  	83.009906 
569.010429  	82.912562 
569.974853  	82.996504 
570.939278  	82.958325 
571.903702  	82.975439 
572.868127  	83.093025 
573.832551  	83.041525 
574.796976  	82.874258 
575.761400  	82.388675 
576.725825  	82.601799 
577.690249  	82.784091 
578.654674  	82.793310 
579.619098  	82.795382 
580.583523  	82.421146 
581.547947  	82.717616 
582.512371  	83.081096 
583.476796  	82.899754 
584.441220  	82.642825 
585.405645  	82.652636 
586.370069  	83.122542 
587.334494  	83.261075 
588.298918  	83.032788 
589.263343  	82.739083 
590.227767  	82.766174 
591.192192  	82.347129 
592.156616  	81.911314 
593.121040  	82.535984 
594.085465  	82.820492 
595.049889  	82.659494 
596.014314  	82.549830 
596.978738  	82.675010 
597.943163  	82.748352 
598.907587  	82.481121 
599.872012  	82.037902 
600.836436  	82.175139 
601.800861  	82.558085 
602.765285  	82.595424 
603.729709  	82.395356 
604.694134  	82.230643 
605.658558  	82.328098 
606.622983  	82.517182 
607.587407  	82.277292 
608.551832  	82.072985 
609.516256  	82.217679 
610.480681  	82.170231 
611.445105  	82.026623 
612.409530  	82.232740 
613.373954  	82.291932 
614.338378  	82.018214 
615.302803  	81.760645 
616.267227  	81.604195 
617.231652  	81.769674 
618.196076  	81.967405 
619.160501  	81.824179 
620.124925  	81.501980 
621.089350  	81.361460 
622.053774  	81.361508 
623.018199  	81.705805 
623.982623  	81.542446 
624.947047  	81.100073 
625.911472  	80.724249 
626.875896  	80.839403 
627.840321  	80.888102 
628.804745  	80.824828 
629.769170  	80.345311 
630.733594  	79.785663 
631.698019  	79.580045 
632.662443  	79.749897 
633.626868  	80.088356 
634.591292  	80.474983 
635.555717  	80.509000 
636.520141  	80.956283 
637.484565  	81.075318 
638.448990  	80.955817 
639.413414  	80.680688 
640.377839  	80.542037 
641.342263  	80.569542 
642.306688  	80.487382 
643.271112  	80.448632 
644.235537  	80.415348 
645.199961  	80.389684 
646.164386  	80.560606 
647.128810  	80.561919 
648.093234  	80.346522 
649.057659  	80.165403 
650.022083  	80.121891 
650.986508  	80.235354 
651.950932  	80.212850 
652.915357  	79.964882 
653.879781  	79.780465 
654.844206  	79.692162 
655.808630  	79.605688 
656.773055  	79.444778 
657.737479  	79.433839 
658.701903  	79.211466 
659.666328  	79.017198 
660.630752  	78.962003 
661.595177  	78.905179 
662.559601  	78.811493 
663.524026  	78.653535 
664.488450  	78.548283 
665.452875  	78.383993 
666.417299  	78.384776 
667.381724  	78.711359 
668.346148  	78.754565 
669.310572  	77.889292 
670.274997  	77.517278 
671.239421  	77.357190 
672.203846  	77.262244 
673.168270  	77.131479 
674.132695  	76.802449 
675.097119  	76.516615 
676.061544  	76.267669 
677.025968  	76.009039 
677.990393  	75.629467 
678.954817  	75.372319 
679.919241  	75.273789 
680.883666  	75.219492 
681.848090  	75.170046 
682.812515  	75.142063 
683.776939  	75.006879 
684.741364  	74.843117 
685.705788  	74.554836 
686.670213  	74.307711 
687.634637  	73.955967 
688.599062  	73.636305 
689.563486  	73.291790 
690.527910  	72.960919 
691.492335  	72.569008 
692.456759  	72.225805 
693.421184  	71.722520 
694.385608  	71.102290 
695.350033  	70.527109 
696.314457  	69.796631 
697.278882  	68.818788 
698.243306  	67.850868 
699.207731  	66.921111 
700.172155  	66.039328 
701.136580  	65.137069 
702.101004  	64.394469 
703.065428  	63.649038 
704.029853  	62.853134 
704.994277  	61.952607 
705.958702  	61.213367 
706.923126  	60.374292 
707.887551  	59.345055 
708.851975  	58.253663 
709.816400  	57.148107 
710.780824  	55.953721 
711.745249  	54.633827 
712.709673  	53.188108 
713.674097  	51.682432 
714.638522  	50.153706 
715.602946  	48.463611 
716.567371  	46.690526 
717.531795  	44.919511 
718.496220  	43.204675 
719.460644  	41.815779 
720.425069  	40.641408 
721.389493  	39.820186 
722.353918  	39.346398 
723.318342  	39.377413 
724.282766  	40.334863 
725.247191  	42.269523 
726.211615  	44.804655 
727.176040  	47.681576 
728.140464  	50.628988 
729.104889  	53.491976 
730.069313  	56.355143 
731.033738  	59.317252 
731.998162  	62.267683 
732.962587  	65.379228 
733.927011  	68.381018 
734.891435  	71.331885 
735.855860  	74.267957 
736.820284  	77.128650 
737.784709  	79.751551 
738.749133  	81.968962 
739.713558  	83.722848 
740.677982  	85.158064 
741.642407  	86.294666 
742.606831  	87.173693 
743.571256  	87.659096 
744.535680  	87.861547 
745.500104  	88.056906 
746.464529  	88.183384 
747.428953  	88.161478 
748.393378  	88.181417 
749.357802  	88.124324 
750.322227  	88.032148 
751.286651  	87.891797 
752.251076  	87.814816 
753.215500  	87.710734 
754.179925  	87.531851 
755.144349  	87.431777 
756.108774  	87.391960 
757.073198  	87.268964 
758.037622  	87.080630 
759.002047  	86.876296 
759.966471  	86.779097 
760.930896  	86.594166 
761.895320  	86.435184 
762.859745  	86.424182 
763.824169  	86.343971 
764.788594  	86.133330 
765.753018  	85.934330 
766.717443  	85.769021 
767.681867  	85.583606 
768.646291  	85.352486 
769.610716  	85.222191 
770.575140  	85.035513 
771.539565  	84.868380 
772.503989  	84.540855 
773.468414  	84.361048 
774.432838  	84.276713 
775.397263  	84.179442 
776.361687  	84.004118 
777.326112  	83.894444 
778.290536  	83.813817 
779.254960  	83.738068 
780.219385  	83.397322 
781.183809  	83.326038 
782.148234  	83.027678 
783.112658  	82.880231 
784.077083  	82.568390 
785.041507  	82.231913 
786.005932  	82.062673 
786.970356  	81.653839 
787.934781  	81.177931 
788.899205  	80.806060 
789.863629  	80.470659 
790.828054  	80.159383 
791.792478  	79.816928 
792.756903  	79.609775 
793.721327  	79.850695 
794.685752  	80.316007 
795.650176  	80.948989 
796.614601  	81.570189 
797.579025  	82.102618 
798.543450  	82.232003 
799.507874  	82.230969 
800.472298  	82.325038 
801.436723  	82.324061 
802.401147  	82.179786 
803.365572  	82.075936 
804.329996  	82.056834 
805.294421  	82.063184 
806.258845  	81.964655 
807.223270  	81.929059 
808.187694  	81.923715 
809.152119  	81.888725 
810.116543  	81.880796 
811.080967  	81.758842 
812.045392  	81.697246 
813.009816  	81.726871 
813.974241  	81.653051 
814.938665  	81.645584 
815.903090  	81.702901 
816.867514  	81.688408 
817.831939  	81.593769 
818.796363  	81.481569 
819.760788  	81.445081 
820.725212  	81.440280 
821.689637  	81.276240 
822.654061  	81.081309 
823.618485  	81.009512 
824.582910  	80.924815 
825.547334  	80.664790 
826.511759  	80.452066 
827.476183  	80.294655 
828.440608  	80.102675 
829.405032  	79.875154 
830.369457  	79.700437 
831.333881  	79.536770 
832.298306  	79.353938 
833.262730  	79.002880 
834.227154  	78.690367 
835.191579  	78.407091 
836.156003  	78.055133 
837.120428  	77.681345 
838.084852  	77.340084 
839.049277  	77.069258 
840.013701  	76.676198 
840.978126  	76.164074 
841.942550  	75.827098 
842.906975  	75.479544 
843.871399  	75.015303 
844.835823  	74.600809 
845.800248  	74.413178 
846.764672  	74.426693 
847.729097  	74.590754 
848.693521  	74.818241 
849.657946  	75.223133 
850.622370  	75.752613 
851.586795  	76.123939 
852.551219  	76.260476 
853.515644  	76.479911 
854.480068  	76.762412 
855.444492  	76.877909 
856.408917  	76.915702 
857.373341  	77.060378 
858.337766  	77.211833 
859.302190  	77.273176 
860.266615  	77.341052 
861.231039  	77.361579 
862.195464  	77.213006 
863.159888  	76.885038 
864.124313  	76.477013 
865.088737  	75.964291 
866.053161  	75.213808 
867.017586  	74.121129 
867.982010  	72.773202 
868.946435  	71.091142 
869.910859  	68.990473 
870.875284  	66.807400 
871.839708  	65.726164 
872.804133  	66.596328 
873.768557  	68.852717 
874.732982  	71.247326 
875.697406  	73.167191 
876.661831  	74.590958 
877.626255  	75.695927 
878.590679  	76.717896 
879.555104  	77.669243 
880.519528  	78.504371 
881.483953  	79.150338 
882.448377  	79.747659 
883.412802  	80.301306 
884.377226  	80.746769 
885.341651  	81.132078 
886.306075  	81.325735 
887.270500  	81.397237 
888.234924  	81.503776 
889.199348  	81.481289 
890.163773  	81.449231 
891.128197  	81.470037 
892.092622  	81.450991 
893.057046  	81.318179 
894.021471  	81.167793 
894.985895  	81.141361 
895.950320  	81.052236 
896.914744  	80.934012 
897.879169  	80.867056 
898.843593  	80.869626 
899.808017  	80.884820 
900.772442  	80.948788 
901.736866  	81.052395 
902.701291  	81.243703 
903.665715  	81.412200 
904.630140  	81.502246 
905.594564  	81.586689 
906.558989  	81.740420 
907.523413  	81.952281 
908.487838  	82.058704 
909.452262  	82.102580 
910.416686  	82.196512 
911.381111  	82.279827 
912.345535  	82.289504 
913.309960  	82.278882 
914.274384  	82.256135 
915.238809  	82.252038 
916.203233  	82.215040 
917.167658  	82.187132 
918.132082  	82.157872 
919.096507  	82.173572 
920.060931  	82.104364 
921.025355  	82.010853 
921.989780  	81.935883 
922.954204  	81.840615 
923.918629  	81.725863 
924.883053  	81.670849 
925.847478  	81.599996 
926.811902  	81.481690 
927.776327  	81.365412 
928.740751  	81.272721 
929.705176  	81.212095 
930.669600  	81.131544 
931.634024  	81.032356 
932.598449  	80.949588 
933.562873  	80.854883 
934.527298  	80.766065 
935.491722  	80.644407 
936.456147  	80.524243 
937.420571  	80.427180 
938.384996  	80.303428 
939.349420  	80.144161 
940.313845  	80.047130 
941.278269  	79.961115 
942.242694  	79.849610 
943.207118  	79.697748 
944.171542  	79.565651 
945.135967  	79.423165 
946.100391  	79.250444 
947.064816  	79.059691 
948.029240  	78.910029 
948.993665  	78.797356 
949.958089  	78.618867 
950.922514  	78.417847 
951.886938  	78.293373 
952.851363  	78.113218 
953.815787  	77.850745 
954.780211  	77.600553 
955.744636  	77.429266 
956.709060  	77.233318 
957.673485  	76.971204 
958.637909  	76.674252 
959.602334  	76.351656 
960.566758  	76.035286 
961.531183  	75.706613 
962.495607  	75.395793 
963.460032  	75.122563 
964.424456  	74.839980 
965.388880  	74.503602 
966.353305  	74.189697 
967.317729  	73.994861 
968.282154  	73.847416 
969.246578  	73.690208 
970.211003  	73.631182 
971.175427  	73.728660 
972.139852  	73.916408 
973.104276  	74.173436 
974.068701  	74.527739 
975.033125  	74.917410 
975.997549  	75.286046 
976.961974  	75.647950 
977.926398  	76.026353 
978.890823  	76.334820 
979.855247  	76.534458 
980.819672  	76.673996 
981.784096  	76.833468 
982.748521  	76.947593 
983.712945  	76.949584 
984.677370  	76.849507 
985.641794  	76.762022 
986.606218  	76.700133 
987.570643  	76.617969 
988.535067  	76.509402 
989.499492  	76.446229 
990.463916  	76.436902 
991.428341  	76.392648 
992.392765  	76.254604 
993.357190  	76.073271 
994.321614  	75.919492 
995.286039  	75.749149 
996.250463  	75.549368 
997.214888  	75.344258 
998.179312  	75.107083 
999.143736  	74.820890 
1000.108161  	74.506291 
1001.072585  	74.172001 
1002.037010  	73.847299 
1003.001434  	73.485697 
1003.965859  	73.053711 
1004.930283  	72.567200 
1005.894708  	72.029321 
1006.859132  	71.362309 
1007.823557  	70.575861 
1008.787981  	69.754500 
1009.752405  	68.802400 
1010.716830  	67.639743 
1011.681254  	66.304264 
1012.645679  	64.766745 
1013.610103  	63.029043 
1014.574528  	61.290707 
1015.538952  	59.904735 
1016.503377  	59.193500 
1017.467801  	59.338357 
1018.432226  	60.223586 
1019.396650  	61.677127 
1020.361074  	63.430308 
1021.325499  	65.213711 
1022.289923  	66.827134 
1023.254348  	68.447344 
1024.218772  	70.267376 
1025.183197  	72.271142 
1026.147621  	74.103067 
1027.112046  	75.398445 
1028.076470  	76.077095 
1029.040895  	76.253906 
1030.005319  	76.134328 
1030.969743  	75.886454 
1031.934168  	75.605941 
1032.898592  	75.311022 
1033.863017  	74.918937 
1034.827441  	74.482202 
1035.791866  	74.124121 
1036.756290  	73.782664 
1037.720715  	73.472337 
1038.685139  	73.200825 
1039.649564  	72.944336 
1040.613988  	72.743835 
1041.578412  	72.532276 
1042.542837  	72.322186 
1043.507261  	72.192117 
1044.471686  	72.117045 
1045.436110  	72.025428 
1046.400535  	72.000737 
1047.364959  	72.013617 
1048.329384  	71.959332 
1049.293808  	71.921408 
1050.258233  	71.938331 
1051.222657  	71.951451 
1052.187081  	71.878642 
1053.151506  	71.771496 
1054.115930  	71.676337 
1055.080355  	71.518360 
1056.044779  	71.294113 
1057.009204  	71.023481 
1057.973628  	70.786735 
1058.938053  	70.497099 
1059.902477  	70.086674 
1060.866902  	69.645620 
1061.831326  	69.276925 
1062.795751  	68.843504 
1063.760175  	68.292037 
1064.724599  	67.740523 
1065.689024  	67.244912 
1066.653448  	66.721149 
1067.617873  	66.142519 
1068.582297  	65.524669 
1069.546722  	64.861231 
1070.511146  	64.167423 
1071.475571  	63.425391 
1072.439995  	62.674988 
1073.404420  	61.906511 
1074.368844  	61.029001 
1075.333268  	60.089229 
1076.297693  	59.133995 
1077.262117  	58.187585 
1078.226542  	57.319758 
1079.190966  	56.443033 
1080.155391  	55.530082 
1081.119815  	54.736071 
1082.084240  	54.077268 
1083.048664  	53.493936 
1084.013089  	53.005305 
1084.977513  	52.584655 
1085.941937  	52.155012 
1086.906362  	51.763593 
1087.870786  	51.435208 
1088.835211  	51.105461 
1089.799635  	50.786363 
1090.764060  	50.485086 
1091.728484  	50.250751 
1092.692909  	50.110587 
1093.657333  	49.967373 
1094.621758  	49.899980 
1095.586182  	49.979963 
1096.550606  	50.095643 
1097.515031  	50.244460 
1098.479455  	50.551562 
1099.443880  	50.980811 
1100.408304  	51.471073 
1101.372729  	52.030436 
1102.337153  	52.711297 
1103.301578  	53.439300 
1104.266002  	54.200562 
1105.230427  	55.033506 
1106.194851  	55.892136 
1107.159275  	56.686207 
1108.123700  	57.443845 
1109.088124  	58.157124 
1110.052549  	58.741923 
1111.016973  	59.164912 
1111.981398  	59.444065 
1112.945822  	59.582452 
1113.910247  	59.617413 
1114.874671  	59.519759 
1115.839096  	59.350880 
1116.803520  	59.241326 
1117.767945  	59.191507 
1118.732369  	59.282020 
1119.696793  	59.527274 
1120.661218  	59.834084 
1121.625642  	60.239074 
1122.590067  	60.777756 
1123.554491  	61.388337 
1124.518916  	62.055080 
1125.483340  	62.810145 
1126.447765  	63.655816 
1127.412189  	64.596179 
1128.376614  	65.585189 
1129.341038  	66.620115 
1130.305462  	67.733244 
1131.269887  	68.935056 
1132.234311  	70.093011 
1133.198736  	71.237926 
1134.163160  	72.401742 
1135.127585  	73.538529 
1136.092009  	74.627755 
1137.056434  	75.706911 
1138.020858  	76.736322 
1138.985283  	77.627646 
1139.949707  	78.439253 
1140.914131  	79.243986 
1141.878556  	79.992007 
1142.842980  	80.624233 
1143.807405  	81.223321 
1144.771829  	81.824057 
1145.736254  	82.320818 
1146.700678  	82.736974 
1147.665103  	83.151905 
1148.629527  	83.520206 
1149.593952  	83.832057 
1150.558376  	84.120630 
1151.522800  	84.363918 
1152.487225  	84.568282 
1153.451649  	84.752125 
1154.416074  	84.914470 
1155.380498  	85.029102 
1156.344923  	85.150494 
1157.309347  	85.259263 
1158.273772  	85.306912 
1159.238196  	85.274331 
1160.202621  	85.293081 
1161.167045  	85.315271 
1162.131469  	85.245583 
1163.095894  	85.141016 
1164.060318  	85.039586 
1165.024743  	84.930159 
1165.989167  	84.736323 
1166.953592  	84.439383 
1167.918016  	84.127224 
1168.882441  	83.771997 
1169.846865  	83.334811 
1170.811290  	82.911410 
1171.775714  	82.567874 
1172.740138  	82.283633 
1173.704563  	82.030062 
1174.668987  	81.837623 
1175.633412  	81.814971 
1176.597836  	81.858373 
1177.562261  	81.893125 
1178.526685  	81.935930 
1179.491110  	82.026350 
1180.455534  	82.074418 
1181.419959  	82.116818 
1182.384383  	82.134451 
1183.348808  	82.082205 
1184.313232  	81.991628 
1185.277656  	81.857206 
1186.242081  	81.637597 
1187.206505  	81.409806 
1188.170930  	81.198310 
1189.135354  	80.902988 
1190.099779  	80.567038 
1191.064203  	80.242318 
1192.028628  	79.898495 
1192.993052  	79.484232 
1193.957477  	79.024051 
1194.921901  	78.560970 
1195.886325  	78.097080 
1196.850750  	77.603727 
1197.815174  	77.119087 
1198.779599  	76.684712 
1199.744023  	76.265235 
1200.708448  	75.750798 
1201.672872  	75.225139 
1202.637297  	74.756145 
1203.601721  	74.287671 
1204.566146  	73.771125 
1205.530570  	73.243609 
1206.494994  	72.782019 
1207.459419  	72.302054 
1208.423843  	71.770071 
1209.388268  	71.241948 
1210.352692  	70.723554 
1211.317117  	70.124162 
1212.281541  	69.472979 
1213.245966  	68.875235 
1214.210390  	68.272553 
1215.174815  	67.584704 
1216.139239  	66.847896 
1217.103663  	66.100535 
1218.068088  	65.368999 
1219.032512  	64.595665 
1219.996937  	63.822022 
1220.961361  	63.102499 
1221.925786  	62.437989 
1222.890210  	61.785316 
1223.854635  	61.152344 
1224.819059  	60.496907 
1225.783484  	59.837386 
1226.747908  	59.155705 
1227.712332  	58.375484 
1228.676757  	57.540362 
1229.641181  	56.652832 
1230.605606  	55.670319 
1231.570030  	54.641610 
1232.534455  	53.642255 
1233.498879  	52.653870 
1234.463304  	51.691942 
1235.427728  	50.800637 
1236.392153  	49.983863 
1237.356577  	49.283272 
1238.321002  	48.727405 
1239.285426  	48.313880 
1240.249850  	48.029628 
1241.214275  	47.891376 
1242.178699  	47.895269 
1243.143124  	48.017742 
1244.107548  	48.256161 
1245.071973  	48.619804 
1246.036397  	49.023476 
1247.000822  	49.457157 
1247.965246  	49.956107 
1248.929671  	50.489505 
1249.894095  	51.022943 
1250.858519  	51.545012 
1251.822944  	52.024498 
1252.787368  	52.480322 
1253.751793  	52.905511 
1254.716217  	53.267312 
1255.680642  	53.595978 
1256.645066  	53.899233 
1257.609491  	54.169230 
1258.573915  	54.413412 
1259.538340  	54.651091 
1260.502764  	54.979832 
1261.467188  	55.527216 
1262.431613  	56.091537 
1263.396037  	56.713069 
1264.360462  	57.412296 
1265.324886  	58.144200 
1266.289311  	58.941895 
1267.253735  	59.843373 
1268.218160  	60.757096 
1269.182584  	61.643605 
1270.147009  	62.501808 
1271.111433  	63.397797 
1272.075857  	64.231403 
1273.040282  	65.116453 
1274.004706  	65.921781 
1274.969131  	66.651692 
1275.933555  	67.333937 
1276.897980  	67.995726 
1277.862404  	68.636986 
1278.826829  	69.240961 
1279.791253  	69.785720 
1280.755678  	70.359341 
1281.720102  	70.963588 
1282.684526  	71.551558 
1283.648951  	72.103116 
1284.613375  	72.647641 
1285.577800  	73.230065 
1286.542224  	73.759091 
1287.506649  	74.154171 
1288.471073  	74.718347 
1289.435498  	75.468725 
1290.399922  	76.127715 
1291.364347  	76.781218 
1292.328771  	77.485921 
1293.293195  	78.169432 
1294.257620  	78.856242 
1295.222044  	79.497456 
1296.186469  	80.070795 
1297.150893  	80.747406 
1298.115318  	81.547193 
1299.079742  	82.190928 
1300.044167  	82.831058 
1301.008591  	83.434153 
1301.973016  	83.968545 
1302.937440  	84.392094 
1303.901865  	84.764458 
1304.866289  	85.111565 
1305.830713  	85.413914 
1306.795138  	85.674727 
1307.759562  	85.865650 
1308.723987  	86.132968 
1309.688411  	86.565247 
1310.652836  	86.862921 
1311.617260  	86.971034 
1312.581685  	86.770196 
1313.546109  	86.999850 
1314.510534  	87.336243 
1315.474958  	87.685972 
1316.439382  	87.738278 
1317.403807  	87.680712 
1318.368231  	87.739966 
1319.332656  	87.689491 
1320.297080  	88.092808 
1321.261505  	88.436000 
1322.225929  	88.670827 
1323.190354  	88.695915 
1324.154778  	88.729416 
1325.119203  	88.729237 
1326.083627  	88.602888 
1327.048051  	88.387864 
1328.012476  	88.067308 
1328.976900  	87.552666 
1329.941325  	86.832029 
1330.905749  	86.001189 
1331.870174  	84.938901 
1332.834598  	83.588817 
1333.799023  	82.084903 
1334.763447  	80.562871 
1335.727872  	78.898325 
1336.692296  	77.099264 
1337.656720  	75.968069 
1338.621145  	74.760751 
1339.585569  	73.921077 
1340.549994  	74.585192 
1341.514418  	76.599708 
1342.478843  	78.309446 
1343.443267  	79.764458 
1344.407692  	81.326444 
1345.372116  	82.878916 
1346.336541  	84.295716 
1347.300965  	85.513111 
1348.265389  	86.452991 
1349.229814  	87.082075 
1350.194238  	87.747372 
1351.158663  	88.340608 
1352.123087  	88.716530 
1353.087512  	89.008419 
1354.051936  	89.042265 
1355.016361  	88.881032 
1355.980785  	89.225490 
1356.945210  	89.401980 
1357.909634  	89.252418 
1358.874059  	89.269821 
1359.838483  	89.227445 
1360.802907  	88.437677 
1361.767332  	87.762930 
1362.731756  	86.715425 
1363.696181  	86.643828 
1364.660605  	87.922951 
1365.625030  	88.037633 
1366.589454  	87.824152 
1367.553879  	87.357803 
1368.518303  	86.633465 
1369.482728  	86.592759 
1370.447152  	87.020783 
1371.411576  	87.005682 
1372.376001  	86.805308 
1373.340425  	86.002489 
1374.304850  	85.367013 
1375.269274  	85.887909 
1376.233699  	86.871215 
1377.198123  	87.105416 
1378.162548  	86.855626 
1379.126972  	86.935521 
1380.091397  	87.115095 
1381.055821  	87.331924 
1382.020245  	87.364725 
1382.984670  	87.342677 
1383.949094  	87.363481 
1384.913519  	87.333928 
1385.877943  	86.835231 
1386.842368  	85.707391 
1387.806792  	85.523302 
1388.771217  	86.720198 
1389.735641  	87.185951 
1390.700066  	87.061035 
1391.664490  	87.044492 
1392.628914  	87.008566 
1393.593339  	86.270249 
1394.557763  	84.724521 
1395.522188  	84.325335 
1396.486612  	84.918591 
1397.451037  	84.653254 
1398.415461  	83.629447 
1399.379886  	83.025851 
1400.344310  	83.360202 
1401.308735  	83.287365 
1402.273159  	82.469271 
1403.237583  	81.431928 
1404.202008  	79.810450 
1405.166432  	77.904558 
1406.130857  	77.369581 
1407.095281  	77.048479 
1408.059706  	76.491803 
1409.024130  	76.415156 
1409.988555  	76.726967 
1410.952979  	77.678654 
1411.917404  	79.066663 
1412.881828  	81.187803 
1413.846252  	83.134979 
1414.810677  	84.686040 
1415.775101  	85.563664 
1416.739526  	85.964480 
1417.703950  	86.225800 
1418.668375  	86.172948 
1419.632799  	86.238812 
1420.597224  	88.643268 
1421.561648  	89.608659 
1422.526073  	89.802243 
1423.490497  	88.827214 
1424.454922  	88.531401 
1425.419346  	89.824825 
1426.383770  	90.254042 
1427.348195  	90.134541 
1428.312619  	89.748193 
1429.277044  	89.140714 
1430.241468  	88.678393 
1431.205893  	89.142952 
1432.170317  	89.034436 
1433.134742  	88.629285 
1434.099166  	88.726606 
1435.063591  	88.408247 
1436.028015  	86.816660 
1436.992439  	85.698295 
1437.956864  	87.406398 
1438.921288  	88.161774 
1439.885713  	88.244879 
1440.850137  	88.200451 
1441.814562  	88.146831 
1442.778986  	88.120724 
1443.743411  	88.011868 
1444.707835  	87.883466 
1445.672260  	87.746996 
1446.636684  	87.460901 
1447.601108  	86.477329 
1448.565533  	86.342440 
1449.529957  	87.223485 
1450.494382  	87.365035 
1451.458806  	86.832305 
1452.423231  	86.352111 
1453.387655  	86.760256 
1454.352080  	86.313433 
1455.316504  	85.059133 
1456.280929  	84.027024 
1457.245353  	83.304513 
1458.209777  	83.577944 
1459.174202  	84.690267 
1460.138626  	86.404656 
1461.103051  	87.390503 
1462.067475  	87.662701 
1463.031900  	87.703067 
1463.996324  	87.220449 
1464.960749  	86.258574 
1465.925173  	86.881136 
1466.889598  	87.465433 
1467.854022  	87.420489 
1468.818446  	87.329567 
1469.782871  	86.958242 
1470.747295  	86.101796 
1471.711720  	84.226300 
1472.676144  	83.097798 
1473.640569  	83.990542 
1474.604993  	85.866000 
1475.569418  	86.107561 
1476.533842  	85.712168 
1477.498267  	87.338252 
1478.462691  	88.287369 
1479.427116  	88.553537 
1480.391540  	88.434444 
1481.355964  	88.006374 
1482.320389  	88.703472 
1483.284813  	89.382925 
1484.249238  	89.647978 
1485.213662  	89.568014 
1486.178087  	88.979642 
1487.142511  	88.339291 
1488.106936  	88.535547 
1489.071360  	87.524139 
1490.035785  	85.996275 
1491.000209  	87.511757 
1491.964633  	89.435033 
1492.929058  	90.205487 
1493.893482  	90.247609 
1494.857907  	89.834066 
1495.822331  	88.619178 
1496.786756  	87.922718 
1497.751180  	88.413362 
1498.715605  	87.688686 
1499.680029  	87.627620 
1500.644454  	87.720085 
1501.608878  	86.744859 
1502.573302  	86.068300 
1503.537727  	85.649595 
1504.502151  	84.592718 
1505.466576  	82.705960 
1506.431000  	79.589225 
1507.395425  	79.462757 
1508.359849  	82.272930 
1509.324274  	84.520186 
1510.288698  	86.295750 
1511.253123  	87.890567 
1512.217547  	87.887060 
1513.181971  	88.775203 
1514.146396  	89.263673 
1515.110820  	88.192548 
1516.075245  	86.963646 
1517.039669  	85.514627 
1518.004094  	87.495739 
1518.968518  	88.880586 
1519.932943  	87.776903 
1520.897367  	85.121312 
1521.861792  	85.524418 
1522.826216  	86.990476 
1523.790640  	88.115430 
1524.755065  	87.619426 
1525.719489  	87.116027 
1526.683914  	87.795779 
1527.648338  	87.403084 
1528.612763  	87.925303 
1529.577187  	89.154304 
1530.541612  	89.511916 
1531.506036  	88.604739 
1532.470461  	88.000579 
1533.434885  	87.038077 
1534.399309  	87.499885 
1535.363734  	88.536913 
1536.328158  	89.095905 
1537.292583  	89.236093 
1538.257007  	88.097743 
1539.221432  	85.309440 
1540.185856  	85.104088 
1541.150281  	86.512404 
1542.114705  	86.555630 
1543.079130  	86.588394 
1544.043554  	86.616915 
1545.007979  	86.205543 
1545.972403  	87.601248 
1546.936827  	89.279411 
1547.901252  	89.605960 
1548.865676  	89.003731 
1549.830101  	86.983225 
1550.794525  	87.555197 
1551.758950  	89.196337 
1552.723374  	89.229745 
1553.687799  	88.223270 
1554.652223  	87.132504 
1555.616648  	88.214640 
1556.581072  	88.362060 
1557.545496  	86.965722 
1558.509921  	82.949747 
1559.474345  	82.383219 
1560.438770  	85.428639 
1561.403194  	88.092289 
1562.367619  	88.982953 
1563.332043  	89.198014 
1564.296468  	88.720614 
1565.260892  	88.316729 
1566.225317  	88.917209 
1567.189741  	89.124361 
1568.154165  	88.611407 
1569.118590  	87.068672 
1570.083014  	86.765180 
1571.047439  	88.187708 
1572.011863  	88.473275 
1572.976288  	88.318046 
1573.940712  	88.114298 
1574.905137  	87.549636 
1575.869561  	86.208333 
1576.833986  	85.478892 
1577.798410  	86.477712 
1578.762834  	87.241357 
1579.727259  	87.661559 
1580.691683  	87.998570 
1581.656108  	88.239476 
1582.620532  	88.475269 
1583.584957  	88.699271 
1584.549381  	88.936133 
1585.513806  	89.084512 
1586.478230  	89.167208 
1587.442655  	89.233945 
1588.407079  	89.271427 
1589.371503  	89.140488 
1590.335928  	89.061685 
1591.300352  	89.090986 
1592.264777  	89.099850 
1593.229201  	89.094272 
1594.193626  	88.813039 
1595.158050  	88.713975 
1596.122475  	88.829946 
1597.086899  	88.896151 
1598.051324  	88.989495 
1599.015748  	88.921194 
1599.980173  	88.865932 
1600.944597  	88.620283 
1601.909021  	88.463827 
1602.873446  	88.193298 
1603.837870  	88.201673 
1604.802295  	88.420885 
1605.766719  	88.345825 
1606.731144  	87.930906 
1607.695568  	87.733479 
1608.659993  	87.679067 
1609.624417  	87.277771 
1610.588842  	87.530120 
1611.553266  	87.665520 
1612.517690  	87.547982 
1613.482115  	87.498163 
1614.446539  	87.398053 
1615.410964  	86.945786 
1616.375388  	85.878119 
1617.339813  	85.923500 
1618.304237  	86.979590 
1619.268662  	87.333133 
1620.233086  	87.383092 
1621.197511  	87.374936 
1622.161935  	86.944221 
1623.126359  	85.879891 
1624.090784  	86.034656 
1625.055208  	86.956506 
1626.019633  	87.116992 
1626.984057  	86.791463 
1627.948482  	86.267140 
1628.912906  	86.738238 
1629.877331  	87.043364 
1630.841755  	87.023538 
1631.806180  	86.956354 
1632.770604  	86.874553 
1633.735028  	86.503082 
1634.699453  	85.432663 
1635.663877  	83.708121 
1636.628302  	84.617455 
1637.592726  	84.773768 
1638.557151  	85.576339 
1639.521575  	86.042356 
1640.486000  	86.002479 
1641.450424  	86.000130 
1642.414849  	85.885435 
1643.379273  	85.892698 
1644.343697  	85.767635 
1645.308122  	84.825544 
1646.272546  	83.202682 
1647.236971  	82.527295 
1648.201395  	82.884271 
1649.165820  	84.339001 
1650.130244  	84.884028 
1651.094669  	84.541649 
1652.059093  	83.430579 
1653.023518  	80.244057 
1653.987942  	79.746025 
1654.952366  	82.208090 
1655.916791  	83.684283 
1656.881215  	83.944873 
1657.845640  	84.091475 
1658.810064  	84.152099 
1659.774489  	84.018661 
1660.738913  	83.514910 
1661.703338  	82.774290 
1662.667762  	81.891540 
1663.632187  	82.126290 
1664.596611  	82.464262 
1665.561036  	82.354576 
1666.525460  	82.132097 
1667.489884  	81.471265 
1668.454309  	79.904161 
1669.418733  	78.931986 
1670.383158  	79.625520 
1671.347582  	79.170703 
1672.312007  	79.287905 
1673.276431  	79.686271 
1674.240856  	79.104718 
1675.205280  	77.660573 
1676.169705  	77.758372 
1677.134129  	78.287201 
1678.098553  	78.076388 
1679.062978  	77.276541 
1680.027402  	75.585982 
1680.991827  	75.373692 
1681.956251  	75.745710 
1682.920676  	74.434143 
1683.885100  	70.926338 
1684.849525  	70.928163 
1685.813949  	73.879935 
1686.778374  	74.316454 
1687.742798  	73.507864 
1688.707222  	72.636541 
1689.671647  	72.400673 
1690.636071  	72.050429 
1691.600496  	71.914495 
1692.564920  	71.292148 
1693.529345  	70.309098 
1694.493769  	68.989038 
1695.458194  	66.928064 
1696.422618  	64.967300 
1697.387043  	64.694199 
1698.351467  	63.931798 
1699.315891  	62.429820 
1700.280316  	59.042269 
1701.244740  	58.562277 
1702.209165  	58.552442 
1703.173589  	57.504995 
1704.138014  	55.697874 
1705.102438  	53.953390 
1706.066863  	52.619627 
1707.031287  	51.217941 
1707.995712  	50.621683 
1708.960136  	49.882337 
1709.924560  	48.773800 
1710.888985  	48.165331 
1711.853409  	48.168837 
1712.817834  	47.948206 
1713.782258  	47.601844 
1714.746683  	47.495804 
1715.711107  	48.597482 
1716.675532  	49.339801 
1717.639956  	49.309810 
1718.604381  	51.249115 
1719.568805  	54.066348 
1720.533230  	55.726941 
1721.497654  	56.982617 
1722.462078  	58.159100 
1723.426503  	59.127766 
1724.390927  	60.687246 
1725.355352  	62.176063 
1726.319776  	63.455927 
1727.284201  	64.762025 
1728.248625  	66.061776 
1729.213050  	66.589492 
1730.177474  	67.043173 
1731.141899  	69.252426 
1732.106323  	70.506925 
1733.070747  	70.321821 
1734.035172  	69.719506 
1734.999596  	73.449708 
1735.964021  	76.299090 
1736.928445  	77.622835 
1737.892870  	78.822962 
1738.857294  	79.662356 
1739.821719  	80.348412 
1740.786143  	82.664029 
1741.750568  	84.153887 
1742.714992  	84.279297 
1743.679416  	84.502099 
1744.643841  	86.306769 
1745.608265  	87.611611 
1746.572690  	87.979896 
1747.537114  	88.080518 
1748.501539  	88.201011 
1749.465963  	88.827521 
1750.430388  	89.360000 
1751.394812  	88.835050 
1752.359237  	90.429818 
1753.323661  	91.762966 
1754.288085  	92.375850 
1755.252510  	92.499555 
1756.216934  	91.798448 
1757.181359  	91.126620 
1758.145783  	91.872770 
1759.110208  	92.430534 
1760.074632  	92.690249 
1761.039057  	92.040869 
1762.003481  	91.034767 
1762.967906  	92.141996 
1763.932330  	92.895436 
1764.896754  	93.060774 
1765.861179  	93.133060 
1766.825603  	92.930845 
1767.790028  	91.821073 
1768.754452  	91.540474 
1769.718877  	92.625240 
1770.683301  	92.302617 
1771.647726  	91.126820 
1772.612150  	90.659142 
1773.576575  	91.813697 
1774.540999  	92.486469 
1775.505423  	92.086204 
1776.469848  	92.383560 
1777.434272  	93.061983 
1778.398697  	92.838986 
1779.363121  	92.439370 
1780.327546  	91.937285 
1781.291970  	91.906504 
1782.256395  	92.724534 
1783.220819  	93.044514 
1784.185244  	92.625102 
1785.149668  	92.011719 
1786.114093  	92.628641 
1787.078517  	93.069240 
1788.042941  	93.051157 
1789.007366  	92.952103 
1789.971790  	92.539288 
1790.936215  	91.460006 
1791.900639  	90.971221 
1792.865064  	90.918984 
1793.829488  	91.962320 
1794.793913  	92.365393 
1795.758337  	91.630620 
1796.722762  	91.681185 
1797.687186  	92.564156 
1798.651610  	92.565486 
1799.616035  	91.912836 
1800.580459  	91.857029 
1801.544884  	91.612184 
1802.509308  	91.431082 
1803.473733  	92.314771 
1804.438157  	92.828688 
1805.402582  	92.808193 
1806.367006  	92.725366 
1807.331431  	92.363980 
1808.295855  	92.229584 
1809.260279  	92.557116 
1810.224704  	92.061091 
1811.189128  	91.641513 
1812.153553  	91.969606 
1813.117977  	92.372007 
1814.082402  	92.800544 
1815.046826  	92.834103 
1816.011251  	92.801814 
1816.975675  	92.471652 
1817.940100  	92.306544 
1818.904524  	92.658614 
1819.868948  	92.785965 
1820.833373  	92.690673 
1821.797797  	92.587544 
1822.762222  	92.380184 
1823.726646  	92.382281 
1824.691071  	91.729727 
1825.655495  	91.021775 
1826.619920  	92.126660 
1827.584344  	92.545323 
1828.548769  	92.057937 
1829.513193  	90.850443 
1830.477617  	90.943928 
1831.442042  	92.210164 
1832.406466  	92.585741 
1833.370891  	92.450888 
1834.335315  	92.692855 
1835.299740  	92.872780 
1836.264164  	92.629137 
1837.228589  	92.091442 
1838.193013  	92.344214 
1839.157438  	92.771752 
1840.121862  	92.861361 
1841.086287  	92.798525 
1842.050711  	92.410436 
1843.015135  	91.982304 
1843.979560  	91.147820 
1844.943984  	91.108434 
1845.908409  	92.039537 
1846.872833  	92.298325 
1847.837258  	91.880106 
1848.801682  	92.167710 
1849.766107  	92.774250 
1850.730531  	93.038268 
1851.694956  	93.082284 
1852.659380  	93.019701 
1853.623804  	93.041666 
1854.588229  	92.990683 
1855.552653  	93.028567 
1856.517078  	93.026896 
1857.481502  	92.996633 
1858.445927  	92.850694 
1859.410351  	92.840523 
1860.374776  	92.926679 
1861.339200  	92.828326 
1862.303625  	92.891066 
1863.268049  	93.041086 
1864.232473  	93.019827 
1865.196898  	92.967253 
1866.161322  	92.584243 
1867.125747  	92.125104 
1868.090171  	91.515652 
1869.054596  	91.002754 
1870.019020  	91.562629 
1870.983445  	92.360439 
1871.947869  	92.805279 
1872.912294  	93.109314 
1873.876718  	93.212850 
1874.841142  	93.189570 
1875.805567  	93.192378 
1876.769991  	93.213663 
1877.734416  	93.140217 
1878.698840  	93.004164 
1879.663265  	92.921310 
1880.627689  	93.029347 
1881.592114  	93.065590 
1882.556538  	93.014621 
1883.520963  	93.033642 
1884.485387  	92.938736 
1885.449811  	92.793467 
1886.414236  	92.957276 
1887.378660  	93.061033 
1888.343085  	92.850150 
1889.307509  	91.947475 
1890.271934  	91.902481 
1891.236358  	92.650428 
1892.200783  	92.896219 
1893.165207  	92.961045 
1894.129632  	92.838167 
1895.094056  	92.335807 
1896.058480  	92.442416 
1897.022905  	92.868026 
1897.987329  	92.912707 
1898.951754  	92.911074 
1899.916178  	92.914614 
1900.880603  	92.903998 
1901.845027  	92.831594 
1902.809452  	92.952154 
1903.773876  	93.008445 
1904.738301  	92.934085 
1905.702725  	92.862828 
1906.667150  	92.789016 
1907.631574  	92.530419 
1908.595998  	92.496955 
1909.560423  	92.303650 
1910.524847  	92.126110 
1911.489272  	92.672809 
1912.453696  	92.881553 
1913.418121  	92.814950 
1914.382545  	92.727166 
1915.346970  	92.764349 
1916.311394  	92.797343 
1917.275819  	92.351454 
1918.240243  	91.601604 
1919.204667  	92.251518 
1920.169092  	92.669198 
1921.133516  	92.525467 
1922.097941  	91.892381 
1923.062365  	91.341716 
1924.026790  	92.241388 
1924.991214  	92.848503 
1925.955639  	92.737077 
1926.920063  	92.797951 
1927.884488  	92.778690 
1928.848912  	92.710741 
1929.813336  	92.748085 
1930.777761  	92.813237 
1931.742185  	92.745863 
1932.706610  	92.728103 
1933.671034  	92.829325 
1934.635459  	92.853481 
1935.599883  	92.725103 
1936.564308  	92.748644 
1937.528732  	92.612063 
1938.493157  	92.567066 
1939.457581  	92.781811 
1940.422005  	92.862473 
1941.386430  	92.372141 
1942.350854  	91.115806 
1943.315279  	91.168383 
1944.279703  	92.181660 
1945.244128  	92.157785 
1946.208552  	92.116190 
1947.172977  	92.166364 
1948.137401  	92.368190 
1949.101826  	92.422893 
1950.066250  	92.530707 
1951.030674  	92.539112 
1951.995099  	92.501845 
1952.959523  	92.510327 
1953.923948  	92.423048 
1954.888372  	92.212801 
1955.852797  	92.198719 
1956.817221  	92.523562 
1957.781646  	92.768898 
1958.746070  	92.723675 
1959.710495  	92.760670 
1960.674919  	92.489371 
1961.639344  	92.188889 
1962.603768  	92.019913 
1963.568192  	92.343627 
1964.532617  	92.779513 
1965.497041  	92.972694 
1966.461466  	92.772148 
1967.425890  	92.401180 
1968.390315  	92.598299 
1969.354739  	92.797901 
1970.319164  	92.780437 
1971.283588  	92.931726 
1972.248013  	92.908408 
1973.212437  	92.766094 
1974.176861  	92.741208 
1975.141286  	92.779529 
1976.105710  	92.938077 
1977.070135  	93.179949 
1978.034559  	92.809138 
1978.998984  	92.132054 
1979.963408  	91.982400 
1980.927833  	92.217116 
1981.892257  	92.629024 
1982.856682  	92.881619 
1983.821106  	92.649542 
1984.785530  	92.643458 
1985.749955  	92.617866 
1986.714379  	92.768899 
1987.678804  	92.554563 
1988.643228  	92.418235 
1989.607653  	92.610764 
1990.572077  	92.632028 
1991.536502  	92.248038 
1992.500926  	91.906058 
1993.465351  	92.082539 
1994.429775  	92.568590 
1995.394199  	92.778014 
1996.358624  	92.916217 
1997.323048  	93.072518 
1998.287473  	93.028023 
1999.251897  	92.950081 
2000.216322  	93.303123 
2001.180746  	93.468687 
2002.145171  	93.468822 
2003.109595  	93.554199 
2004.074020  	93.653818 
2005.038444  	93.549411 
2006.002868  	93.365712 
2006.967293  	93.336538 
2007.931717  	93.149066 
2008.896142  	92.887222 
2009.860566  	92.929990 
2010.824991  	93.284233 
2011.789415  	93.104241 
2012.753840  	92.820333 
2013.718264  	92.884165 
2014.682689  	93.028600 
2015.647113  	93.345343 
2016.611537  	92.939171 
2017.575962  	92.519174 
2018.540386  	92.701046 
2019.504811  	93.036531 
2020.469235  	93.457103 
2021.433660  	93.646242 
2022.398084  	93.446763 
2023.362509  	93.340144 
2024.326933  	93.283462 
2025.291358  	93.212886 
2026.255782  	93.280659 
2027.220207  	93.247232 
2028.184631  	93.295479 
2029.149055  	93.684946 
2030.113480  	93.860427 
2031.077904  	93.919702 
2032.042329  	93.647905 
2033.006753  	93.585979 
2033.971178  	93.538562 
2034.935602  	93.447900 
2035.900027  	93.206137 
2036.864451  	93.076983 
2037.828876  	93.182867 
2038.793300  	93.026400 
2039.757724  	92.770854 
2040.722149  	92.783509 
2041.686573  	92.669835 
2042.650998  	92.854479 
2043.615422  	92.675295 
2044.579847  	92.743813 
2045.544271  	93.086055 
2046.508696  	93.283451 
2047.473120  	92.973932 
2048.437545  	92.911173 
2049.401969  	92.965691 
2050.366393  	92.753759 
2051.330818  	92.689844 
2052.295242  	92.949913 
2053.259667  	93.025155 
2054.224091  	92.763215 
2055.188516  	92.460372 
2056.152940  	92.456815 
2057.117365  	92.405190 
2058.081789  	92.496833 
2059.046214  	92.672296 
2060.010638  	92.641216 
2060.975062  	92.446832 
2061.939487  	92.490273 
2062.903911  	92.477715 
2063.868336  	92.450087 
2064.832760  	92.232024 
2065.797185  	92.328669 
2066.761609  	92.501288 
2067.726034  	92.618420 
2068.690458  	92.644076 
2069.654883  	92.604608 
2070.619307  	92.546831 
2071.583731  	92.518914 
2072.548156  	92.448246 
2073.512580  	92.417224 
2074.477005  	92.328229 
2075.441429  	92.369602 
2076.405854  	92.358902 
2077.370278  	92.345587 
2078.334703  	92.395268 
2079.299127  	92.375614 
2080.263552  	92.413856 
2081.227976  	92.372600 
2082.192401  	92.286673 
2083.156825  	92.236140 
2084.121249  	92.236099 
2085.085674  	92.472229 
2086.050098  	92.536172 
2087.014523  	92.460359 
2087.978947  	92.442718 
2088.943372  	92.407947 
2089.907796  	92.258561 
2090.872221  	92.341367 
2091.836645  	92.650466 
2092.801070  	92.611361 
2093.765494  	92.562476 
2094.729918  	92.590263 
2095.694343  	92.566042 
2096.658767  	92.522186 
2097.623192  	92.513056 
2098.587616  	92.449585 
2099.552041  	92.432669 
2100.516465  	92.475045 
2101.480890  	92.528157 
2102.445314  	92.479372 
2103.409739  	92.418413 
2104.374163  	92.422405 
2105.338587  	92.343600 
2106.303012  	92.316870 
2107.267436  	92.297437 
2108.231861  	92.334255 
2109.196285  	92.404998 
2110.160710  	92.481526 
2111.125134  	92.562377 
2112.089559  	92.485538 
2113.053983  	92.398900 
2114.018408  	92.365614 
2114.982832  	92.309386 
2115.947256  	92.248423 
2116.911681  	92.308063 
2117.876105  	92.477018 
2118.840530  	92.550539 
2119.804954  	92.549303 
2120.769379  	92.585690 
2121.733803  	92.675078 
2122.698228  	92.730193 
2123.662652  	92.625979 
2124.627077  	92.534270 
2125.591501  	92.604636 
2126.555925  	92.830622 
2127.520350  	92.908463 
2128.484774  	92.876061 
2129.449199  	93.033178 
2130.413623  	93.060659 
2131.378048  	93.076427 
2132.342472  	93.236151 
2133.306897  	93.293545 
2134.271321  	93.038551 
2135.235746  	92.769345 
2136.200170  	92.714919 
2137.164594  	92.975195 
2138.129019  	93.179118 
2139.093443  	93.252267 
2140.057868  	93.307926 
2141.022292  	93.268629 
2141.986717  	93.038476 
2142.951141  	92.949656 
2143.915566  	93.235164 
2144.879990  	93.232093 
2145.844415  	93.142490 
2146.808839  	93.271878 
2147.773264  	93.414526 
2148.737688  	93.432960 
2149.702112  	93.233029 
2150.666537  	93.353267 
2151.630961  	93.661763 
2152.595386  	93.818456 
2153.559810  	93.719096 
2154.524235  	93.748306 
2155.488659  	94.140024 
2156.453084  	94.451108 
2157.417508  	94.193879 
2158.381933  	94.146251 
2159.346357  	93.703539 
2160.310781  	92.961291 
2161.275206  	92.485875 
2162.239630  	92.726901 
2163.204055  	93.109324 
2164.168479  	92.979621 
2165.132904  	92.698780 
2166.097328  	92.950818 
2167.061753  	93.108422 
2168.026177  	92.841745 
2168.990602  	92.684883 
2169.955026  	92.902391 
2170.919450  	93.275935 
2171.883875  	93.206638 
2172.848299  	93.022653 
2173.812724  	93.243854 
2174.777148  	93.560275 
2175.741573  	93.442778 
2176.705997  	93.037772 
2177.670422  	93.000734 
2178.634846  	93.048290 
2179.599271  	92.936902 
2180.563695  	93.021081 
2181.528119  	93.306737 
2182.492544  	93.252287 
2183.456968  	92.832834 
2184.421393  	92.713256 
2185.385817  	93.217656 
2186.350242  	93.178395 
2187.314666  	92.851008 
2188.279091  	92.996179 
2189.243515  	92.916199 
2190.207940  	92.767324 
2191.172364  	92.983435 
2192.136788  	93.047269 
2193.101213  	92.934898 
2194.065637  	92.781200 
2195.030062  	92.637342 
2195.994486  	92.492653 
2196.958911  	92.668809 
2197.923335  	92.867827 
2198.887760  	92.901802 
2199.852184  	92.865339 
2200.816609  	92.818232 
2201.781033  	92.799592 
2202.745458  	92.787022 
2203.709882  	92.809797 
2204.674306  	92.895726 
2205.638731  	92.824733 
2206.603155  	92.733806 
2207.567580  	92.685679 
2208.532004  	92.644795 
2209.496429  	92.683889 
2210.460853  	92.792328 
2211.425278  	92.921744 
2212.389702  	92.840579 
2213.354127  	92.577458 
2214.318551  	92.457371 
2215.282975  	92.428122 
2216.247400  	92.513742 
2217.211824  	92.804793 
2218.176249  	92.937788 
2219.140673  	92.831815 
2220.105098  	92.600981 
2221.069522  	92.618899 
2222.033947  	92.830032 
2222.998371  	92.767810 
2223.962796  	92.650888 
2224.927220  	92.772402 
2225.891644  	92.638289 
2226.856069  	92.425428 
2227.820493  	92.483552 
2228.784918  	92.628672 
2229.749342  	92.601525 
2230.713767  	92.411435 
2231.678191  	92.351687 
2232.642616  	92.437242 
2233.607040  	92.668006 
2234.571465  	92.584642 
2235.535889  	92.499677 
2236.500313  	92.541836 
2237.464738  	92.531359 
2238.429162  	92.514457 
2239.393587  	92.404787 
2240.358011  	92.413253 
2241.322436  	92.595037 
2242.286860  	92.584430 
2243.251285  	92.511037 
2244.215709  	92.399018 
2245.180134  	92.271364 
2246.144558  	92.241379 
2247.108982  	92.385717 
2248.073407  	92.563288 
2249.037831  	92.558345 
2250.002256  	92.398994 
2250.966680  	92.392893 
2251.931105  	92.444155 
2252.895529  	92.383456 
2253.859954  	92.316543 
2254.824378  	92.244352 
2255.788803  	92.227171 
2256.753227  	92.280280 
2257.717651  	92.384586 
2258.682076  	92.306880 
2259.646500  	92.252739 
2260.610925  	92.232452 
2261.575349  	92.159340 
2262.539774  	92.202661 
2263.504198  	92.346655 
2264.468623  	92.263781 
2265.433047  	92.265164 
2266.397472  	92.350141 
2267.361896  	92.250141 
2268.326321  	92.149014 
2269.290745  	92.149000 
2270.255169  	92.155438 
2271.219594  	92.287365 
2272.184018  	92.332156 
2273.148443  	92.267841 
2274.112867  	92.251791 
2275.077292  	92.180137 
2276.041716  	92.011356 
2277.006141  	92.049277 
2277.970565  	92.183353 
2278.934990  	92.143071 
2279.899414  	91.996967 
2280.863838  	92.004509 
2281.828263  	91.989633 
2282.792687  	91.983271 
2283.757112  	92.002889 
2284.721536  	91.927309 
2285.685961  	91.860586 
2286.650385  	91.856148 
2287.614810  	91.837899 
2288.579234  	91.820702 
2289.543659  	91.800750 
2290.508083  	91.880589 
2291.472507  	91.873538 
2292.436932  	91.914900 
2293.401356  	91.955894 
2294.365781  	91.898688 
2295.330205  	91.881776 
2296.294630  	91.780563 
2297.259054  	91.753934 
2298.223479  	91.739017 
2299.187903  	91.817497 
2300.152328  	91.844983 
2301.116752  	91.815630 
2302.081176  	91.857514 
2303.045601  	91.756718 
2304.010025  	91.820798 
2304.974450  	91.665501 
2305.938874  	91.678591 
2306.903299  	91.632146 
2307.867723  	91.729086 
2308.832148  	91.634322 
2309.796572  	91.661682 
2310.760997  	91.611232 
2311.725421  	91.689689 
2312.689845  	91.772665 
2313.654270  	91.834018 
2314.618694  	91.894385 
2315.583119  	91.992951 
2316.547543  	92.070933 
2317.511968  	92.116758 
2318.476392  	92.126474 
2319.440817  	92.186999 
2320.405241  	92.121058 
2321.369666  	92.160611 
2322.334090  	92.232292 
2323.298515  	92.297151 
2324.262939  	92.284069 
2325.227363  	92.603103 
2326.191788  	92.993884 
2327.156212  	93.265100 
2328.120637  	93.374316 
2329.085061  	93.464621 
2330.049486  	93.518661 
2331.013910  	93.532005 
2331.978335  	93.682282 
2332.942759  	93.815830 
2333.907184  	93.907333 
2334.871608  	94.020268 
2335.836032  	94.193973 
2336.800457  	94.299274 
2337.764881  	94.296316 
2338.729306  	94.316513 
2339.693730  	94.242425 
2340.658155  	94.275020 
2341.622579  	94.381418 
2342.587004  	94.331800 
2343.551428  	94.141081 
2344.515853  	93.833698 
2345.480277  	93.556276 
2346.444701  	93.292683 
2347.409126  	93.128047 
2348.373550  	92.733624 
2349.337975  	92.480795 
2350.302399  	92.802282 
2351.266824  	93.314041 
2352.231248  	93.779205 
2353.195673  	94.030725 
2354.160097  	94.213369 
2355.124522  	94.441215 
2356.088946  	94.686514 
2357.053370  	94.816317 
2358.017795  	94.846539 
2358.982219  	94.947223 
2359.946644  	95.256040 
2360.911068  	95.312489 
2361.875493  	95.104788 
2362.839917  	94.983651 
2363.804342  	94.929881 
2364.768766  	94.813974 
2365.733191  	94.812131 
2366.697615  	94.665916 
2367.662039  	94.351625 
2368.626464  	93.980999 
2369.590888  	93.671056 
2370.555313  	93.426576 
2371.519737  	93.207256 
2372.484162  	92.996900 
2373.448586  	92.790779 
2374.413011  	92.541053 
2375.377435  	92.352001 
2376.341860  	92.179039 
2377.306284  	92.007348 
2378.270708  	91.866690 
2379.235133  	91.778059 
2380.199557  	91.818169 
2381.163982  	91.863655 
2382.128406  	91.878520 
2383.092831  	91.907364 
2384.057255  	91.970518 
2385.021680  	92.071496 
2385.986104  	92.103009 
2386.950529  	92.116239 
2387.914953  	92.161894 
2388.879378  	92.186776 
2389.843802  	92.279814 
2390.808226  	92.300790 
2391.772651  	92.257604 
2392.737075  	92.273271 
2393.701500  	92.339771 
2394.665924  	92.342978 
2395.630349  	92.292151 
2396.594773  	92.248790 
2397.559198  	92.236899 
2398.523622  	92.253126 
2399.488047  	92.326871 
2400.452471  	92.330762 
2401.416895  	92.304934 
2402.381320  	92.303952 
2403.345744  	92.344996 
2404.310169  	92.358892 
2405.274593  	92.289380 
2406.239018  	92.236658 
2407.203442  	92.254181 
2408.167867  	92.268131 
2409.132291  	92.286084 
2410.096716  	92.256002 
2411.061140  	92.246254 
2412.025564  	92.294985 
2412.989989  	92.305153 
2413.954413  	92.289853 
2414.918838  	92.325361 
2415.883262  	92.339561 
2416.847687  	92.291910 
2417.812111  	92.299410 
2418.776536  	92.286777 
2419.740960  	92.247775 
2420.705385  	92.270946 
2421.669809  	92.281070 
2422.634233  	92.257698 
2423.598658  	92.259100 
2424.563082  	92.301030 
2425.527507  	92.303658 
2426.491931  	92.261274 
2427.456356  	92.268412 
2428.420780  	92.393154 
2429.385205  	92.411527 
2430.349629  	92.350436 
2431.314054  	92.331039 
2432.278478  	92.356080 
2433.242902  	92.397331 
2434.207327  	92.398745 
2435.171751  	92.382948 
2436.136176  	92.407494 
2437.100600  	92.432845 
2438.065025  	92.382099 
2439.029449  	92.431421 
2439.993874  	92.484589 
2440.958298  	92.419732 
2441.922723  	92.336687 
2442.887147  	92.313425 
2443.851572  	92.335383 
2444.815996  	92.396808 
2445.780420  	92.395508 
2446.744845  	92.332745 
2447.709269  	92.368717 
2448.673694  	92.401535 
2449.638118  	92.366237 
2450.602543  	92.298054 
2451.566967  	92.261389 
2452.531392  	92.293107 
2453.495816  	92.328985 
2454.460241  	92.328959 
2455.424665  	92.311027 
2456.389089  	92.294705 
2457.353514  	92.323993 
2458.317938  	92.343416 
2459.282363  	92.342476 
2460.246787  	92.333300 
2461.211212  	92.294836 
2462.175636  	92.292131 
2463.140061  	92.339758 
2464.104485  	92.345135 
2465.068910  	92.319092 
2466.033334  	92.287150 
2466.997758  	92.305421 
2467.962183  	92.351204 
2468.926607  	92.348338 
2469.891032  	92.340191 
2470.855456  	92.349656 
2471.819881  	92.340345 
2472.784305  	92.362905 
2473.748730  	92.370519 
2474.713154  	92.351300 
2475.677579  	92.304062 
2476.642003  	92.328381 
2477.606427  	92.286995 
2478.570852  	92.272977 
2479.535276  	92.321524 
2480.499701  	92.343965 
2481.464125  	92.312457 
2482.428550  	92.355128 
2483.392974  	92.421391 
2484.357399  	92.425405 
2485.321823  	92.327726 
2486.286248  	92.239447 
2487.250672  	92.261906 
2488.215096  	92.341168 
2489.179521  	92.339231 
2490.143945  	92.283058 
2491.108370  	92.213088 
2492.072794  	92.215075 
2493.037219  	92.283682 
2494.001643  	92.356634 
2494.966068  	92.370825 
2495.930492  	92.377136 
2496.894917  	92.358409 
2497.859341  	92.281224 
2498.823765  	92.257852 
2499.788190  	92.309464 
2500.752614  	92.319832 
2501.717039  	92.312550 
2502.681463  	92.307779 
2503.645888  	92.261625 
2504.610312  	92.201066 
2505.574737  	92.203539 
2506.539161  	92.245946 
2507.503586  	92.289694 
2508.468010  	92.300984 
2509.432435  	92.234874 
2510.396859  	92.190786 
2511.361283  	92.215064 
2512.325708  	92.200436 
2513.290132  	92.220756 
2514.254557  	92.305689 
2515.218981  	92.313753 
2516.183406  	92.259082 
2517.147830  	92.253928 
2518.112255  	92.210177 
2519.076679  	92.195438 
2520.041104  	92.217853 
2521.005528  	92.209785 
2521.969952  	92.167626 
2522.934377  	92.186422 
2523.898801  	92.248410 
2524.863226  	92.259695 
2525.827650  	92.208912 
2526.792075  	92.232891 
2527.756499  	92.241608 
2528.720924  	92.238393 
2529.685348  	92.184059 
2530.649773  	92.207431 
2531.614197  	92.225682 
2532.578621  	92.224172 
2533.543046  	92.218720 
2534.507470  	92.217788 
2535.471895  	92.222549 
2536.436319  	92.175158 
2537.400744  	92.142865 
2538.365168  	92.124920 
2539.329593  	92.161588 
2540.294017  	92.228471 
2541.258442  	92.232636 
2542.222866  	92.196647 
2543.187290  	92.198645 
2544.151715  	92.242750 
2545.116139  	92.274930 
2546.080564  	92.228346 
2547.044988  	92.082258 
2548.009413  	92.058393 
2548.973837  	92.170296 
2549.938262  	92.209138 
2550.902686  	92.168495 
2551.867111  	92.143951 
2552.831535  	92.091344 
2553.795959  	92.081388 
2554.760384  	92.112890 
2555.724808  	92.116944 
2556.689233  	92.116497 
2557.653657  	92.161556 
2558.618082  	92.171187 
2559.582506  	92.250565 
2560.546931  	92.234060 
2561.511355  	92.109896 
2562.475780  	92.065325 
2563.440204  	92.133903 
2564.404629  	92.177798 
2565.369053  	92.149298 
2566.333477  	92.146234 
2567.297902  	92.195225 
2568.262326  	92.178567 
2569.226751  	92.111640 
2570.191175  	92.065869 
2571.155600  	92.112331 
2572.120024  	92.114311 
2573.084449  	92.134806 
2574.048873  	92.102062 
2575.013298  	92.047635 
2575.977722  	92.070918 
2576.942146  	92.103939 
2577.906571  	92.102551 
2578.870995  	92.111131 
2579.835420  	92.105535 
2580.799844  	92.113025 
2581.764269  	92.090358 
2582.728693  	92.138271 
2583.693118  	92.131277 
2584.657542  	92.065363 
2585.621967  	92.075287 
2586.586391  	92.041166 
2587.550815  	92.034285 
2588.515240  	92.077426 
2589.479664  	92.037328 
2590.444089  	92.025854 
2591.408513  	92.105261 
2592.372938  	92.165424 
2593.337362  	92.093457 
2594.301787  	92.048535 
2595.266211  	92.062948 
2596.230636  	92.111570 
2597.195060  	92.173129 
2598.159484  	92.182356 
2599.123909  	92.184526 
2600.088333  	92.162336 
2601.052758  	92.098943 
2602.017182  	92.090443 
2602.981607  	92.096057 
2603.946031  	92.118017 
2604.910456  	92.152445 
2605.874880  	92.143372 
2606.839305  	92.129779 
2607.803729  	92.146062 
2608.768153  	92.141516 
2609.732578  	92.150401 
2610.697002  	92.124280 
2611.661427  	92.123866 
2612.625851  	92.129763 
2613.590276  	92.114604 
2614.554700  	92.069302 
2615.519125  	92.059451 
2616.483549  	92.076909 
2617.447974  	92.031949 
2618.412398  	92.050901 
2619.376822  	92.081412 
2620.341247  	92.068235 
2621.305671  	92.039850 
2622.270096  	92.017874 
2623.234520  	92.027668 
2624.198945  	92.018225 
2625.163369  	92.045494 
2626.127794  	92.033603 
2627.092218  	92.003690 
2628.056643  	92.004355 
2629.021067  	92.024388 
2629.985492  	92.063287 
2630.949916  	92.133628 
2631.914340  	92.085006 
2632.878765  	92.045199 
2633.843189  	92.056955 
2634.807614  	92.055602 
2635.772038  	92.044668 
2636.736463  	92.022183 
2637.700887  	92.047702 
2638.665312  	92.073688 
2639.629736  	92.057016 
2640.594161  	92.066021 
2641.558585  	92.090351 
2642.523009  	92.068255 
2643.487434  	92.038416 
2644.451858  	92.054157 
2645.416283  	92.067661 
2646.380707  	92.077865 
2647.345132  	92.087083 
2648.309556  	92.103599 
2649.273981  	92.102562 
2650.238405  	92.124856 
2651.202830  	92.143419 
2652.167254  	92.101568 
2653.131678  	92.077741 
2654.096103  	92.085665 
2655.060527  	92.068638 
2656.024952  	92.086481 
2656.989376  	92.097676 
2657.953801  	92.106529 
2658.918225  	92.137304 
2659.882650  	92.140359 
2660.847074  	92.135640 
2661.811499  	92.175007 
2662.775923  	92.188359 
2663.740347  	92.177897 
2664.704772  	92.177775 
2665.669196  	92.217400 
2666.633621  	92.225877 
2667.598045  	92.217836 
2668.562470  	92.219344 
2669.526894  	92.211666 
2670.491319  	92.185621 
2671.455743  	92.212875 
2672.420168  	92.241962 
2673.384592  	92.236846 
2674.349016  	92.225739 
2675.313441  	92.220509 
2676.277865  	92.224187 
2677.242290  	92.233418 
2678.206714  	92.233252 
2679.171139  	92.223030 
2680.135563  	92.215636 
2681.099988  	92.210714 
2682.064412  	92.204761 
2683.028837  	92.216064 
2683.993261  	92.219551 
2684.957686  	92.222315 
2685.922110  	92.233131 
2686.886534  	92.230836 
2687.850959  	92.236838 
2688.815383  	92.243665 
2689.779808  	92.222884 
2690.744232  	92.215328 
2691.708657  	92.212502 
2692.673081  	92.210421 
2693.637506  	92.186629 
2694.601930  	92.186942 
2695.566355  	92.225583 
2696.530779  	92.237379 
2697.495203  	92.226556 
2698.459628  	92.235264 
2699.424052  	92.230994 
2700.388477  	92.216648 
2701.352901  	92.200390 
2702.317326  	92.194677 
2703.281750  	92.219349 
2704.246175  	92.231764 
2705.210599  	92.217140 
2706.175024  	92.216428 
2707.139448  	92.239082 
2708.103872  	92.217296 
2709.068297  	92.213286 
2710.032721  	92.220519 
2710.997146  	92.210325 
2711.961570  	92.215336 
2712.925995  	92.231239 
2713.890419  	92.238340 
2714.854844  	92.243944 
2715.819268  	92.238615 
2716.783693  	92.233524 
2717.748117  	92.233742 
2718.712541  	92.234067 
2719.676966  	92.221859 
2720.641390  	92.221847 
2721.605815  	92.236295 
2722.570239  	92.204306 
2723.534664  	92.198779 
2724.499088  	92.199528 
2725.463513  	92.191293 
2726.427937  	92.204970 
2727.392362  	92.203044 
2728.356786  	92.182067 
2729.321210  	92.158615 
2730.285635  	92.160232 
2731.250059  	92.141241 
2732.214484  	92.124658 
2733.178908  	92.130541 
2734.143333  	92.158214 
2735.107757  	92.181732 
2736.072182  	92.201547 
2737.036606  	92.199994 
2738.001031  	92.162409 
2738.965455  	92.141380 
2739.929879  	92.145036 
2740.894304  	92.157651 
2741.858728  	92.154321 
2742.823153  	92.126664 
2743.787577  	92.117111 
2744.752002  	92.137147 
2745.716426  	92.117114 
2746.680851  	92.110330 
2747.645275  	92.110816 
2748.609700  	92.110386 
2749.574124  	92.113098 
2750.538549  	92.120448 
2751.502973  	92.087067 
2752.467397  	92.085762 
2753.431822  	92.125159 
2754.396246  	92.145333 
2755.360671  	92.121270 
2756.325095  	92.123230 
2757.289520  	92.125682 
2758.253944  	92.155667 
2759.218369  	92.179093 
2760.182793  	92.167925 
2761.147218  	92.117561 
2762.111642  	92.086022 
2763.076066  	92.110638 
2764.040491  	92.128784 
2765.004915  	92.117205 
2765.969340  	92.128928 
2766.933764  	92.143657 
2767.898189  	92.128989 
2768.862613  	92.124664 
2769.827038  	92.102603 
2770.791462  	92.078959 
2771.755887  	92.074732 
2772.720311  	92.075502 
2773.684735  	92.105758 
2774.649160  	92.106524 
2775.613584  	92.078468 
2776.578009  	92.041895 
2777.542433  	92.034286 
2778.506858  	92.046626 
2779.471282  	92.082659 
2780.435707  	92.096398 
2781.400131  	92.064612 
2782.364556  	92.060854 
2783.328980  	92.067832 
2784.293404  	92.054436 
2785.257829  	92.054033 
2786.222253  	92.068207 
2787.186678  	92.053443 
2788.151102  	92.022918 
2789.115527  	92.048095 
2790.079951  	92.064033 
2791.044376  	92.067188 
2792.008800  	92.043866 
2792.973225  	92.002896 
2793.937649  	91.994403 
2794.902073  	92.030799 
2795.866498  	92.045241 
2796.830922  	92.051567 
2797.795347  	92.051894 
2798.759771  	92.020524 
2799.724196  	91.971512 
2800.688620  	91.953654 
2801.653045  	91.958296 
2802.617469  	91.949595 
2803.581894  	91.960873 
2804.546318  	91.959475 
2805.510743  	91.953202 
2806.475167  	91.942414 
2807.439591  	91.926077 
2808.404016  	91.922332 
2809.368440  	91.937052 
2810.332865  	91.966597 
2811.297289  	91.937237 
2812.261714  	91.922310 
2813.226138  	91.957236 
2814.190563  	91.953811 
2815.154987  	91.966263 
2816.119412  	91.972846 
2817.083836  	91.926428 
2818.048260  	91.933745 
2819.012685  	91.965702 
2819.977109  	91.987518 
2820.941534  	91.957339 
2821.905958  	91.946497 
2822.870383  	91.921207 
2823.834807  	91.918043 
2824.799232  	91.921107 
2825.763656  	91.929070 
2826.728081  	91.927517 
2827.692505  	91.911903 
2828.656929  	91.917834 
2829.621354  	91.907973 
2830.585778  	91.880901 
2831.550203  	91.887083 
2832.514627  	91.855872 
2833.479052  	91.824213 
2834.443476  	91.821320 
2835.407901  	91.829537 
2836.372325  	91.831141 
2837.336750  	91.820928 
2838.301174  	91.755209 
2839.265598  	91.704552 
2840.230023  	91.700759 
2841.194447  	91.691161 
2842.158872  	91.628304 
2843.123296  	91.588051 
2844.087721  	91.547887 
2845.052145  	91.467573 
2846.016570  	91.386842 
2846.980994  	91.321362 
2847.945419  	91.254753 
2848.909843  	91.177096 
2849.874267  	91.109539 
2850.838692  	91.103339 
2851.803116  	91.120028 
2852.767541  	91.113184 
2853.731965  	91.131438 
2854.696390  	91.176221 
2855.660814  	91.224649 
2856.625239  	91.265238 
2857.589663  	91.299666 
2858.554088  	91.329843 
2859.518512  	91.330039 
2860.482936  	91.295680 
2861.447361  	91.297072 
2862.411785  	91.342343 
2863.376210  	91.372258 
2864.340634  	91.373234 
2865.305059  	91.367278 
2866.269483  	91.386344 
2867.233908  	91.367703 
2868.198332  	91.345380 
2869.162757  	91.337098 
2870.127181  	91.344560 
2871.091606  	91.334565 
2872.056030  	91.350439 
2873.020454  	91.366198 
2873.984879  	91.346162 
2874.949303  	91.295370 
2875.913728  	91.289315 
2876.878152  	91.329664 
2877.842577  	91.334393 
2878.807001  	91.325415 
2879.771426  	91.345640 
2880.735850  	91.304499 
2881.700275  	91.251056 
2882.664699  	91.237727 
2883.629123  	91.228683 
2884.593548  	91.233288 
2885.557972  	91.219088 
2886.522397  	91.191207 
2887.486821  	91.187951 
2888.451246  	91.187543 
2889.415670  	91.169529 
2890.380095  	91.118338 
2891.344519  	91.086068 
2892.308944  	91.078016 
2893.273368  	91.058149 
2894.237792  	91.030700 
2895.202217  	90.984423 
2896.166641  	91.011557 
2897.131066  	91.020472 
2898.095490  	90.963809 
2899.059915  	90.925850 
2900.024339  	90.870526 
2900.988764  	90.848216 
2901.953188  	90.819763 
2902.917613  	90.730361 
2903.882037  	90.641841 
2904.846461  	90.593555 
2905.810886  	90.552066 
2906.775310  	90.516821 
2907.739735  	90.451441 
2908.704159  	90.423111 
2909.668584  	90.421661 
2910.633008  	90.413669 
2911.597433  	90.427567 
2912.561857  	90.458190 
2913.526282  	90.452139 
2914.490706  	90.435448 
2915.455130  	90.426323 
2916.419555  	90.427784 
2917.383979  	90.444542 
2918.348404  	90.449603 
2919.312828  	90.456553 
2920.277253  	90.470899 
2921.241677  	90.490448 
2922.206102  	90.543571 
2923.170526  	90.582267 
2924.134951  	90.622682 
2925.099375  	90.678439 
2926.063800  	90.723975 
2927.028224  	90.750721 
2927.992648  	90.775500 
2928.957073  	90.805245 
2929.921497  	90.822571 
2930.885922  	90.845900 
2931.850346  	90.891477 
2932.814771  	90.929292 
2933.779195  	90.935773 
2934.743620  	90.952818 
2935.708044  	90.956398 
2936.672469  	90.940158 
2937.636893  	90.967425 
2938.601317  	90.986757 
2939.565742  	90.994611 
2940.530166  	91.008266 
2941.494591  	90.994670 
2942.459015  	90.967483 
2943.423440  	90.929108 
2944.387864  	90.875232 
2945.352289  	90.822884 
2946.316713  	90.797804 
2947.281138  	90.775551 
2948.245562  	90.751426 
2949.209986  	90.675311 
2950.174411  	90.573659 
2951.138835  	90.583831 
2952.103260  	90.533642 
2953.067684  	90.440495 
2954.032109  	90.378826 
2954.996533  	90.323243 
2955.960958  	90.254929 
2956.925382  	90.199034 
2957.889807  	90.165324 
2958.854231  	90.128610 
2959.818655  	90.114550 
2960.783080  	90.115128 
2961.747504  	90.064424 
2962.711929  	90.028352 
2963.676353  	89.974038 
2964.640778  	89.917230 
2965.605202  	89.862606 
2966.569627  	89.818490 
2967.534051  	89.888693 
2968.498476  	89.948224 
2969.462900  	89.931525 
2970.427324  	89.920271 
2971.391749  	89.960849 
2972.356173  	90.061603 
2973.320598  	90.137846 
2974.285022  	90.193491 
2975.249447  	90.216790 
2976.213871  	90.295895 
2977.178296  	90.403215 
2978.142720  	90.474901 
2979.107145  	90.563068 
2980.071569  	90.666058 
2981.035993  	90.721830 
2982.000418  	90.778962 
2982.964842  	90.874513 
2983.929267  	90.943568 
2984.893691  	90.985199 
2985.858116  	91.061057 
2986.822540  	91.104310 
2987.786965  	91.084008 
2988.751389  	91.111696 
2989.715814  	91.164337 
2990.680238  	91.229631 
2991.644663  	91.262130 
2992.609087  	91.246233 
2993.573511  	91.283196 
2994.537936  	91.344958 
2995.502360  	91.403373 
2996.466785  	91.382558 
2997.431209  	91.390116 
2998.395634  	91.413970 
2999.360058  	91.356003 
3000.324483  	91.330459 
3001.288907  	91.369318 
3002.253332  	91.404079 
3003.217756  	91.430969 
3004.182180  	91.392963 
3005.146605  	91.385291 
3006.111029  	91.476290 
3007.075454  	91.531729 
3008.039878  	91.552796 
3009.004303  	91.615555 
3009.968727  	91.597159 
3010.933152  	91.536012 
3011.897576  	91.506513 
3012.862001  	91.478639 
3013.826425  	91.625510 
3014.790849  	91.730344 
3015.755274  	91.690538 
3016.719698  	91.738639 
3017.684123  	91.830126 
3018.648547  	91.865026 
3019.612972  	91.862793 
3020.577396  	91.914156 
3021.541821  	91.947270 
3022.506245  	91.945803 
3023.470670  	91.973856 
3024.435094  	92.035554 
3025.399518  	92.007518 
3026.363943  	91.997245 
3027.328367  	92.041539 
3028.292792  	92.079600 
3029.257216  	92.114514 
3030.221641  	92.051752 
3031.186065  	91.919567 
3032.150490  	91.899945 
3033.114914  	92.009678 
3034.079339  	92.028584 
3035.043763  	91.997226 
3036.008187  	92.046265 
3036.972612  	92.084018 
3037.937036  	92.083683 
3038.901461  	92.081338 
3039.865885  	92.096575 
3040.830310  	92.099618 
3041.794734  	92.052793 
3042.759159  	92.042017 
3043.723583  	92.074748 
3044.688008  	92.075206 
3045.652432  	92.084219 
3046.616857  	92.049058 
3047.581281  	91.978070 
3048.545705  	91.851639 
3049.510130  	91.797651 
3050.474554  	91.818212 
3051.438979  	91.806710 
3052.403403  	91.800504 
3053.367828  	91.774622 
3054.332252  	91.753524 
3055.296677  	91.756259 
3056.261101  	91.649021 
3057.225526  	91.647066 
3058.189950  	91.771320 
3059.154374  	91.829908 
3060.118799  	91.855074 
3061.083223  	91.880157 
3062.047648  	91.860073 
3063.012072  	91.798560 
3063.976497  	91.725744 
3064.940921  	91.726820 
3065.905346  	91.800988 
3066.869770  	91.748155 
3067.834195  	91.761364 
3068.798619  	91.820720 
3069.763043  	91.816301 
3070.727468  	91.848356 
3071.691892  	91.867134 
3072.656317  	91.853245 
3073.620741  	91.853031 
3074.585166  	91.899033 
3075.549590  	91.933737 
3076.514015  	91.901934 
3077.478439  	91.872513 
3078.442864  	91.855616 
3079.407288  	91.818798 
3080.371712  	91.804840 
3081.336137  	91.833518 
3082.300561  	91.816676 
3083.264986  	91.877768 
3084.229410  	91.949932 
3085.193835  	91.936892 
3086.158259  	91.950566 
3087.122684  	91.927863 
3088.087108  	91.957250 
3089.051533  	92.022936 
3090.015957  	92.009431 
3090.980381  	92.009367 
3091.944806  	92.041334 
3092.909230  	92.013720 
3093.873655  	92.002018 
3094.838079  	91.997084 
3095.802504  	92.002155 
3096.766928  	92.009955 
3097.731353  	92.008359 
3098.695777  	92.001131 
3099.660202  	91.981965 
3100.624626  	91.924062 
3101.589050  	91.862477 
3102.553475  	91.915928 
3103.517899  	91.946817 
3104.482324  	91.982257 
3105.446748  	92.000919 
3106.411173  	91.958378 
3107.375597  	91.951557 
3108.340022  	91.985062 
3109.304446  	92.036766 
3110.268871  	92.011961 
3111.233295  	92.006596 
3112.197720  	92.000022 
3113.162144  	92.035149 
3114.126568  	92.039958 
3115.090993  	91.972738 
3116.055417  	91.976805 
3117.019842  	92.073224 
3117.984266  	92.062999 
3118.948691  	91.976698 
3119.913115  	92.062775 
3120.877540  	92.168086 
3121.841964  	92.077072 
3122.806389  	91.986001 
3123.770813  	92.053128 
3124.735237  	92.109021 
3125.699662  	92.089317 
3126.664086  	92.064055 
3127.628511  	92.109784 
3128.592935  	92.146993 
3129.557360  	92.130747 
3130.521784  	92.131169 
3131.486209  	92.139376 
3132.450633  	92.084926 
3133.415058  	92.058546 
3134.379482  	92.186429 
3135.343906  	92.253457 
3136.308331  	92.231893 
3137.272755  	92.170446 
3138.237180  	92.165855 
3139.201604  	92.213925 
3140.166029  	92.252086 
3141.130453  	92.259592 
3142.094878  	92.215864 
3143.059302  	92.139504 
3144.023727  	92.150994 
3144.988151  	92.204267 
3145.952575  	92.156789 
3146.917000  	92.119169 
3147.881424  	92.196761 
3148.845849  	92.283032 
3149.810273  	92.268475 
3150.774698  	92.268347 
3151.739122  	92.275360 
3152.703547  	92.230851 
3153.667971  	92.188752 
3154.632396  	92.235521 
3155.596820  	92.287145 
3156.561244  	92.241075 
3157.525669  	92.246679 
3158.490093  	92.233779 
3159.454518  	92.214951 
3160.418942  	92.202584 
3161.383367  	92.198221 
3162.347791  	92.217412 
3163.312216  	92.188859 
3164.276640  	92.193541 
3165.241065  	92.250282 
3166.205489  	92.276424 
3167.169914  	92.254515 
3168.134338  	92.210624 
3169.098762  	92.192965 
3170.063187  	92.178094 
3171.027611  	92.170216 
3171.992036  	92.214395 
3172.956460  	92.219775 
3173.920885  	92.140144 
3174.885309  	92.129417 
3175.849734  	92.131790 
3176.814158  	92.153485 
3177.778583  	92.106367 
3178.743007  	92.045849 
3179.707431  	92.103713 
3180.671856  	92.208757 
3181.636280  	92.273113 
3182.600705  	92.254488 
3183.565129  	92.196299 
3184.529554  	92.164506 
3185.493978  	92.173437 
3186.458403  	92.178315 
3187.422827  	92.177105 
3188.387252  	92.196873 
3189.351676  	92.247765 
3190.316100  	92.230619 
3191.280525  	92.214155 
3192.244949  	92.188899 
3193.209374  	92.189061 
3194.173798  	92.164091 
3195.138223  	92.205769 
3196.102647  	92.153082 
3197.067072  	92.027742 
3198.031496  	92.025397 
3198.995921  	92.197783 
3199.960345  	92.265667 
3200.924769  	92.255825 
3201.889194  	92.300392 
3202.853618  	92.269984 
3203.818043  	92.178409 
3204.782467  	92.142986 
3205.746892  	92.130999 
3206.711316  	92.087021 
3207.675741  	92.152504 
3208.640165  	92.203512 
3209.604590  	92.166017 
3210.569014  	92.161805 
3211.533438  	92.227449 
3212.497863  	92.239254 
3213.462287  	92.172051 
3214.426712  	92.039189 
3215.391136  	92.032993 
3216.355561  	92.101238 
3217.319985  	92.177068 
3218.284410  	92.202464 
3219.248834  	92.088812 
3220.213259  	92.095916 
3221.177683  	92.201962 
3222.142107  	92.162778 
3223.106532  	92.145238 
3224.070956  	92.145315 
3225.035381  	92.122093 
3225.999805  	92.145459 
3226.964230  	92.144051 
3227.928654  	92.142106 
3228.893079  	92.188464 
3229.857503  	92.200920 
3230.821928  	92.159771 
3231.786352  	92.157634 
3232.750777  	92.179068 
3233.715201  	92.181146 
3234.679625  	92.140584 
3235.644050  	92.123338 
3236.608474  	92.112914 
3237.572899  	92.111367 
3238.537323  	92.189048 
3239.501748  	92.181222 
3240.466172  	92.113263 
3241.430597  	92.156300 
3242.395021  	92.181950 
3243.359446  	92.144573 
3244.323870  	92.112061 
3245.288294  	92.037526 
3246.252719  	92.068204 
3247.217143  	92.144295 
3248.181568  	92.153856 
3249.145992  	92.149520 
3250.110417  	92.185886 
3251.074841  	92.212957 
3252.039266  	92.155456 
3253.003690  	92.141678 
3253.968115  	92.091961 
3254.932539  	92.074091 
3255.896963  	92.126680 
3256.861388  	92.091295 
3257.825812  	92.129679 
3258.790237  	92.171896 
3259.754661  	92.169395 
3260.719086  	92.139759 
3261.683510  	92.119146 
3262.647935  	92.111425 
3263.612359  	92.143388 
3264.576784  	92.160079 
3265.541208  	92.110725 
3266.505632  	92.075066 
3267.470057  	92.118121 
3268.434481  	92.126043 
3269.398906  	92.076324 
3270.363330  	92.026476 
3271.327755  	92.039943 
3272.292179  	92.068521 
3273.256604  	92.019777 
3274.221028  	92.003219 
3275.185453  	92.099833 
3276.149877  	92.103200 
3277.114301  	92.075119 
3278.078726  	92.072709 
3279.043150  	92.011986 
3280.007575  	91.986826 
3280.971999  	91.994570 
3281.936424  	92.037938 
3282.900848  	92.007806 
3283.865273  	91.941370 
3284.829697  	91.957402 
3285.794122  	92.030772 
3286.758546  	92.063877 
3287.722971  	92.060134 
3288.687395  	92.058105 
3289.651819  	92.060684 
3290.616244  	92.036684 
3291.580668  	92.005061 
3292.545093  	92.049384 
3293.509517  	92.090563 
3294.473942  	92.071624 
3295.438366  	92.029065 
3296.402791  	92.048184 
3297.367215  	92.019108 
3298.331640  	91.975120 
3299.296064  	91.993019 
3300.260488  	91.999611 
3301.224913  	92.040178 
3302.189337  	92.143482 
3303.153762  	92.113445 
3304.118186  	92.075697 
3305.082611  	92.117084 
3306.047035  	92.130343 
3307.011460  	92.146947 
3307.975884  	92.052671 
3308.940309  	91.959244 
3309.904733  	92.029746 
3310.869157  	92.049747 
3311.833582  	92.086049 
3312.798006  	92.092217 
3313.762431  	92.061868 
3314.726855  	92.118185 
3315.691280  	92.124020 
3316.655704  	92.110591 
3317.620129  	92.093951 
3318.584553  	92.128098 
3319.548978  	92.152393 
3320.513402  	92.136580 
3321.477826  	92.141114 
3322.442251  	92.165211 
3323.406675  	92.167655 
3324.371100  	92.168768 
3325.335524  	92.133353 
3326.299949  	92.090097 
3327.264373  	92.050053 
3328.228798  	92.037727 
3329.193222  	92.035912 
3330.157647  	92.037180 
3331.122071  	92.036067 
3332.086495  	92.135170 
3333.050920  	92.162283 
3334.015344  	92.042846 
3334.979769  	91.911582 
3335.944193  	91.984759 
3336.908618  	91.993799 
3337.873042  	92.031304 
3338.837467  	92.102029 
3339.801891  	92.113458 
3340.766316  	92.131893 
3341.730740  	92.080241 
3342.695164  	92.063331 
3343.659589  	92.082403 
3344.624013  	92.170203 
3345.588438  	92.235848 
3346.552862  	92.192092 
3347.517287  	92.092515 
3348.481711  	92.059226 
3349.446136  	92.122560 
3350.410560  	92.162483 
3351.374985  	92.201569 
3352.339409  	92.232625 
3353.303834  	92.153795 
3354.268258  	92.128617 
3355.232682  	92.117375 
3356.197107  	92.030557 
3357.161531  	92.057151 
3358.125956  	92.154562 
3359.090380  	92.169244 
3360.054805  	92.096918 
3361.019229  	91.999128 
3361.983654  	91.945705 
3362.948078  	92.067416 
3363.912503  	92.128824 
3364.876927  	92.070363 
3365.841351  	92.142177 
3366.805776  	92.161928 
3367.770200  	92.012450 
3368.734625  	92.047978 
3369.699049  	92.180417 
3370.663474  	92.208985 
3371.627898  	92.239850 
3372.592323  	92.182112 
3373.556747  	92.139126 
3374.521172  	92.193214 
3375.485596  	92.197269 
3376.450020  	92.177046 
3377.414445  	92.183766 
3378.378869  	92.171460 
3379.343294  	92.170224 
3380.307718  	92.212147 
3381.272143  	92.221882 
3382.236567  	92.146501 
3383.200992  	92.141956 
3384.165416  	92.072293 
3385.129841  	92.013267 
3386.094265  	92.047241 
3387.058689  	92.111691 
3388.023114  	92.164963 
3388.987538  	92.150390 
3389.951963  	92.129965 
3390.916387  	92.135143 
3391.880812  	92.061104 
3392.845236  	91.861258 
3393.809661  	91.884296 
3394.774085  	92.114102 
3395.738510  	92.164243 
3396.702934  	92.130797 
3397.667358  	92.009215 
3398.631783  	92.104092 
3399.596207  	92.240768 
3400.560632  	92.167121 
3401.525056  	92.042035 
3402.489481  	92.143089 
3403.453905  	92.113702 
3404.418330  	92.063192 
3405.382754  	92.113556 
3406.347179  	92.112641 
3407.311603  	92.072727 
3408.276028  	92.069216 
3409.240452  	91.998384 
3410.204876  	91.878197 
3411.169301  	91.918082 
3412.133725  	92.022910 
3413.098150  	92.052037 
3414.062574  	92.065735 
3415.026999  	92.036545 
3415.991423  	91.943195 
3416.955848  	91.957178 
3417.920272  	91.936056 
3418.884697  	91.835941 
3419.849121  	91.533669 
3420.813545  	91.235066 
3421.777970  	91.348842 
3422.742394  	91.503414 
3423.706819  	91.641605 
3424.671243  	91.736414 
3425.635668  	91.751429 
3426.600092  	91.720857 
3427.564517  	91.760076 
3428.528941  	91.735800 
3429.493366  	91.766976 
3430.457790  	91.776312 
3431.422214  	91.720310 
3432.386639  	91.735487 
3433.351063  	91.786176 
3434.315488  	91.886169 
3435.279912  	91.881243 
3436.244337  	91.830166 
3437.208761  	91.892667 
3438.173186  	91.918921 
3439.137610  	91.879487 
3440.102035  	91.884257 
3441.066459  	91.882354 
3442.030883  	91.794856 
3442.995308  	91.615525 
3443.959732  	91.771964 
3444.924157  	91.862396 
3445.888581  	91.801423 
3446.853006  	91.328977 
3447.817430  	91.037891 
3448.781855  	91.692285 
3449.746279  	92.034725 
3450.710704  	92.090496 
3451.675128  	92.114982 
3452.639552  	92.155104 
3453.603977  	92.178633 
3454.568401  	92.189715 
3455.532826  	92.124018 
3456.497250  	92.063103 
3457.461675  	92.036141 
3458.426099  	92.017144 
3459.390524  	92.041124 
3460.354948  	92.058063 
3461.319373  	91.899413 
3462.283797  	91.809371 
3463.248221  	91.839729 
3464.212646  	92.099540 
3465.177070  	92.174889 
3466.141495  	92.067750 
3467.105919  	91.883936 
3468.070344  	91.980504 
3469.034768  	92.194248 
3469.999193  	92.266937 
3470.963617  	92.228300 
3471.928042  	92.173862 
3472.892466  	92.176599 
3473.856891  	92.145405 
3474.821315  	92.022965 
3475.785739  	92.129505 
3476.750164  	92.238352 
3477.714588  	92.241061 
3478.679013  	92.237545 
3479.643437  	92.119862 
3480.607862  	91.747297 
3481.572286  	91.637143 
3482.536711  	91.552323 
3483.501135  	91.843616 
3484.465560  	92.072897 
3485.429984  	92.017209 
3486.394408  	92.049186 
3487.358833  	92.016857 
3488.323257  	91.747844 
3489.287682  	91.872495 
3490.252106  	92.144539 
3491.216531  	92.109323 
3492.180955  	92.150167 
3493.145380  	92.262496 
3494.109804  	92.287717 
3495.074229  	92.111409 
3496.038653  	91.847461 
3497.003077  	91.749308 
3497.967502  	91.917044 
3498.931926  	92.095205 
3499.896351  	92.034199 
3500.860775  	91.918030 
3501.825200  	91.526984 
3502.789624  	91.016364 
3503.754049  	90.956732 
3504.718473  	91.386817 
3505.682898  	91.729936 
3506.647322  	91.959749 
3507.611746  	92.086388 
3508.576171  	91.825761 
3509.540595  	91.062318 
3510.505020  	91.233117 
3511.469444  	91.735381 
3512.433869  	91.839503 
3513.398293  	91.900749 
3514.362718  	92.051816 
3515.327142  	92.213958 
3516.291567  	92.218538 
3517.255991  	92.076725 
3518.220415  	91.997110 
3519.184840  	91.991526 
3520.149264  	92.047681 
3521.113689  	92.102633 
3522.078113  	91.819579 
3523.042538  	90.980855 
3524.006962  	90.632312 
3524.971387  	91.038232 
3525.935811  	91.265377 
3526.900236  	91.157815 
3527.864660  	90.933410 
3528.829085  	91.031932 
3529.793509  	91.276806 
3530.757933  	91.571448 
3531.722358  	91.549312 
3532.686782  	91.807878 
3533.651207  	92.021258 
3534.615631  	92.078416 
3535.580056  	91.779580 
3536.544480  	91.089861 
3537.508905  	91.325992 
3538.473329  	91.896549 
3539.437754  	91.908710 
3540.402178  	91.954619 
3541.366602  	92.025651 
3542.331027  	91.959620 
3543.295451  	91.587362 
3544.259876  	91.165321 
3545.224300  	90.230923 
3546.188725  	90.042484 
3547.153149  	90.135087 
3548.117574  	90.568118 
3549.081998  	91.473971 
3550.046423  	91.827761 
3551.010847  	91.771563 
3551.975271  	91.131001 
3552.939696  	90.767438 
3553.904120  	91.127115 
3554.868545  	91.568953 
3555.832969  	91.917720 
3556.797394  	91.868680 
3557.761818  	91.957932 
3558.726243  	92.011772 
3559.690667  	91.523191 
3560.655092  	91.056056 
3561.619516  	91.506868 
3562.583940  	91.496077 
3563.548365  	91.317535 
3564.512789  	91.290991 
3565.477214  	90.493245 
3566.441638  	88.100146 
3567.406063  	87.819825 
3568.370487  	88.317909 
3569.334912  	90.060444 
3570.299336  	91.321702 
3571.263761  	91.511725 
3572.228185  	91.893776 
3573.192609  	91.925783 
3574.157034  	91.849667 
3575.121458  	91.749357 
3576.085883  	91.807763 
3577.050307  	91.748218 
3578.014732  	91.801264 
3578.979156  	91.865747 
3579.943581  	91.418432 
3580.908005  	91.430861 
3581.872430  	91.906905 
3582.836854  	91.905060 
3583.801278  	91.740029 
3584.765703  	91.743400 
3585.730127  	91.299192 
3586.694552  	89.599474 
3587.658976  	88.610385 
3588.623401  	88.862979 
3589.587825  	90.030991 
3590.552250  	91.512904 
3591.516674  	91.883908 
3592.481099  	91.751002 
3593.445523  	91.056327 
3594.409948  	91.079434 
3595.374372  	90.576035 
3596.338796  	90.468941 
3597.303221  	91.454185 
3598.267645  	91.531368 
3599.232070  	91.182348 
3600.196494  	91.231825 
3601.160919  	90.991331 
3602.125343  	91.307651 
3603.089768  	91.488566 
3604.054192  	91.818390 
3605.018617  	92.038716 
3605.983041  	91.826901 
3606.947465  	90.690272 
3607.911890  	90.098799 
3608.876314  	90.311755 
3609.840739  	90.018638 
3610.805163  	91.126637 
3611.769588  	91.118124 
3612.734012  	89.802290 
3613.698437  	89.881880 
3614.662861  	90.062612 
3615.627286  	90.214161 
3616.591710  	91.249340 
3617.556134  	90.591607 
3618.520559  	89.648808 
3619.484983  	89.529940 
3620.449408  	89.592645 
3621.413832  	90.470034 
3622.378257  	91.295431 
3623.342681  	91.789968 
3624.307106  	91.984829 
3625.271530  	91.904843 
3626.235955  	91.310517 
3627.200379  	91.068109 
3628.164803  	90.161357 
3629.129228  	87.216922 
3630.093652  	87.718958 
3631.058077  	90.296858 
3632.022501  	91.407033 
3632.986926  	91.498955 
3633.951350  	90.745990 
3634.915775  	91.103782 
3635.880199  	91.828406 
3636.844624  	91.934592 
3637.809048  	91.766819 
3638.773472  	91.663379 
3639.737897  	91.914263 
3640.702321  	91.952871 
3641.666746  	91.643400 
3642.631170  	91.164426 
3643.595595  	91.465492 
3644.560019  	91.889643 
3645.524444  	91.591679 
3646.488868  	90.437412 
3647.453293  	88.483821 
3648.417717  	88.627336 
3649.382142  	88.382022 
3650.346566  	87.418491 
3651.310990  	87.658687 
3652.275415  	89.927421 
3653.239839  	91.385749 
3654.204264  	91.853222 
3655.168688  	91.753187 
3656.133113  	90.691390 
3657.097537  	90.412901 
3658.061962  	91.635226 
3659.026386  	91.922845 
3659.990811  	91.811469 
3660.955235  	91.991119 
3661.919659  	92.296904 
3662.884084  	92.323073 
3663.848508  	92.297005 
3664.812933  	92.251775 
3665.777357  	92.241912 
3666.741782  	92.249698 
3667.706206  	92.121015 
3668.670631  	91.132975 
3669.635055  	89.914271 
3670.599480  	89.059569 
3671.563904  	89.678237 
3672.528328  	91.491275 
3673.492753  	91.775667 
3674.457177  	90.477830 
3675.421602  	87.569411 
3676.386026  	88.048582 
3677.350451  	89.986063 
3678.314875  	90.873099 
3679.279300  	90.911457 
3680.243724  	91.035646 
3681.208149  	91.910474 
3682.172573  	92.271499 
3683.136997  	92.312782 
3684.101422  	92.152641 
3685.065846  	92.043518 
3686.030271  	92.188654 
3686.994695  	92.032993 
3687.959120  	91.191367 
3688.923544  	90.096940 
3689.887969  	90.645733 
3690.852393  	89.974912 
3691.816818  	89.811125 
3692.781242  	91.497581 
3693.745666  	91.941799 
3694.710091  	92.073194 
3695.674515  	92.279777 
3696.638940  	92.112403 
3697.603364  	92.140155 
3698.567789  	92.408248 
3699.532213  	92.394187 
3700.496638  	92.345936 
3701.461062  	91.497008 
3702.425487  	90.813643 
3703.389911  	91.843057 
3704.354335  	92.325171 
3705.318760  	92.239396 
3706.283184  	92.230616 
3707.247609  	92.357933 
3708.212033  	92.283441 
3709.176458  	91.534913 
3710.140882  	90.860565 
3711.105307  	90.584746 
3712.069731  	89.433104 
3713.034156  	89.662195 
3713.998580  	91.231615 
3714.963005  	91.310724 
3715.927429  	91.629086 
3716.891853  	92.266527 
3717.856278  	92.310456 
3718.820702  	91.598646 
3719.785127  	91.361566 
3720.749551  	92.052226 
3721.713976  	91.611209 
3722.678400  	90.248142 
3723.642825  	90.905984 
3724.607249  	91.248863 
3725.571674  	90.496980 
3726.536098  	90.285397 
3727.500522  	90.592580 
3728.464947  	91.650692 
3729.429371  	92.246366 
3730.393796  	92.142724 
3731.358220  	91.711521 
3732.322645  	90.805852 
3733.287069  	90.890704 
3734.251494  	90.214394 
3735.215918  	87.014694 
3736.180343  	87.395314 
3737.144767  	89.043969 
3738.109191  	90.144902 
3739.073616  	90.674010 
3740.038040  	91.248210 
3741.002465  	90.826568 
3741.966889  	90.987990 
3742.931314  	91.605072 
3743.895738  	90.644125 
3744.860163  	87.414063 
3745.824587  	89.554398 
3746.789012  	90.558846 
3747.753436  	90.626104 
3748.717860  	90.540237 
3749.682285  	89.962381 
3750.646709  	89.717090 
3751.611134  	89.332308 
3752.575558  	88.216925 
3753.539983  	90.009514 
3754.504407  	91.088875 
3755.468832  	91.635449 
3756.433256  	91.348706 
3757.397681  	91.361964 
3758.362105  	91.596967 
3759.326529  	90.570341 
3760.290954  	90.137561 
3761.255378  	91.711775 
3762.219803  	92.115666 
3763.184227  	92.217679 
3764.148652  	92.296211 
3765.113076  	91.797696 
3766.077501  	90.778385 
3767.041925  	91.519695 
3768.006350  	92.165754 
3768.970774  	91.865024 
3769.935199  	90.789392 
3770.899623  	90.977650 
3771.864047  	91.831137 
3772.828472  	92.214831 
3773.792896  	92.368489 
3774.757321  	92.490128 
3775.721745  	92.592352 
3776.686170  	92.613924 
3777.650594  	92.469324 
3778.615019  	92.002707 
3779.579443  	91.070996 
3780.543868  	91.319259 
3781.508292  	92.226541 
3782.472716  	92.306809 
3783.437141  	92.354332 
3784.401565  	91.933027 
3785.365990  	91.396626 
3786.330414  	91.791550 
3787.294839  	92.213893 
3788.259263  	92.440189 
3789.223688  	92.483884 
3790.188112  	92.471342 
3791.152537  	92.543687 
3792.116961  	92.545757 
3793.081385  	92.592925 
3794.045810  	92.664554 
3795.010234  	92.500066 
3795.974659  	91.865883 
3796.939083  	90.957792 
3797.903508  	91.229563 
3798.867932  	91.821182 
3799.832357  	91.975324 
3800.796781  	90.985319 
3801.761206  	89.440107 
3802.725630  	89.890871 
3803.690054  	90.998008 
3804.654479  	91.998488 
3805.618903  	92.147238 
3806.583328  	91.382443 
3807.547752  	90.657577 
3808.512177  	91.762391 
3809.476601  	92.230591 
3810.441026  	92.310067 
3811.405450  	92.475997 
3812.369875  	92.538394 
3813.334299  	92.559422 
3814.298723  	92.458853 
3815.263148  	91.830638 
3816.227572  	90.340292 
3817.191997  	90.759522 
3818.156421  	91.664507 
3819.120846  	91.641236 
3820.085270  	90.955610 
3821.049695  	89.278646 
3822.014119  	89.102126 
3822.978544  	90.867838 
3823.942968  	91.523892 
3824.907392  	91.845871 
3825.871817  	91.863150 
3826.836241  	91.220961 
3827.800666  	91.287536 
3828.765090  	91.999054 
3829.729515  	92.357457 
3830.693939  	92.208514 
3831.658364  	91.375058 
3832.622788  	91.483560 
3833.587213  	92.102019 
3834.551637  	91.571354 
3835.516062  	90.962436 
3836.480486  	91.596119 
3837.444910  	91.052264 
3838.409335  	89.764260 
3839.373759  	90.362177 
3840.338184  	89.805810 
3841.302608  	89.908032 
3842.267033  	91.422828 
3843.231457  	91.521191 
3844.195882  	90.674463 
3845.160306  	91.549183 
3846.124731  	92.185044 
3847.089155  	92.349153 
3848.053579  	92.445826 
3849.018004  	92.212158 
3849.982428  	91.645169 
3850.946853  	91.588645 
3851.911277  	90.726970 
3852.875702  	89.060752 
3853.840126  	88.298562 
3854.804551  	88.752502 
3855.768975  	90.927334 
3856.733400  	90.981942 
3857.697824  	90.483848 
3858.662248  	91.618279 
3859.626673  	92.321599 
3860.591097  	92.271812 
3861.555522  	91.545947 
3862.519946  	90.974828 
3863.484371  	91.392867 
3864.448795  	90.564292 
3865.413220  	89.412975 
3866.377644  	90.956737 
3867.342069  	92.064899 
3868.306493  	91.975470 
3869.270917  	90.574546 
3870.235342  	88.465056 
3871.199766  	89.902053 
3872.164191  	91.249543 
3873.128615  	91.615649 
3874.093040  	90.323308 
3875.057464  	90.354918 
3876.021889  	92.005874 
3876.986313  	92.407629 
3877.950738  	92.528605 
3878.915162  	92.451450 
3879.879586  	91.304645 
3880.844011  	89.328759 
3881.808435  	90.647179 
3882.772860  	91.691911 
3883.737284  	91.440973 
3884.701709  	91.413217 
3885.666133  	90.494074 
3886.630558  	90.077136 
3887.594982  	91.725413 
3888.559407  	92.305305 
3889.523831  	92.389244 
3890.488256  	91.915178 
3891.452680  	90.545564 
3892.417104  	90.508028 
3893.381529  	91.532446 
3894.345953  	91.477944 
3895.310378  	91.896788 
3896.274802  	92.462269 
3897.239227  	92.435594 
3898.203651  	91.665343 
3899.168076  	90.519654 
3900.132500  	90.462158 
3901.096925  	91.203423 
3902.061349  	89.797976 
3903.025773  	89.870898 
3903.990198  	90.342407 
3904.954622  	89.804717 
3905.919047  	90.227475 
3906.883471  	91.139727 
3907.847896  	92.217297 
3908.812320  	92.519302 
3909.776745  	92.587020 
3910.741169  	92.623051 
3911.705594  	92.595963 
3912.670018  	92.533611 
3913.634442  	92.543740 
3914.598867  	92.592857 
3915.563291  	92.420088 
3916.527716  	91.430046 
3917.492140  	90.603434 
3918.456565  	91.592708 
3919.420989  	91.899485 
3920.385414  	91.172679 
3921.349838  	91.754869 
3922.314263  	92.478980 
3923.278687  	92.142390 
3924.243111  	91.212764 
3925.207536  	90.667301 
3926.171960  	91.504055 
3927.136385  	92.425874 
3928.100809  	92.447687 
3929.065234  	92.177192 
3930.029658  	91.840852 
3930.994083  	91.603106 
3931.958507  	91.123997 
3932.922932  	90.731451 
3933.887356  	91.609677 
3934.851780  	92.058081 
3935.816205  	92.375327 
3936.780629  	92.598729 
3937.745054  	92.544758 
3938.709478  	92.307647 
3939.673903  	92.440258 
3940.638327  	92.543464 
3941.602752  	92.367365 
3942.567176  	91.370779 
3943.531601  	90.889122 
3944.496025  	91.818440 
3945.460449  	92.261243 
3946.424874  	92.380258 
3947.389298  	91.763601 
3948.353723  	91.340275 
3949.318147  	91.620996 
3950.282572  	91.301200 
3951.246996  	91.758947 
3952.211421  	92.419951 
3953.175845  	92.327844 
3954.140270  	92.402477 
3955.104694  	92.537484 
3956.069119  	92.482505 
3957.033543  	92.296664 
3957.997967  	92.291688 
3958.962392  	92.432889 
3959.926816  	92.504070 
3960.891241  	92.443605 
3961.855665  	91.962119 
3962.820090  	91.909995 
3963.784514  	92.437745 
3964.748939  	92.494682 
3965.713363  	92.566265 
3966.677788  	92.653679 
3967.642212  	92.658284 
3968.606636  	92.486066 
3969.571061  	92.304283 
3970.535485  	92.425199 
3971.499910  	92.469805 
3972.464334  	92.265517 
3973.428759  	92.411012 
3974.393183  	92.491438 
3975.357608  	92.300552 
3976.322032  	92.177769 
3977.286457  	92.416907 
3978.250881  	92.643743 
3979.215305  	92.630134 
3980.179730  	92.587948 
3981.144154  	92.549730 
3982.108579  	92.500523 
3983.073003  	92.539259 
3984.037428  	92.646869 
3985.001852  	92.621471 
3985.966277  	92.580491 
3986.930701  	92.629020 
3987.895126  	92.679915 
3988.859550  	92.682724 
3989.823974  	92.534159 
3990.788399  	92.299912 
3991.752823  	92.407414 
3992.717248  	92.571617 
3993.681672  	92.561851 
3994.646097  	92.468197 
3995.610521  	92.331689 
3996.574946  	92.494772 
3997.539370  	92.628179 
3998.503795  	92.686697 
3999.468219  	92.697745 
4000.432643  	92.749311 
4001.397068  	92.752266 
4002.361492  	92.692317 
4003.325917  	92.624997 
4004.290341  	92.692964 
4005.254766  	92.695433 
4006.219190  	92.672063 
4007.183615  	92.636667 
4008.148039  	92.498641 
4009.112464  	92.389988 
4010.076888  	92.532457 
4011.041313  	92.673722 
4012.005737  	92.732326 
4012.970161  	92.621882 
4013.934586  	92.579755 
4014.899010  	92.592291 
4015.863435  	92.588086 
4016.827859  	92.595981 
4017.792284  	92.643607 
4018.756708  	92.667834 
4019.721133  	92.586380 
4020.685557  	92.570613 
4021.649982  	92.631932 
4022.614406  	92.647501 
4023.578830  	92.640650 
4024.543255  	92.580875 
4025.507679  	92.472792 
4026.472104  	92.546929 
4027.436528  	92.673592 
4028.400953  	92.643334 
4029.365377  	92.605096 
4030.329802  	92.623590 
4031.294226  	92.624996 
4032.258651  	92.612104 
4033.223075  	92.695171 
4034.187499  	92.747950 
4035.151924  	92.691281 
4036.116348  	92.646722 
4037.080773  	92.670079 
4038.045197  	92.682807 
4039.009622  	92.689281 
4039.974046  	92.700315 
4040.938471  	92.742103 
4041.902895  	92.703844 
4042.867320  	92.668923 
4043.831744  	92.597794 
4044.796168  	92.482120 
4045.760593  	92.484622 
4046.725017  	92.625454 
4047.689442  	92.665369 
4048.653866  	92.656453 
4049.618291  	92.635725 
4050.582715  	92.640827 
4051.547140  	92.657469 
4052.511564  	92.682180 
4053.475989  	92.679652 
4054.440413  	92.689521 
4055.404837  	92.677366 
4056.369262  	92.694858 
4057.333686  	92.698036 
4058.298111  	92.645215 
4059.262535  	92.632768 
4060.226960  	92.606441 
4061.191384  	92.565036 
4062.155809  	92.639958 
4063.120233  	92.697599 
4064.084658  	92.673275 
4065.049082  	92.672984 
4066.013506  	92.731650 
4066.977931  	92.696765 
4067.942355  	92.670255 
4068.906780  	92.655874 
4069.871204  	92.647812 
4070.835629  	92.636862 
4071.800053  	92.620446 
4072.764478  	92.580548 
4073.728902  	92.579415 
4074.693327  	92.639589 
4075.657751  	92.666318 
4076.622176  	92.598591 
4077.586600  	92.614470 
4078.551024  	92.622990 
4079.515449  	92.554004 
4080.479873  	92.566343 
4081.444298  	92.618615 
4082.408722  	92.570739 
4083.373147  	92.550370 
4084.337571  	92.536437 
4085.301996  	92.549654 
4086.266420  	92.545199 
4087.230845  	92.525901 
4088.195269  	92.471146 
4089.159693  	92.499329 
4090.124118  	92.554002 
4091.088542  	92.591006 
4092.052967  	92.625576 
4093.017391  	92.589483 
4093.981816  	92.547053 
4094.946240  	92.570687 
4095.910665  	92.591505 
4096.875089  	92.668250 
4097.839514  	92.667149 
4098.803938  	92.594595 
4099.768362  	92.614676 
4100.732787  	92.628828 
4101.697211  	92.633628 
4102.661636  	92.669663 
4103.626060  	92.707501 
4104.590485  	92.662993 
4105.554909  	92.567053 
4106.519334  	92.567324 
4107.483758  	92.577764 
4108.448183  	92.602865 
4109.412607  	92.623213 
4110.377031  	92.618022 
4111.341456  	92.645073 
4112.305880  	92.655281 
4113.270305  	92.630907 
4114.234729  	92.641384 
4115.199154  	92.683063 
4116.163578  	92.639955 
4117.128003  	92.634773 
4118.092427  	92.684580 
4119.056852  	92.696206 
4120.021276  	92.677928 
4120.985700  	92.650851 
4121.950125  	92.655552 
4122.914549  	92.628817 
4123.878974  	92.638625 
4124.843398  	92.624455 
4125.807823  	92.642202 
4126.772247  	92.644353 
4127.736672  	92.627301 
4128.701096  	92.647097 
4129.665521  	92.670607 
4130.629945  	92.649172 
4131.594370  	92.646664 
4132.558794  	92.661878 
4133.523218  	92.645268 
4134.487643  	92.626583 
4135.452067  	92.655862 
4136.416492  	92.687997 
4137.380916  	92.722123 
4138.345341  	92.728228 
4139.309765  	92.672663 
4140.274190  	92.661238 
4141.238614  	92.685361 
4142.203039  	92.689989 
4143.167463  	92.740151 
4144.131887  	92.707460 
4145.096312  	92.658213 
4146.060736  	92.655738 
4147.025161  	92.717494 
4147.989585  	92.706758 
4148.954010  	92.648243 
4149.918434  	92.645780 
4150.882859  	92.674447 
4151.847283  	92.688866 
4152.811708  	92.690115 
4153.776132  	92.734346 
4154.740556  	92.759032 
4155.704981  	92.726256 
4156.669405  	92.683385 
4157.633830  	92.661015 
4158.598254  	92.650867 
4159.562679  	92.643177 
4160.527103  	92.645470 
4161.491528  	92.655644 
4162.455952  	92.676542 
4163.420377  	92.722148 
4164.384801  	92.713647 
4165.349225  	92.684730 
4166.313650  	92.692161 
4167.278074  	92.666740 
4168.242499  	92.700493 
4169.206923  	92.736896 
4170.171348  	92.753222 
4171.135772  	92.750463 
4172.100197  	92.706164 
4173.064621  	92.683382 
4174.029046  	92.698161 
4174.993470  	92.716249 
4175.957894  	92.725998 
4176.922319  	92.714058 
4177.886743  	92.670869 
4178.851168  	92.646684 
4179.815592  	92.638684 
4180.780017  	92.612435 
4181.744441  	92.653604 
4182.708866  	92.704927 
4183.673290  	92.760580 
4184.637715  	92.741552 
4185.602139  	92.721281 
4186.566563  	92.713155 
4187.530988  	92.714452 
4188.495412  	92.718631 
4189.459837  	92.740032 
4190.424261  	92.724718 
4191.388686  	92.708621 
4192.353110  	92.754501 
4193.317535  	92.725229 
4194.281959  	92.677769 
4195.246384  	92.717909 
4196.210808  	92.676188 
4197.175233  	92.666800 
4198.139657  	92.700614 
4199.104081  	92.710213 
4200.068506  	92.701975 
4201.032930  	92.707158 
4201.997355  	92.754985 
4202.961779  	92.826417 
4203.926204  	92.759895 
4204.890628  	92.689106 
4205.855053  	92.669403 
4206.819477  	92.649543 
4207.783902  	92.680550 
4208.748326  	92.707302 
4209.712750  	92.755420 
4210.677175  	92.804669 
4211.641599  	92.759363 
4212.606024  	92.702760 
4213.570448  	92.708328 
4214.534873  	92.751004 
4215.499297  	92.729004 
4216.463722  	92.726067 
4217.428146  	92.664606 
4218.392571  	92.678145 
4219.356995  	92.723713 
4220.321419  	92.732800 
4221.285844  	92.775272 
4222.250268  	92.804931 
4223.214693  	92.687103 
4224.179117  	92.658804 
4225.143542  	92.716658 
4226.107966  	92.734911 
4227.072391  	92.742139 
4228.036815  	92.672138 
4229.001240  	92.638349 
4229.965664  	92.621865 
4230.930088  	92.644874 
4231.894513  	92.712090 
4232.858937  	92.731714 
4233.823362  	92.738737 
4234.787786  	92.733686 
4235.752211  	92.734697 
4236.716635  	92.750582 
4237.681060  	92.819034 
4238.645484  	92.845665 
4239.609909  	92.744739 
4240.574333  	92.675847 
4241.538757  	92.716881 
4242.503182  	92.730918 
4243.467606  	92.788620 
4244.432031  	92.747723 
4245.396455  	92.691954 
4246.360880  	92.716901 
4247.325304  	92.711731 
4248.289729  	92.692641 
4249.254153  	92.705265 
4250.218578  	92.733216 
4251.183002  	92.801645 
4252.147427  	92.775390 
4253.111851  	92.746008 
4254.076275  	92.734964 
4255.040700  	92.721497 
4256.005124  	92.677719 
4256.969549  	92.702468 
4257.933973  	92.703882 
4258.898398  	92.660432 
4259.862822  	92.658300 
4260.827247  	92.708111 
4261.791671  	92.731590 
4262.756096  	92.762772 
4263.720520  	92.755439 
4264.684944  	92.683095 
4265.649369  	92.620903 
4266.613793  	92.685408 
4267.578218  	92.686944 
4268.542642  	92.703284 
4269.507067  	92.761195 
4270.471491  	92.709146 
4271.435916  	92.672545 
4272.400340  	92.643506 
4273.364765  	92.641900 
4274.329189  	92.707531 
4275.293613  	92.712063 
4276.258038  	92.727167 
4277.222462  	92.748938 
4278.186887  	92.691532 
4279.151311  	92.619686 
4280.115736  	92.605691 
4281.080160  	92.657082 
4282.044585  	92.704658 
4283.009009  	92.688064 
4283.973434  	92.663525 
4284.937858  	92.657060 
4285.902282  	92.683855 
4286.866707  	92.731156 
4287.831131  	92.734673 
4288.795556  	92.712894 
4289.759980  	92.643670 
4290.724405  	92.583125 
4291.688829  	92.608703 
4292.653254  	92.635206 
4293.617678  	92.719133 
4294.582103  	92.770293 
4295.546527  	92.740253 
4296.510951  	92.725791 
4297.475376  	92.760511 
4298.439800  	92.730253 
4299.404225  	92.717238 
4300.368649  	92.738113 
4301.333074  	92.659370 
4302.297498  	92.590904 
4303.261923  	92.633838 
4304.226347  	92.744877 
4305.190772  	92.846404 
4306.155196  	92.804901 
4307.119620  	92.715940 
4308.084045  	92.695755 
4309.048469  	92.744425 
4310.012894  	92.718645 
4310.977318  	92.723722 
4311.941743  	92.737662 
4312.906167  	92.729175 
4313.870592  	92.690062 
4314.835016  	92.716376 
4315.799441  	92.706418 
4316.763865  	92.697011 
4317.728290  	92.744783 
4318.692714  	92.783112 
4319.657138  	92.711229 
4320.621563  	92.669164 
4321.585987  	92.707759 
4322.550412  	92.789722 
4323.514836  	92.774126 
4324.479261  	92.693504 
4325.443685  	92.666325 
4326.408110  	92.736815 
4327.372534  	92.793760 
4328.336959  	92.787560 
4329.301383  	92.755272 
4330.265807  	92.771711 
4331.230232  	92.818546 
4332.194656  	92.803264 
4333.159081  	92.749467 
4334.123505  	92.747950 
4335.087930  	92.725859 
4336.052354  	92.749322 
4337.016779  	92.789948 
4337.981203  	92.791679 
4338.945628  	92.712513 
4339.910052  	92.672182 
4340.874476  	92.699638 
4341.838901  	92.738931 
4342.803325  	92.700005 
4343.767750  	92.704146 
4344.732174  	92.769522 
4345.696599  	92.769642 
4346.661023  	92.732525 
4347.625448  	92.725975 
4348.589872  	92.711811 
4349.554297  	92.716024 
4350.518721  	92.787854 
4351.483145  	92.833782 
4352.447570  	92.783502 
4353.411994  	92.727904 
4354.376419  	92.653985 
4355.340843  	92.635473 
4356.305268  	92.687427 
4357.269692  	92.735709 
4358.234117  	92.793338 
4359.198541  	92.779636 
4360.162966  	92.737754 
4361.127390  	92.745915 
4362.091814  	92.788183 
4363.056239  	92.782017 
4364.020663  	92.800934 
4364.985088  	92.790669 
4365.949512  	92.711760 
4366.913937  	92.691777 
4367.878361  	92.678629 
4368.842786  	92.732684 
4369.807210  	92.781551 
4370.771635  	92.761233 
4371.736059  	92.697712 
4372.700484  	92.664693 
4373.664908  	92.728489 
4374.629332  	92.770457 
4375.593757  	92.762420 
4376.558181  	92.777117 
4377.522606  	92.771763 
4378.487030  	92.689630 
4379.451455  	92.665164 
4380.415879  	92.737623 
4381.380304  	92.738621 
4382.344728  	92.768675 
4383.309153  	92.830950 
4384.273577  	92.865581 
4385.238001  	92.896839 
4386.202426  	92.834747 
4387.166850  	92.750083 
4388.131275  	92.752955 
4389.095699  	92.691340 
4390.060124  	92.686537 
4391.024548  	92.788964 
4391.988973  	92.885710 
4392.953397  	92.856540 
4393.917822  	92.768754 
4394.882246  	92.743139 
4395.846670  	92.745023 
4396.811095  	92.662919 
4397.775519  	92.639087 
4398.739944  	92.704861 
4399.704368  	92.778119 
4400.668793  	92.824476 
4401.633217  	92.697738 
4402.597642  	92.668752 
4403.562066  	92.803301 
4404.526491  	92.826179 
4405.490915  	92.792370 
4406.455339  	92.703715 
4407.419764  	92.726193 
4408.384188  	92.830560 
4409.348613  	92.834949 
4410.313037  	92.765348 
4411.277462  	92.738989 
4412.241886  	92.733243 
4413.206311  	92.656726 
4414.170735  	92.620787 
4415.135160  	92.645597 
4416.099584  	92.683541 
4417.064008  	92.691138 
4418.028433  	92.661314 
4418.992857  	92.690903 
4419.957282  	92.697761 
4420.921706  	92.692659 
4421.886131  	92.679786 
4422.850555  	92.665361 
4423.814980  	92.663451 
4424.779404  	92.670922 
4425.743829  	92.652791 
4426.708253  	92.680364 
4427.672677  	92.683097 
4428.637102  	92.678646 
4429.601526  	92.694328 
4430.565951  	92.695574 
4431.530375  	92.688082 
4432.494800  	92.645398 
4433.459224  	92.577031 
4434.423649  	92.622451 
4435.388073  	92.665858 
4436.352498  	92.763004 
4437.316922  	92.834150 
4438.281347  	92.802528 
4439.245771  	92.714902 
4440.210195  	92.711608 
4441.174620  	92.763972 
4442.139044  	92.764890 
4443.103469  	92.791464 
4444.067893  	92.724939 
4445.032318  	92.678182 
4445.996742  	92.718491 
4446.961167  	92.703553 
4447.925591  	92.626643 
4448.890016  	92.606430 
4449.854440  	92.614989 
4450.818864  	92.671639 
4451.783289  	92.730022 
4452.747713  	92.728314 
4453.712138  	92.704057 
4454.676562  	92.653968 
4455.640987  	92.664871 
4456.605411  	92.727651 
4457.569836  	92.729967 
4458.534260  	92.635145 
4459.498685  	92.627505 
4460.463109  	92.658996 
4461.427533  	92.682702 
4462.391958  	92.673572 
4463.356382  	92.665779 
4464.320807  	92.661914 
4465.285231  	92.640180 
4466.249656  	92.646387 
4467.214080  	92.725241 
4468.178505  	92.759120 
4469.142929  	92.760357 
4470.107354  	92.788608 
4471.071778  	92.780130 
4472.036202  	92.804556 
4473.000627  	92.819307 
4473.965051  	92.749460 
4474.929476  	92.718783 
4475.893900  	92.742541 
4476.858325  	92.719235 
4477.822749  	92.745161 
4478.787174  	92.792662 
4479.751598  	92.749426 
4480.716023  	92.755772 
4481.680447  	92.773445 
4482.644871  	92.728399 
4483.609296  	92.723445 
4484.573720  	92.745172 
4485.538145  	92.737372 
4486.502569  	92.715433 
4487.466994  	92.734570 
4488.431418  	92.792744 
4489.395843  	92.741173 
4490.360267  	92.697788 
4491.324692  	92.757133 
4492.289116  	92.733455 
4493.253541  	92.692776 
4494.217965  	92.710961 
4495.182389  	92.756649 
4496.146814  	92.752771 
4497.111238  	92.715572 
4498.075663  	92.727338 
4499.040087  	92.764603 
4500.004512  	92.784846 
4500.968936  	92.818822 
4501.933361  	92.771398 
4502.897785  	92.744608 
4503.862210  	92.768103 
4504.826634  	92.786163 
4505.791058  	92.717303 
4506.755483  	92.682599 
4507.719907  	92.746005 
4508.684332  	92.765629 
4509.648756  	92.780588 
4510.613181  	92.767072 
4511.577605  	92.782181 
4512.542030  	92.848853 
4513.506454  	92.859652 
4514.470879  	92.743374 
4515.435303  	92.665614 
4516.399727  	92.660174 
4517.364152  	92.689340 
4518.328576  	92.713670 
4519.293001  	92.740474 
4520.257425  	92.756410 
4521.221850  	92.686394 
4522.186274  	92.759346 
4523.150699  	92.865335 
4524.115123  	92.811473 
4525.079548  	92.764242 
4526.043972  	92.760634 
4527.008396  	92.750515 
4527.972821  	92.690526 
4528.937245  	92.734320 
4529.901670  	92.719289 
4530.866094  	92.716581 
4531.830519  	92.729745 
4532.794943  	92.743636 
4533.759368  	92.762673 
4534.723792  	92.771354 
4535.688217  	92.714027 
4536.652641  	92.717510 
4537.617065  	92.753822 
4538.581490  	92.845496 
4539.545914  	92.890087 
4540.510339  	92.863559 
4541.474763  	92.759645 
4542.439188  	92.720290 
4543.403612  	92.715881 
4544.368037  	92.702791 
4545.332461  	92.664509 
4546.296886  	92.639673 
4547.261310  	92.670256 
4548.225734  	92.756689 
4549.190159  	92.797787 
4550.154583  	92.778862 
4551.119008  	92.674309 
4552.083432  	92.689140 
4553.047857  	92.783261 
4554.012281  	92.802767 
4554.976706  	92.757086 
4555.941130  	92.762589 
4556.905555  	92.765642 
4557.869979  	92.814854 
4558.834404  	92.839318 
4559.798828  	92.775115 
4560.763252  	92.718623 
4561.727677  	92.692157 
4562.692101  	92.719298 
4563.656526  	92.781565 
4564.620950  	92.780835 
4565.585375  	92.712719 
4566.549799  	92.670617 
4567.514224  	92.732388 
4568.478648  	92.773851 
4569.443073  	92.724831 
4570.407497  	92.756943 
4571.371921  	92.809116 
4572.336346  	92.783690 
4573.300770  	92.820650 
4574.265195  	92.779423 
4575.229619  	92.750837 
4576.194044  	92.734450 
4577.158468  	92.694568 
4578.122893  	92.760077 
4579.087317  	92.809743 
4580.051742  	92.830699 
4581.016166  	92.839861 
4581.980590  	92.843940 
4582.945015  	92.879166 
4583.909439  	92.817355 
4584.873864  	92.750229 
4585.838288  	92.713082 
4586.802713  	92.743827 
4587.767137  	92.662365 
4588.731562  	92.629482 
4589.695986  	92.642636 
4590.660411  	92.619568 
4591.624835  	92.658276 
4592.589259  	92.769413 
4593.553684  	92.816679 
4594.518108  	92.740938 
4595.482533  	92.659669 
4596.446957  	92.711488 
4597.411382  	92.673272 
4598.375806  	92.689607 
4599.340231  	92.779699 
4600.304655  	92.767031 
4601.269080  	92.717448 
4602.233504  	92.758043 
4603.197928  	92.781244 
4604.162353  	92.757022 
4605.126777  	92.735788 
4606.091202  	92.801130 
4607.055626  	92.853168 
4608.020051  	92.766340 
4608.984475  	92.652146 
4609.948900  	92.670357 
4610.913324  	92.672562 
4611.877749  	92.678038 
4612.842173  	92.678860 
4613.806598  	92.706281 
4614.771022  	92.726030 
4615.735446  	92.701922 
4616.699871  	92.646677 
4617.664295  	92.670919 
4618.628720  	92.693292 
4619.593144  	92.718167 
4620.557569  	92.792834 
4621.521993  	92.766256 
4622.486418  	92.683188 
4623.450842  	92.676357 
4624.415267  	92.709536 
4625.379691  	92.796180 
4626.344115  	92.784401 
4627.308540  	92.765952 
4628.272964  	92.731190 
4629.237389  	92.704049 
4630.201813  	92.682812 
4631.166238  	92.734432 
4632.130662  	92.787342 
4633.095087  	92.741912 
4634.059511  	92.693609 
4635.023936  	92.811420 
4635.988360  	92.845336 
4636.952784  	92.735342 
4637.917209  	92.683696 
4638.881633  	92.664495 
4639.846058  	92.620775 
4640.810482  	92.666208 
4641.774907  	92.739927 
4642.739331  	92.709422 
4643.703756  	92.658425 
4644.668180  	92.741496 
4645.632605  	92.752261 
4646.597029  	92.707002 
4647.561453  	92.691832 
4648.525878  	92.705997 
4649.490302  	92.768380 
4650.454727  	92.767643 
4651.419151  	92.663003 
4652.383576  	92.631779 
4653.348000  	92.689642 
4654.312425  	92.750549 
4655.276849  	92.751077 
4656.241274  	92.738426 
4657.205698  	92.673156 
4658.170122  	92.633638 
4659.134547  	92.697696 
4660.098971  	92.712058 
4661.063396  	92.686627 
4662.027820  	92.687092 
4662.992245  	92.638355 
4663.956669  	92.668284 
4664.921094  	92.766185 
4665.885518  	92.818036 
4666.849943  	92.748924 
4667.814367  	92.647549 
4668.778791  	92.703564 
4669.743216  	92.723512 
4670.707640  	92.688479 
4671.672065  	92.693626 
4672.636489  	92.622586 
4673.600914  	92.623025 
4674.565338  	92.686556 
4675.529763  	92.726385 
4676.494187  	92.757091 
4677.458612  	92.813070 
4678.423036  	92.831740 
4679.387461  	92.768993 
4680.351885  	92.706968 
4681.316309  	92.722681 
4682.280734  	92.709923 
4683.245158  	92.644493 
4684.209583  	92.612320 
4685.174007  	92.662625 
4686.138432  	92.652985 
4687.102856  	92.648359 
4688.067281  	92.702817 
4689.031705  	92.619644 
4689.996130  	92.599494 
4690.960554  	92.736379 
4691.924978  	92.732390 
4692.889403  	92.603594 
4693.853827  	92.644803 
4694.818252  	92.721898 
4695.782676  	92.726942 
4696.747101  	92.741716 
4697.711525  	92.799622 
4698.675950  	92.772071 
4699.640374  	92.682667 