##TITLE=No Description
##DATA TYPE=INFRARED SPECTRUM
##XUNITS=1/CM
##YUNITS=%T
400.236149  	140.024498 
401.200574  	96.712843 
402.164998  	80.462539 
403.129423  	71.459204 
404.093847  	74.596073 
405.058272  	89.272131 
406.022696  	88.151563 
406.987120  	89.574408 
407.951545  	100.691503 
408.915969  	100.172254 
409.880394  	92.041761 
410.844818  	90.748166 
411.809243  	97.905511 
412.773667  	100.724073 
413.738092  	89.046870 
414.702516  	75.219881 
415.666941  	75.139782 
416.631365  	85.165916 
417.595789  	92.177693 
418.560214  	89.601475 
419.524638  	86.119676 
420.489063  	85.260135 
421.453487  	80.821430 
422.417912  	82.626741 
423.382336  	86.635117 
424.346761  	82.499290 
425.311185  	78.225750 
426.275610  	77.801675 
427.240034  	80.212142 
428.204458  	83.431602 
429.168883  	85.048743 
430.133307  	84.214701 
431.097732  	80.656597 
432.062156  	76.927338 
433.026581  	76.629464 
433.991005  	78.762753 
434.955430  	80.704638 
435.919854  	81.696527 
436.884279  	81.515004 
437.848703  	81.010563 
438.813127  	80.964929 
439.777552  	80.622901 
440.741976  	81.268138 
441.706401  	82.799784 
442.670825  	83.109290 
443.635250  	82.477056 
444.599674  	83.490295 
445.564099  	85.013325 
446.528523  	84.284292 
447.492948  	82.933362 
448.457372  	84.873444 
449.421796  	85.283912 
450.386221  	84.166293 
451.350645  	83.157838 
452.315070  	83.052774 
453.279494  	84.292940 
454.243919  	84.201583 
455.208343  	83.620436 
456.172768  	83.409617 
457.137192  	83.155872 
458.101617  	83.519816 
459.066041  	84.151772 
460.030466  	84.010769 
460.994890  	83.937531 
461.959314  	84.372639 
462.923739  	84.326729 
463.888163  	83.669786 
464.852588  	83.287311 
465.817012  	83.582954 
466.781437  	83.640346 
467.745861  	83.086381 
468.710286  	82.092052 
469.674710  	81.491069 
470.639135  	81.356374 
471.603559  	81.026456 
472.567983  	80.963372 
473.532408  	82.406496 
474.496832  	82.998970 
475.461257  	81.931183 
476.425681  	80.730064 
477.390106  	82.758130 
478.354530  	83.407552 
479.318955  	81.407489 
480.283379  	80.619491 
481.247804  	81.598956 
482.212228  	81.722954 
483.176652  	81.309159 
484.141077  	82.160837 
485.105501  	82.371048 
486.069926  	81.637120 
487.034350  	81.765427 
487.998775  	81.674424 
488.963199  	81.793438 
489.927624  	82.663773 
490.892048  	82.077956 
491.856473  	80.933760 
492.820897  	81.310334 
493.785321  	81.670497 
494.749746  	81.042567 
495.714170  	80.651006 
496.678595  	80.022499 
497.643019  	79.831075 
498.607444  	80.355461 
499.571868  	79.821173 
500.536293  	79.651283 
501.500717  	79.122996 
502.465142  	78.422268 
503.429566  	78.868921 
504.393990  	79.175160 
505.358415  	79.059576 
506.322839  	78.662518 
507.287264  	78.589387 
508.251688  	79.724792 
509.216113  	81.036177 
510.180537  	81.509211 
511.144962  	82.012566 
512.109386  	82.372972 
513.073811  	82.419380 
514.038235  	82.539817 
515.002660  	82.051741 
515.967084  	81.319417 
516.931508  	80.984966 
517.895933  	81.765233 
518.860357  	82.078097 
519.824782  	81.546811 
520.789206  	82.178326 
521.753631  	82.951116 
522.718055  	83.018076 
523.682480  	82.878558 
524.646904  	82.890241 
525.611329  	82.525331 
526.575753  	82.298713 
527.540177  	82.886189 
528.504602  	83.072446 
529.469026  	82.997759 
530.433451  	83.106492 
531.397875  	83.158880 
532.362300  	83.181249 
533.326724  	83.742737 
534.291149  	83.840971 
535.255573  	83.639053 
536.219998  	83.606212 
537.184422  	83.989433 
538.148846  	83.794555 
539.113271  	83.634652 
540.077695  	83.500735 
541.042120  	83.802175 
542.006544  	84.194494 
542.970969  	84.290541 
543.935393  	84.251662 
544.899818  	84.019434 
545.864242  	84.124102 
546.828667  	84.293437 
547.793091  	84.043976 
548.757515  	83.930860 
549.721940  	84.133786 
550.686364  	84.033175 
551.650789  	84.502429 
552.615213  	84.283715 
553.579638  	84.280880 
554.544062  	84.346575 
555.508487  	84.304429 
556.472911  	84.226244 
557.437336  	84.080515 
558.401760  	83.882817 
559.366184  	84.032792 
560.330609  	84.026538 
561.295033  	84.003769 
562.259458  	84.284356 
563.223882  	83.941966 
564.188307  	83.816104 
565.152731  	84.343667 
566.117156  	84.192337 
567.081580  	83.558550 
568.046005  	83.513667 
569.010429  	83.692584 
569.974853  	83.740834 
570.939278  	83.609182 
571.903702  	83.613849 
572.868127  	83.771970 
573.832551  	83.796637 
574.796976  	83.673666 
575.761400  	83.127714 
576.725825  	83.274381 
577.690249  	83.584244 
578.654674  	83.556832 
579.619098  	83.289446 
580.583523  	83.137004 
581.547947  	83.568324 
582.512371  	83.770853 
583.476796  	83.494619 
584.441220  	83.356610 
585.405645  	83.700102 
586.370069  	83.973574 
587.334494  	83.822248 
588.298918  	83.930728 
589.263343  	83.830968 
590.227767  	83.580638 
591.192192  	83.018139 
592.156616  	82.729097 
593.121040  	83.197749 
594.085465  	83.575067 
595.049889  	83.513814 
596.014314  	83.433795 
596.978738  	83.549923 
597.943163  	83.556067 
598.907587  	83.307527 
599.872012  	82.933477 
600.836436  	83.106290 
601.800861  	83.416768 
602.765285  	83.268319 
603.729709  	83.103748 
604.694134  	83.284006 
605.658558  	83.321711 
606.622983  	83.202948 
607.587407  	83.019845 
608.551832  	83.186943 
609.516256  	83.335744 
610.480681  	83.016411 
611.445105  	82.843592 
612.409530  	82.992112 
613.373954  	83.219950 
614.338378  	83.049170 
615.302803  	82.715233 
616.267227  	82.565160 
617.231652  	82.642261 
618.196076  	82.710269 
619.160501  	82.894760 
620.124925  	82.717792 
621.089350  	82.626380 
622.053774  	82.586712 
623.018199  	82.773784 
623.982623  	82.535232 
624.947047  	82.361071 
625.911472  	82.312651 
626.875896  	82.354035 
627.840321  	82.045764 
628.804745  	81.925568 
629.769170  	81.806326 
630.733594  	81.487403 
631.698019  	81.353370 
632.662443  	81.397335 
633.626868  	81.508264 
634.591292  	81.766203 
635.555717  	81.724538 
636.520141  	81.939004 
637.484565  	82.235732 
638.448990  	82.318193 
639.413414  	82.137692 
640.377839  	82.119564 
641.342263  	82.150486 
642.306688  	81.949030 
643.271112  	81.874211 
644.235537  	81.818435 
645.199961  	81.745863 
646.164386  	81.844581 
647.128810  	81.901353 
648.093234  	81.732054 
649.057659  	81.495482 
650.022083  	81.549978 
650.986508  	81.594369 
651.950932  	81.457132 
652.915357  	81.372325 
653.879781  	81.356779 
654.844206  	81.268275 
655.808630  	81.152676 
656.773055  	80.998638 
657.737479  	80.968201 
658.701903  	80.789072 
659.666328  	80.624994 
660.630752  	80.650917 
661.595177  	80.690959 
662.559601  	80.608375 
663.524026  	80.439516 
664.488450  	80.243047 
665.452875  	80.045385 
666.417299  	79.969723 
667.381724  	80.052997 
668.346148  	79.391986 
669.310572  	79.310320 
670.274997  	79.343839 
671.239421  	79.478834 
672.203846  	79.535602 
673.168270  	79.291588 
674.132695  	78.909261 
675.097119  	78.728387 
676.061544  	78.606813 
677.025968  	78.279315 
677.990393  	77.928975 
678.954817  	77.889182 
679.919241  	77.833819 
680.883666  	77.672383 
681.848090  	77.619559 
682.812515  	77.688742 
683.776939  	77.647111 
684.741364  	77.407049 
685.705788  	77.095255 
686.670213  	77.001101 
687.634637  	76.901614 
688.599062  	76.654474 
689.563486  	76.335857 
690.527910  	76.055138 
691.492335  	75.646707 
692.456759  	75.227367 
693.421184  	74.798836 
694.385608  	74.455752 
695.350033  	73.995697 
696.314457  	73.405119 
697.278882  	72.736082 
698.243306  	72.073963 
699.207731  	71.308284 
700.172155  	70.618345 
701.136580  	69.991072 
702.101004  	69.402971 
703.065428  	68.795866 
704.029853  	68.241859 
704.994277  	67.639059 
705.958702  	67.034206 
706.923126  	66.288670 
707.887551  	65.527010 
708.851975  	64.801146 
709.816400  	63.835514 
710.780824  	62.684246 
711.745249  	61.601858 
712.709673  	60.481395 
713.674097  	59.211905 
714.638522  	57.900428 
715.602946  	56.590007 
716.567371  	55.047355 
717.531795  	53.415990 
718.496220  	51.747208 
719.460644  	50.300545 
720.425069  	49.168273 
721.389493  	48.294107 
722.353918  	47.666798 
723.318342  	47.561322 
724.282766  	48.318263 
725.247191  	49.971159 
726.211615  	52.200540 
727.176040  	54.781664 
728.140464  	57.307125 
729.104889  	59.836879 
730.069313  	62.384470 
731.033738  	64.983484 
731.998162  	67.587978 
732.962587  	70.288061 
733.927011  	72.896293 
734.891435  	75.504234 
735.855860  	77.982209 
736.820284  	80.281725 
737.784709  	82.411037 
738.749133  	84.281234 
739.713558  	85.738146 
740.677982  	86.854558 
741.642407  	87.678707 
742.606831  	88.341795 
743.571256  	88.746497 
744.535680  	88.982192 
745.500104  	89.116249 
746.464529  	89.126285 
747.428953  	89.058637 
748.393378  	89.062903 
749.357802  	89.001689 
750.322227  	88.890724 
751.286651  	88.727657 
752.251076  	88.534274 
753.215500  	88.416039 
754.179925  	88.301880 
755.144349  	88.248785 
756.108774  	88.204702 
757.073198  	88.018475 
758.037622  	87.827804 
759.002047  	87.645515 
759.966471  	87.520857 
760.930896  	87.354801 
761.895320  	87.244402 
762.859745  	87.186676 
763.824169  	87.105671 
764.788594  	86.877532 
765.753018  	86.675020 
766.717443  	86.495234 
767.681867  	86.307133 
768.646291  	86.087273 
769.610716  	85.994892 
770.575140  	85.923672 
771.539565  	85.799971 
772.503989  	85.558124 
773.468414  	85.385534 
774.432838  	85.309333 
775.397263  	85.264104 
776.361687  	85.169121 
777.326112  	85.053343 
778.290536  	84.864485 
779.254960  	84.806023 
780.219385  	84.606793 
781.183809  	84.493325 
782.148234  	84.262458 
783.112658  	84.066278 
784.077083  	83.912724 
785.041507  	83.713813 
786.005932  	83.594033 
786.970356  	83.255072 
787.934781  	82.927936 
788.899205  	82.729763 
789.863629  	82.466183 
790.828054  	82.123071 
791.792478  	81.814712 
792.756903  	81.770688 
793.721327  	81.895675 
794.685752  	82.103648 
795.650176  	82.589762 
796.614601  	83.242146 
797.579025  	83.698195 
798.543450  	83.664511 
799.507874  	83.676070 
800.472298  	83.795515 
801.436723  	83.767795 
802.401147  	83.644076 
803.365572  	83.565094 
804.329996  	83.609390 
805.294421  	83.552830 
806.258845  	83.482588 
807.223270  	83.464799 
808.187694  	83.484882 
809.152119  	83.532256 
810.116543  	83.502513 
811.080967  	83.409995 
812.045392  	83.383094 
813.009816  	83.410818 
813.974241  	83.369999 
814.938665  	83.373625 
815.903090  	83.384597 
816.867514  	83.298485 
817.831939  	83.226812 
818.796363  	83.193998 
819.760788  	83.178807 
820.725212  	83.179523 
821.689637  	83.107964 
822.654061  	82.923123 
823.618485  	82.785191 
824.582910  	82.690161 
825.547334  	82.448501 
826.511759  	82.277996 
827.476183  	82.285437 
828.440608  	82.218336 
829.405032  	81.986799 
830.369457  	81.766640 
831.333881  	81.685357 
832.298306  	81.591156 
833.262730  	81.368173 
834.227154  	81.130055 
835.191579  	80.805747 
836.156003  	80.500544 
837.120428  	80.218355 
838.084852  	79.891128 
839.049277  	79.618553 
840.013701  	79.389909 
840.978126  	79.078919 
841.942550  	78.793477 
842.906975  	78.501056 
843.871399  	78.062153 
844.835823  	77.714419 
845.800248  	77.544912 
846.764672  	77.500078 
847.729097  	77.650723 
848.693521  	77.828430 
849.657946  	78.152453 
850.622370  	78.579600 
851.586795  	78.948062 
852.551219  	79.132646 
853.515644  	79.327758 
854.480068  	79.533992 
855.444492  	79.645205 
856.408917  	79.711707 
857.373341  	79.794197 
858.337766  	79.911304 
859.302190  	79.977667 
860.266615  	79.921968 
861.231039  	79.896533 
862.195464  	79.833492 
863.159888  	79.596152 
864.124313  	79.253143 
865.088737  	78.793847 
866.053161  	78.247945 
867.017586  	77.497059 
867.982010  	76.475347 
868.946435  	75.093179 
869.910859  	73.335291 
870.875284  	71.612678 
871.839708  	70.785185 
872.804133  	71.552377 
873.768557  	73.479250 
874.732982  	75.466838 
875.697406  	77.035551 
876.661831  	78.220028 
877.626255  	79.150600 
878.590679  	79.928684 
879.555104  	80.643895 
880.519528  	81.248646 
881.483953  	81.735335 
882.448377  	82.179117 
883.412802  	82.593501 
884.377226  	82.935284 
885.341651  	83.155682 
886.306075  	83.279294 
887.270500  	83.386181 
888.234924  	83.483203 
889.199348  	83.467799 
890.163773  	83.390936 
891.128197  	83.330909 
892.092622  	83.300664 
893.057046  	83.203357 
894.021471  	83.089152 
894.985895  	83.061901 
895.950320  	82.992107 
896.914744  	82.901148 
897.879169  	82.896443 
898.843593  	82.938551 
899.808017  	82.998018 
900.772442  	83.036700 
901.736866  	83.019786 
902.701291  	83.167990 
903.665715  	83.341603 
904.630140  	83.429308 
905.594564  	83.480580 
906.558989  	83.599477 
907.523413  	83.779097 
908.487838  	83.854593 
909.452262  	83.909849 
910.416686  	84.060759 
911.381111  	84.150077 
912.345535  	84.075690 
913.309960  	84.033105 
914.274384  	84.039442 
915.238809  	84.017195 
916.203233  	83.951410 
917.167658  	83.934943 
918.132082  	83.940637 
919.096507  	83.892714 
920.060931  	83.833450 
921.025355  	83.794406 
921.989780  	83.731662 
922.954204  	83.607515 
923.918629  	83.471358 
924.883053  	83.432127 
925.847478  	83.387989 
926.811902  	83.275148 
927.776327  	83.171548 
928.740751  	83.115619 
929.705176  	83.145433 
930.669600  	83.100771 
931.634024  	82.992091 
932.598449  	82.930900 
933.562873  	82.872503 
934.527298  	82.779080 
935.491722  	82.611896 
936.456147  	82.497352 
937.420571  	82.482065 
938.384996  	82.397978 
939.349420  	82.256995 
940.313845  	82.161489 
941.278269  	82.107636 
942.242694  	82.002566 
943.207118  	81.880962 
944.171542  	81.769842 
945.135967  	81.665150 
946.100391  	81.551064 
947.064816  	81.391598 
948.029240  	81.274828 
948.993665  	81.181448 
949.958089  	81.032685 
950.922514  	80.868963 
951.886938  	80.735976 
952.851363  	80.544889 
953.815787  	80.321209 
954.780211  	80.173167 
955.744636  	80.065039 
956.709060  	79.880991 
957.673485  	79.617084 
958.637909  	79.378975 
959.602334  	79.171224 
960.566758  	78.946575 
961.531183  	78.671773 
962.495607  	78.379987 
963.460032  	78.139047 
964.424456  	77.881472 
965.388880  	77.568549 
966.353305  	77.337873 
967.317729  	77.198565 
968.282154  	77.040549 
969.246578  	76.898534 
970.211003  	76.884104 
971.175427  	76.972542 
972.139852  	77.104181 
973.104276  	77.331354 
974.068701  	77.664849 
975.033125  	78.008861 
975.997549  	78.337195 
976.961974  	78.659289 
977.926398  	78.945711 
978.890823  	79.185765 
979.855247  	79.391237 
980.819672  	79.556027 
981.784096  	79.670942 
982.748521  	79.736202 
983.712945  	79.727021 
984.677370  	79.644083 
985.641794  	79.564040 
986.606218  	79.493832 
987.570643  	79.403876 
988.535067  	79.338349 
989.499492  	79.319018 
990.463916  	79.293338 
991.428341  	79.237486 
992.392765  	79.119577 
993.357190  	78.979868 
994.321614  	78.856648 
995.286039  	78.701686 
996.250463  	78.545512 
997.214888  	78.362022 
998.179312  	78.151638 
999.143736  	77.910618 
1000.108161  	77.632041 
1001.072585  	77.374037 
1002.037010  	77.133278 
1003.001434  	76.808477 
1003.965859  	76.417877 
1004.930283  	76.013305 
1005.894708  	75.542515 
1006.859132  	75.014118 
1007.823557  	74.363617 
1008.787981  	73.637606 
1009.752405  	72.808453 
1010.716830  	71.815328 
1011.681254  	70.649175 
1012.645679  	69.325137 
1013.610103  	67.891943 
1014.574528  	66.453924 
1015.538952  	65.316486 
1016.503377  	64.816665 
1017.467801  	64.977224 
1018.432226  	65.758321 
1019.396650  	66.996479 
1020.361074  	68.444486 
1021.325499  	69.864902 
1022.289923  	71.209100 
1023.254348  	72.574375 
1024.218772  	74.131286 
1025.183197  	75.861066 
1026.147621  	77.409320 
1027.112046  	78.519484 
1028.076470  	79.105934 
1029.040895  	79.234251 
1030.005319  	79.093864 
1030.969743  	78.877783 
1031.934168  	78.704243 
1032.898592  	78.490226 
1033.863017  	78.182947 
1034.827441  	77.822662 
1035.791866  	77.495163 
1036.756290  	77.240624 
1037.720715  	76.978813 
1038.685139  	76.711840 
1039.649564  	76.531056 
1040.613988  	76.364214 
1041.578412  	76.156717 
1042.542837  	76.001223 
1043.507261  	75.992222 
1044.471686  	75.976396 
1045.436110  	75.860346 
1046.400535  	75.813622 
1047.364959  	75.805089 
1048.329384  	75.779312 
1049.293808  	75.785184 
1050.258233  	75.809621 
1051.222657  	75.816171 
1052.187081  	75.750765 
1053.151506  	75.662777 
1054.115930  	75.607108 
1055.080355  	75.480245 
1056.044779  	75.274980 
1057.009204  	75.039235 
1057.973628  	74.834438 
1058.938053  	74.594647 
1059.902477  	74.254476 
1060.866902  	73.860157 
1061.831326  	73.518088 
1062.795751  	73.167840 
1063.760175  	72.737887 
1064.724599  	72.258160 
1065.689024  	71.779958 
1066.653448  	71.330747 
1067.617873  	70.835916 
1068.582297  	70.304072 
1069.546722  	69.789491 
1070.511146  	69.218978 
1071.475571  	68.564971 
1072.439995  	67.890100 
1073.404420  	67.241887 
1074.368844  	66.549077 
1075.333268  	65.801179 
1076.297693  	65.053599 
1077.262117  	64.284507 
1078.226542  	63.520712 
1079.190966  	62.755031 
1080.155391  	62.006545 
1081.119815  	61.341403 
1082.084240  	60.783230 
1083.048664  	60.272439 
1084.013089  	59.839030 
1084.977513  	59.503947 
1085.941937  	59.149357 
1086.906362  	58.795553 
1087.870786  	58.490970 
1088.835211  	58.203923 
1089.799635  	57.913266 
1090.764060  	57.653855 
1091.728484  	57.500567 
1092.692909  	57.356081 
1093.657333  	57.187883 
1094.621758  	57.061889 
1095.586182  	57.098005 
1096.550606  	57.226961 
1097.515031  	57.396874 
1098.479455  	57.638548 
1099.443880  	57.977529 
1100.408304  	58.425582 
1101.372729  	58.915536 
1102.337153  	59.498865 
1103.301578  	60.125786 
1104.266002  	60.722431 
1105.230427  	61.397853 
1106.194851  	62.120976 
1107.159275  	62.795748 
1108.123700  	63.453781 
1109.088124  	64.043833 
1110.052549  	64.519369 
1111.016973  	64.912546 
1111.981398  	65.177133 
1112.945822  	65.331673 
1113.910247  	65.416762 
1114.874671  	65.375101 
1115.839096  	65.219989 
1116.803520  	65.078707 
1117.767945  	64.973526 
1118.732369  	65.002239 
1119.696793  	65.169187 
1120.661218  	65.404454 
1121.625642  	65.674655 
1122.590067  	66.081588 
1123.554491  	66.608831 
1124.518916  	67.176053 
1125.483340  	67.810347 
1126.447765  	68.514782 
1127.412189  	69.310084 
1128.376614  	70.151397 
1129.341038  	71.026469 
1130.305462  	71.993029 
1131.269887  	73.020943 
1132.234311  	74.008440 
1133.198736  	74.989397 
1134.163160  	76.029585 
1135.127585  	77.062755 
1136.092009  	78.014553 
1137.056434  	78.933693 
1138.020858  	79.827704 
1138.985283  	80.626148 
1139.949707  	81.315409 
1140.914131  	82.009274 
1141.878556  	82.647338 
1142.842980  	83.173071 
1143.807405  	83.680526 
1144.771829  	84.171339 
1145.736254  	84.612994 
1146.700678  	85.022920 
1147.665103  	85.330755 
1148.629527  	85.615733 
1149.593952  	85.904684 
1150.558376  	86.145780 
1151.522800  	86.329503 
1152.487225  	86.459291 
1153.451649  	86.622321 
1154.416074  	86.773663 
1155.380498  	86.832083 
1156.344923  	86.874532 
1157.309347  	86.937401 
1158.273772  	86.946569 
1159.238196  	86.883062 
1160.202621  	86.873013 
1161.167045  	86.867266 
1162.131469  	86.803245 
1163.095894  	86.701688 
1164.060318  	86.614858 
1165.024743  	86.481795 
1165.989167  	86.309536 
1166.953592  	86.107245 
1167.918016  	85.842944 
1168.882441  	85.538384 
1169.846865  	85.178042 
1170.811290  	84.808399 
1171.775714  	84.515748 
1172.740138  	84.309426 
1173.704563  	84.122289 
1174.668987  	83.934231 
1175.633412  	83.890099 
1176.597836  	83.930742 
1177.562261  	83.950290 
1178.526685  	83.934460 
1179.491110  	83.949876 
1180.455534  	83.976000 
1181.419959  	84.008617 
1182.384383  	83.970295 
1183.348808  	83.886693 
1184.313232  	83.824133 
1185.277656  	83.703437 
1186.242081  	83.523215 
1187.206505  	83.342164 
1188.170930  	83.166237 
1189.135354  	82.898742 
1190.099779  	82.613609 
1191.064203  	82.384150 
1192.028628  	82.105107 
1192.993052  	81.724762 
1193.957477  	81.341432 
1194.921901  	80.991846 
1195.886325  	80.624839 
1196.850750  	80.194650 
1197.815174  	79.764847 
1198.779599  	79.397310 
1199.744023  	79.047902 
1200.708448  	78.618465 
1201.672872  	78.175406 
1202.637297  	77.788035 
1203.601721  	77.406958 
1204.566146  	76.995203 
1205.530570  	76.554477 
1206.494994  	76.138732 
1207.459419  	75.737056 
1208.423843  	75.287919 
1209.388268  	74.825614 
1210.352692  	74.367426 
1211.317117  	73.884762 
1212.281541  	73.362783 
1213.245966  	72.836577 
1214.210390  	72.304482 
1215.174815  	71.756889 
1216.139239  	71.173209 
1217.103663  	70.558367 
1218.068088  	69.940334 
1219.032512  	69.308401 
1219.996937  	68.660774 
1220.961361  	68.015991 
1221.925786  	67.448097 
1222.890210  	66.912702 
1223.854635  	66.365175 
1224.819059  	65.800373 
1225.783484  	65.246481 
1226.747908  	64.662783 
1227.712332  	63.996293 
1228.676757  	63.273851 
1229.641181  	62.508790 
1230.605606  	61.692421 
1231.570030  	60.826486 
1232.534455  	59.967969 
1233.498879  	59.141787 
1234.463304  	58.364740 
1235.427728  	57.623435 
1236.392153  	56.949360 
1237.356577  	56.407320 
1238.321002  	55.961346 
1239.285426  	55.601336 
1240.249850  	55.370414 
1241.214275  	55.296939 
1242.178699  	55.327272 
1243.143124  	55.391255 
1244.107548  	55.582873 
1245.071973  	55.944717 
1246.036397  	56.311013 
1247.000822  	56.653696 
1247.965246  	57.068964 
1248.929671  	57.559478 
1249.894095  	57.999960 
1250.858519  	58.405445 
1251.822944  	58.854018 
1252.787368  	59.294869 
1253.751793  	59.669063 
1254.716217  	59.971645 
1255.680642  	60.277044 
1256.645066  	60.568065 
1257.609491  	60.773535 
1258.573915  	60.960557 
1259.538340  	61.172350 
1260.502764  	61.450103 
1261.467188  	61.899504 
1262.431613  	62.373222 
1263.396037  	62.896236 
1264.360462  	63.497386 
1265.324886  	64.132648 
1266.289311  	64.798294 
1267.253735  	65.574882 
1268.218160  	66.372323 
1269.182584  	67.122962 
1270.147009  	67.857061 
1271.111433  	68.636733 
1272.075857  	69.352409 
1273.040282  	70.122334 
1274.004706  	70.836627 
1274.969131  	71.497613 
1275.933555  	72.102345 
1276.897980  	72.639186 
1277.862404  	73.181718 
1278.826829  	73.736752 
1279.791253  	74.226669 
1280.755678  	74.703160 
1281.720102  	75.206194 
1282.684526  	75.715343 
1283.648951  	76.160727 
1284.613375  	76.584521 
1285.577800  	77.048908 
1286.542224  	77.468274 
1287.506649  	77.774706 
1288.471073  	78.219004 
1289.435498  	78.848252 
1290.399922  	79.420828 
1291.364347  	79.953478 
1292.328771  	80.545338 
1293.293195  	81.128027 
1294.257620  	81.682174 
1295.222044  	82.180970 
1296.186469  	82.666057 
1297.150893  	83.243242 
1298.115318  	83.914924 
1299.079742  	84.475800 
1300.044167  	84.988345 
1301.008591  	85.488784 
1301.973016  	85.953696 
1302.937440  	86.327939 
1303.901865  	86.666377 
1304.866289  	86.975580 
1305.830713  	87.234965 
1306.795138  	87.438901 
1307.759562  	87.596245 
1308.723987  	87.838998 
1309.688411  	88.211944 
1310.652836  	88.442251 
1311.617260  	88.526525 
1312.581685  	88.362159 
1313.546109  	88.544193 
1314.510534  	88.827407 
1315.474958  	89.121195 
1316.439382  	89.156675 
1317.403807  	89.114437 
1318.368231  	89.179692 
1319.332656  	89.133373 
1320.297080  	89.476415 
1321.261505  	89.761344 
1322.225929  	89.964434 
1323.190354  	89.989100 
1324.154778  	90.008130 
1325.119203  	89.998207 
1326.083627  	89.916408 
1327.048051  	89.755656 
1328.012476  	89.506622 
1328.976900  	89.128540 
1329.941325  	88.579917 
1330.905749  	87.937164 
1331.870174  	87.110177 
1332.834598  	86.029342 
1333.799023  	84.820149 
1334.763447  	83.538427 
1335.727872  	82.100934 
1336.692296  	80.492922 
1337.656720  	79.442826 
1338.621145  	78.312013 
1339.585569  	77.471228 
1340.549994  	77.983252 
1341.514418  	79.701154 
1342.478843  	81.164312 
1343.443267  	82.401428 
1344.407692  	83.749024 
1345.372116  	85.081792 
1346.336541  	86.292065 
1347.300965  	87.306230 
1348.265389  	88.071766 
1349.229814  	88.599011 
1350.194238  	89.176030 
1351.158663  	89.678018 
1352.123087  	89.982332 
1353.087512  	90.216946 
1354.051936  	90.245261 
1355.016361  	90.102909 
1355.980785  	90.365141 
1356.945210  	90.497722 
1357.909634  	90.375087 
1358.874059  	90.392941 
1359.838483  	90.351735 
1360.802907  	89.649196 
1361.767332  	89.054064 
1362.731756  	88.170978 
1363.696181  	88.069130 
1364.660605  	89.179038 
1365.625030  	89.303673 
1366.589454  	89.109316 
1367.553879  	88.714309 
1368.518303  	88.086033 
1369.482728  	88.047743 
1370.447152  	88.449933 
1371.411576  	88.453458 
1372.376001  	88.252215 
1373.340425  	87.573006 
1374.304850  	87.039852 
1375.269274  	87.477559 
1376.233699  	88.320239 
1377.198123  	88.502564 
1378.162548  	88.269087 
1379.126972  	88.352756 
1380.091397  	88.509188 
1381.055821  	88.692248 
1382.020245  	88.724920 
1382.984670  	88.701577 
1383.949094  	88.689578 
1384.913519  	88.678004 
1385.877943  	88.306721 
1386.842368  	87.336050 
1387.806792  	87.095824 
1388.771217  	88.133540 
1389.735641  	88.575687 
1390.700066  	88.479127 
1391.664490  	88.453768 
1392.628914  	88.428748 
1393.593339  	87.829116 
1394.557763  	86.486214 
1395.522188  	86.130153 
1396.486612  	86.702602 
1397.451037  	86.527369 
1398.415461  	85.648121 
1399.379886  	85.076219 
1400.344310  	85.434560 
1401.308735  	85.469173 
1402.273159  	84.793709 
1403.237583  	83.955283 
1404.202008  	82.668397 
1405.166432  	81.059595 
1406.130857  	80.627204 
1407.095281  	80.412115 
1408.059706  	79.932225 
1409.024130  	79.823446 
1409.988555  	80.053752 
1410.952979  	80.830953 
1411.917404  	81.945903 
1412.881828  	83.671864 
1413.846252  	85.289476 
1414.810677  	86.624435 
1415.775101  	87.375350 
1416.739526  	87.674719 
1417.703950  	87.827630 
1418.668375  	87.780215 
1419.632799  	87.709302 
1420.597224  	89.756822 
1421.561648  	90.660759 
1422.526073  	90.849773 
1423.490497  	90.036132 
1424.454922  	89.731106 
1425.419346  	90.829944 
1426.383770  	91.205401 
1427.348195  	91.095279 
1428.312619  	90.770305 
1429.277044  	90.260832 
1430.241468  	89.802070 
1431.205893  	90.208864 
1432.170317  	90.177426 
1433.134742  	89.834817 
1434.099166  	89.918044 
1435.063591  	89.677435 
1436.028015  	88.387646 
1436.992439  	87.331384 
1437.956864  	88.747923 
1438.921288  	89.450724 
1439.885713  	89.516437 
1440.850137  	89.484111 
1441.814562  	89.455497 
1442.778986  	89.467464 
1443.743411  	89.390631 
1444.707835  	89.281205 
1445.672260  	89.152036 
1446.636684  	88.920072 
1447.601108  	88.070585 
1448.565533  	87.911918 
1449.529957  	88.724854 
1450.494382  	88.875146 
1451.458806  	88.396181 
1452.423231  	88.006143 
1453.387655  	88.384964 
1454.352080  	88.027266 
1455.316504  	86.900808 
1456.280929  	86.016080 
1457.245353  	85.243679 
1458.209777  	85.470147 
1459.174202  	86.479709 
1460.138626  	88.012621 
1461.103051  	88.907398 
1462.067475  	89.142122 
1463.031900  	89.181142 
1463.996324  	88.772040 
1464.960749  	87.848890 
1465.925173  	88.349417 
1466.889598  	88.931755 
1467.854022  	88.886950 
1468.818446  	88.788425 
1469.782871  	88.461785 
1470.747295  	87.743657 
1471.711720  	86.134767 
1472.676144  	85.127576 
1473.640569  	85.895866 
1474.604993  	87.512880 
1475.569418  	87.780829 
1476.533842  	87.405812 
1477.498267  	88.769067 
1478.462691  	89.619541 
1479.427116  	89.849602 
1480.391540  	89.746006 
1481.355964  	89.363002 
1482.320389  	89.946665 
1483.284813  	90.500026 
1484.249238  	90.693575 
1485.213662  	90.603480 
1486.178087  	90.124213 
1487.142511  	89.553255 
1488.106936  	89.647105 
1489.071360  	88.827454 
1490.035785  	87.464798 
1491.000209  	88.661154 
1491.964633  	90.349365 
1492.929058  	91.027659 
1493.893482  	91.050495 
1494.857907  	90.714926 
1495.822331  	89.678039 
1496.786756  	89.000832 
1497.751180  	89.480025 
1498.715605  	88.836073 
1499.680029  	88.723465 
1500.644454  	88.898556 
1501.608878  	88.135673 
1502.573302  	87.596390 
1503.537727  	87.296808 
1504.502151  	86.421661 
1505.466576  	84.702101 
1506.431000  	81.789064 
1507.395425  	81.739600 
1508.359849  	84.234636 
1509.324274  	86.204632 
1510.288698  	87.723858 
1511.253123  	89.126039 
1512.217547  	89.119737 
1513.181971  	89.796863 
1514.146396  	90.250190 
1515.110820  	89.351272 
1516.075245  	88.288455 
1517.039669  	86.961673 
1518.004094  	88.567108 
1518.968518  	89.860479 
1519.932943  	88.946855 
1520.897367  	86.586945 
1521.861792  	86.862676 
1522.826216  	88.133423 
1523.790640  	89.148426 
1524.755065  	88.765659 
1525.719489  	88.258213 
1526.683914  	88.866135 
1527.648338  	88.594726 
1528.612763  	89.039431 
1529.577187  	90.101352 
1530.541612  	90.423677 
1531.506036  	89.654434 
1532.470461  	89.112937 
1533.434885  	88.210335 
1534.399309  	88.535839 
1535.363734  	89.529572 
1536.328158  	90.029503 
1537.292583  	90.157220 
1538.257007  	89.182053 
1539.221432  	86.653543 
1540.185856  	86.257812 
1541.150281  	87.623223 
1542.114705  	87.669297 
1543.079130  	87.697525 
1544.043554  	87.850678 
1545.007979  	87.534100 
1545.972403  	88.643887 
1546.936827  	90.118573 
1547.901252  	90.416407 
1548.865676  	89.871168 
1549.830101  	88.130678 
1550.794525  	88.601136 
1551.758950  	90.025556 
1552.723374  	90.064005 
1553.687799  	89.213448 
1554.652223  	88.223769 
1555.616648  	89.150323 
1556.581072  	89.339812 
1557.545496  	88.154246 
1558.509921  	84.397088 
1559.474345  	83.707812 
1560.438770  	86.521315 
1561.403194  	88.921059 
1562.367619  	89.726619 
1563.332043  	89.922277 
1564.296468  	89.535051 
1565.260892  	89.165788 
1566.225317  	89.711303 
1567.189741  	89.912223 
1568.154165  	89.479988 
1569.118590  	88.110739 
1570.083014  	87.721191 
1571.047439  	89.034467 
1572.011863  	89.378880 
1572.976288  	89.260744 
1573.940712  	89.083417 
1574.905137  	88.612246 
1575.869561  	87.462109 
1576.833986  	86.702981 
1577.798410  	87.615128 
1578.762834  	88.332783 
1579.727259  	88.723394 
1580.691683  	89.027143 
1581.656108  	89.247476 
1582.620532  	89.415812 
1583.584957  	89.579846 
1584.549381  	89.748781 
1585.513806  	89.858087 
1586.478230  	89.937045 
1587.442655  	89.982215 
1588.407079  	89.986155 
1589.371503  	89.840060 
1590.335928  	89.774881 
1591.300352  	89.828610 
1592.264777  	89.849793 
1593.229201  	89.839842 
1594.193626  	89.555156 
1595.158050  	89.459789 
1596.122475  	89.565112 
1597.086899  	89.600031 
1598.051324  	89.706065 
1599.015748  	89.688038 
1599.980173  	89.626814 
1600.944597  	89.393936 
1601.909021  	89.233045 
1602.873446  	89.002782 
1603.837870  	88.999803 
1604.802295  	89.195809 
1605.766719  	89.135592 
1606.731144  	88.753262 
1607.695568  	88.535222 
1608.659993  	88.506121 
1609.624417  	88.168885 
1610.588842  	88.386615 
1611.553266  	88.525766 
1612.517690  	88.433671 
1613.482115  	88.389726 
1614.446539  	88.306272 
1615.410964  	87.910476 
1616.375388  	86.923818 
1617.339813  	86.782420 
1618.304237  	87.818186 
1619.268662  	88.189151 
1620.233086  	88.248663 
1621.197511  	88.234616 
1622.161935  	87.839416 
1623.126359  	86.963567 
1624.090784  	87.060270 
1625.055208  	87.880880 
1626.019633  	88.066897 
1626.984057  	87.802520 
1627.948482  	87.268812 
1628.912906  	87.622790 
1629.877331  	87.952263 
1630.841755  	87.957054 
1631.806180  	87.901077 
1632.770604  	87.821686 
1633.735028  	87.495241 
1634.699453  	86.603691 
1635.663877  	84.864089 
1636.628302  	85.691909 
1637.592726  	85.990239 
1638.557151  	86.716714 
1639.521575  	87.155700 
1640.486000  	87.104354 
1641.450424  	87.129163 
1642.414849  	87.048719 
1643.379273  	87.046581 
1644.343697  	86.942150 
1645.308122  	86.154062 
1646.272546  	84.636999 
1647.236971  	84.042851 
1648.201395  	84.357400 
1649.165820  	85.630673 
1650.130244  	86.206628 
1651.094669  	85.971765 
1652.059093  	85.042136 
1653.023518  	81.975649 
1653.987942  	81.319156 
1654.952366  	83.661905 
1655.916791  	85.080877 
1656.881215  	85.369368 
1657.845640  	85.502329 
1658.810064  	85.585475 
1659.774489  	85.473406 
1660.738913  	85.045789 
1661.703338  	84.457490 
1662.667762  	83.656322 
1663.632187  	83.755273 
1664.596611  	84.139887 
1665.561036  	84.077746 
1666.525460  	83.872148 
1667.489884  	83.326755 
1668.454309  	82.010003 
1669.418733  	81.002432 
1670.383158  	81.582586 
1671.347582  	81.280695 
1672.312007  	81.368187 
1673.276431  	81.760122 
1674.240856  	81.312563 
1675.205280  	80.072815 
1676.169705  	80.004210 
1677.134129  	80.537127 
1678.098553  	80.389694 
1679.062978  	79.723776 
1680.027402  	78.296723 
1680.991827  	78.060794 
1681.956251  	78.386816 
1682.920676  	77.252972 
1683.885100  	74.021465 
1684.849525  	73.664235 
1685.813949  	76.453469 
1686.778374  	77.034275 
1687.742798  	76.401383 
1688.707222  	75.647439 
1689.671647  	75.452993 
1690.636071  	75.118973 
1691.600496  	75.054125 
1692.564920  	74.572553 
1693.529345  	73.709156 
1694.493769  	72.602330 
1695.458194  	70.838638 
1696.422618  	68.909604 
1697.387043  	68.917561 
1698.351467  	68.436804 
1699.315891  	67.294590 
1700.280316  	64.165581 
1701.244740  	63.671039 
1702.209165  	64.113248 
1703.173589  	63.451485 
1704.138014  	62.016607 
1705.102438  	60.627449 
1706.066863  	59.631951 
1707.031287  	58.479069 
1707.995712  	58.185541 
1708.960136  	57.729914 
1709.924560  	56.822020 
1710.888985  	56.281601 
1711.853409  	56.297171 
1712.817834  	56.135515 
1713.782258  	55.789599 
1714.746683  	55.555467 
1715.711107  	56.440013 
1716.675532  	57.160134 
1717.639956  	56.959800 
1718.604381  	58.364434 
1719.568805  	61.058744 
1720.533230  	62.707876 
1721.497654  	63.880105 
1722.462078  	64.884379 
1723.426503  	65.679721 
1724.390927  	66.980649 
1725.355352  	68.284140 
1726.319776  	69.354550 
1727.284201  	70.443021 
1728.248625  	71.527927 
1729.213050  	71.956763 
1730.177474  	72.252381 
1731.141899  	74.149401 
1732.106323  	75.293499 
1733.070747  	75.120891 
1734.035172  	74.447764 
1734.999596  	77.397183 
1735.964021  	80.027245 
1736.928445  	81.289075 
1737.892870  	82.312802 
1738.857294  	83.004172 
1739.821719  	83.448041 
1740.786143  	85.319906 
1741.750568  	86.682851 
1742.714992  	86.791498 
1743.679416  	86.793510 
1744.643841  	88.266602 
1745.608265  	89.386775 
1746.572690  	89.653795 
1747.537114  	89.680809 
1748.501539  	89.697613 
1749.465963  	90.141228 
1750.430388  	90.664615 
1751.394812  	90.106909 
1752.359237  	91.373444 
1753.323661  	92.599005 
1754.288085  	93.096820 
1755.252510  	93.175270 
1756.216934  	92.581178 
1757.181359  	91.997251 
1758.145783  	92.607058 
1759.110208  	93.062542 
1760.074632  	93.289334 
1761.039057  	92.761854 
1762.003481  	91.800140 
1762.967906  	92.718520 
1763.932330  	93.419907 
1764.896754  	93.561047 
1765.861179  	93.589530 
1766.825603  	93.434386 
1767.790028  	92.527621 
1768.754452  	92.213466 
1769.718877  	93.155663 
1770.683301  	92.900642 
1771.647726  	91.802909 
1772.612150  	91.375924 
1773.576575  	92.385046 
1774.540999  	93.038065 
1775.505423  	92.689472 
1776.469848  	92.903001 
1777.434272  	93.515338 
1778.398697  	93.378203 
1779.363121  	93.069504 
1780.327546  	92.572137 
1781.291970  	92.439537 
1782.256395  	93.136447 
1783.220819  	93.427644 
1784.185244  	93.070914 
1785.149668  	92.521060 
1786.114093  	93.030095 
1787.078517  	93.419795 
1788.042941  	93.408802 
1789.007366  	93.350365 
1789.971790  	93.066003 
1790.936215  	92.136356 
1791.900639  	91.672890 
1792.865064  	91.607275 
1793.829488  	92.470440 
1794.793913  	92.876304 
1795.758337  	92.261489 
1796.722762  	92.301905 
1797.687186  	93.046093 
1798.651610  	93.068305 
1799.616035  	92.441629 
1800.580459  	92.414556 
1801.544884  	92.251052 
1802.509308  	92.045064 
1803.473733  	92.791359 
1804.438157  	93.235876 
1805.402582  	93.150124 
1806.367006  	93.077975 
1807.331431  	92.845568 
1808.295855  	92.758203 
1809.260279  	93.052263 
1810.224704  	92.631388 
1811.189128  	92.202287 
1812.153553  	92.491393 
1813.117977  	92.842006 
1814.082402  	93.174047 
1815.046826  	93.223512 
1816.011251  	93.289676 
1816.975675  	93.036932 
1817.940100  	92.815029 
1818.904524  	93.068399 
1819.868948  	93.185961 
1820.833373  	93.141775 
1821.797797  	93.049517 
1822.762222  	92.821371 
1823.726646  	92.819240 
1824.691071  	92.269453 
1825.655495  	91.635860 
1826.619920  	92.626103 
1827.584344  	93.020728 
1828.548769  	92.568863 
1829.513193  	91.495718 
1830.477617  	91.513931 
1831.442042  	92.644157 
1832.406466  	92.966208 
1833.370891  	92.810609 
1834.335315  	93.048588 
1835.299740  	93.239670 
1836.264164  	93.042565 
1837.228589  	92.596384 
1838.193013  	92.797441 
1839.157438  	93.121995 
1840.121862  	93.189009 
1841.086287  	93.167064 
1842.050711  	92.831606 
1843.015135  	92.498379 
1843.979560  	91.805696 
1844.943984  	91.636586 
1845.908409  	92.511279 
1846.872833  	92.806632 
1847.837258  	92.343690 
1848.801682  	92.562704 
1849.766107  	93.185487 
1850.730531  	93.401473 
1851.694956  	93.383150 
1852.659380  	93.341111 
1853.623804  	93.371373 
1854.588229  	93.362294 
1855.552653  	93.344887 
1856.517078  	93.304758 
1857.481502  	93.277766 
1858.445927  	93.105231 
1859.410351  	93.046727 
1860.374776  	93.179243 
1861.339200  	93.128719 
1862.303625  	93.155134 
1863.268049  	93.322040 
1864.232473  	93.297702 
1865.196898  	93.257096 
1866.161322  	92.955428 
1867.125747  	92.593749 
1868.090171  	92.045953 
1869.054596  	91.583426 
1870.019020  	91.970315 
1870.983445  	92.676030 
1871.947869  	93.163543 
1872.912294  	93.416138 
1873.876718  	93.430033 
1874.841142  	93.391793 
1875.805567  	93.341077 
1876.769991  	93.317829 
1877.734416  	93.324150 
1878.698840  	93.251613 
1879.663265  	93.132498 
1880.627689  	93.214911 
1881.592114  	93.260322 
1882.556538  	93.271062 
1883.520963  	93.324001 
1884.485387  	93.204755 
1885.449811  	92.984914 
1886.414236  	93.233977 
1887.378660  	93.373927 
1888.343085  	93.163316 
1889.307509  	92.417369 
1890.271934  	92.339293 
1891.236358  	92.949817 
1892.200783  	93.134782 
1893.165207  	93.186515 
1894.129632  	93.101153 
1895.094056  	92.638354 
1896.058480  	92.742985 
1897.022905  	93.158205 
1897.987329  	93.132218 
1898.951754  	93.105489 
1899.916178  	93.173299 
1900.880603  	93.202446 
1901.845027  	93.056797 
1902.809452  	93.071866 
1903.773876  	93.143583 
1904.738301  	93.184466 
1905.702725  	93.264391 
1906.667150  	93.255928 
1907.631574  	92.923345 
1908.595998  	92.717013 
1909.560423  	92.592809 
1910.524847  	92.507712 
1911.489272  	92.972404 
1912.453696  	93.114628 
1913.418121  	93.062285 
1914.382545  	92.947142 
1915.346970  	92.951197 
1916.311394  	92.940390 
1917.275819  	92.563416 
1918.240243  	91.987867 
1919.204667  	92.582463 
1920.169092  	92.915132 
1921.133516  	92.825089 
1922.097941  	92.353258 
1923.062365  	91.901518 
1924.026790  	92.588951 
1924.991214  	93.099987 
1925.955639  	93.045908 
1926.920063  	93.107607 
1927.884488  	93.130244 
1928.848912  	93.172859 
1929.813336  	93.135617 
1930.777761  	93.077202 
1931.742185  	92.989839 
1932.706610  	92.918621 
1933.671034  	92.985063 
1934.635459  	93.044669 
1935.599883  	93.082751 
1936.564308  	93.108425 
1937.528732  	92.984044 
1938.493157  	92.969294 
1939.457581  	93.095574 
1940.422005  	93.043761 
1941.386430  	92.632583 
1942.350854  	91.730620 
1943.315279  	91.704878 
1944.279703  	92.591450 
1945.244128  	92.760173 
1946.208552  	92.702675 
1947.172977  	92.544687 
1948.137401  	92.643410 
1949.101826  	92.767355 
1950.066250  	92.858328 
1951.030674  	92.794971 
1951.995099  	92.703493 
1952.959523  	92.802263 
1953.923948  	92.693917 
1954.888372  	92.393669 
1955.852797  	92.412175 
1956.817221  	92.916244 
1957.781646  	93.280701 
1958.746070  	93.101700 
1959.710495  	92.971219 
1960.674919  	92.673810 
1961.639344  	92.611821 
1962.603768  	92.563171 
1963.568192  	92.726225 
1964.532617  	93.113494 
1965.497041  	93.102488 
1966.461466  	92.798399 
1967.425890  	92.434963 
1968.390315  	92.598674 
1969.354739  	92.848881 
1970.319164  	92.972594 
1971.283588  	93.161911 
1972.248013  	93.093277 
1973.212437  	93.233875 
1974.176861  	93.399654 
1975.141286  	93.229179 
1976.105710  	93.255987 
1977.070135  	93.326530 
1978.034559  	93.132243 
1978.998984  	92.605054 
1979.963408  	92.365083 
1980.927833  	92.715161 
1981.892257  	92.897276 
1982.856682  	92.728544 
1983.821106  	92.704942 
1984.785530  	92.795563 
1985.749955  	92.791336 
1986.714379  	92.936918 
1987.678804  	92.832822 
1988.643228  	92.664298 
1989.607653  	92.941374 
1990.572077  	92.954074 
1991.536502  	92.392541 
1992.500926  	92.157778 
1993.465351  	92.449056 
1994.429775  	92.715223 
1995.394199  	92.783169 
1996.358624  	92.791207 
1997.323048  	92.726871 
1998.287473  	92.813809 
1999.251897  	92.975116 
2000.216322  	93.149323 
2001.180746  	93.247552 
2002.145171  	93.391950 
2003.109595  	93.633370 
2004.074020  	93.753192 
2005.038444  	93.681887 
2006.002868  	93.310587 
2006.967293  	93.102275 
2007.931717  	93.025150 
2008.896142  	93.212765 
2009.860566  	93.489848 
2010.824991  	93.441464 
2011.789415  	93.452784 
2012.753840  	93.469153 
2013.718264  	93.256026 
2014.682689  	93.006088 
2015.647113  	93.139282 
2016.611537  	93.003623 
2017.575962  	92.791856 
2018.540386  	92.855941 
2019.504811  	93.259654 
2020.469235  	93.804421 
2021.433660  	93.867267 
2022.398084  	93.504085 
2023.362509  	93.589938 
2024.326933  	93.770114 
2025.291358  	93.594511 
2026.255782  	93.357284 
2027.220207  	93.095336 
2028.184631  	93.007284 
2029.149055  	93.613316 
2030.113480  	93.943917 
2031.077904  	93.751626 
2032.042329  	93.445319 
2033.006753  	93.449022 
2033.971178  	93.392484 
2034.935602  	93.500085 
2035.900027  	93.702371 
2036.864451  	93.813168 
2037.828876  	93.527586 
2038.793300  	93.212882 
2039.757724  	92.972374 
2040.722149  	92.763540 
2041.686573  	92.644847 
2042.650998  	92.819529 
2043.615422  	92.774251 
2044.579847  	92.740455 
2045.544271  	93.085205 
2046.508696  	93.492271 
2047.473120  	93.392111 
2048.437545  	93.236842 
2049.401969  	93.175929 
2050.366393  	92.887766 
2051.330818  	92.760463 
2052.295242  	92.992682 
2053.259667  	93.143650 
2054.224091  	92.946678 
2055.188516  	92.805301 
2056.152940  	92.882626 
2057.117365  	92.785833 
2058.081789  	92.792591 
2059.046214  	92.916531 
2060.010638  	92.875206 
2060.975062  	92.690217 
2061.939487  	92.722687 
2062.903911  	92.796027 
2063.868336  	92.615300 
2064.832760  	92.359464 
2065.797185  	92.545529 
2066.761609  	92.792491 
2067.726034  	92.902020 
2068.690458  	92.809402 
2069.654883  	92.839502 
2070.619307  	92.903190 
2071.583731  	93.003784 
2072.548156  	92.988761 
2073.512580  	92.688382 
2074.477005  	92.567554 
2075.441429  	92.810460 
2076.405854  	92.750828 
2077.370278  	92.512352 
2078.334703  	92.418173 
2079.299127  	92.531326 
2080.263552  	92.716015 
2081.227976  	92.658648 
2082.192401  	92.661374 
2083.156825  	92.636066 
2084.121249  	92.597141 
2085.085674  	92.688867 
2086.050098  	92.643242 
2087.014523  	92.533599 
2087.978947  	92.661889 
2088.943372  	92.710258 
2089.907796  	92.505229 
2090.872221  	92.552736 
2091.836645  	92.909835 
2092.801070  	92.913648 
2093.765494  	92.842200 
2094.729918  	92.850968 
2095.694343  	92.799603 
2096.658767  	92.668222 
2097.623192  	92.649061 
2098.587616  	92.679084 
2099.552041  	92.716018 
2100.516465  	92.750049 
2101.480890  	92.770948 
2102.445314  	92.713512 
2103.409739  	92.681090 
2104.374163  	92.667537 
2105.338587  	92.641852 
2106.303012  	92.638117 
2107.267436  	92.682055 
2108.231861  	92.600911 
2109.196285  	92.580185 
2110.160710  	92.768400 
2111.125134  	92.828361 
2112.089559  	92.772824 
2113.053983  	92.772744 
2114.018408  	92.708534 
2114.982832  	92.576493 
2115.947256  	92.581233 
2116.911681  	92.788190 
2117.876105  	92.936785 
2118.840530  	92.878404 
2119.804954  	92.863988 
2120.769379  	92.928961 
2121.733803  	92.918820 
2122.698228  	92.902973 
2123.662652  	92.873455 
2124.627077  	92.823509 
2125.591501  	92.936226 
2126.555925  	93.161437 
2127.520350  	93.250274 
2128.484774  	93.203546 
2129.449199  	93.268713 
2130.413623  	93.305363 
2131.378048  	93.340317 
2132.342472  	93.547362 
2133.306897  	93.626656 
2134.271321  	93.424963 
2135.235746  	93.178049 
2136.200170  	93.060538 
2137.164594  	93.192047 
2138.129019  	93.286792 
2139.093443  	93.367808 
2140.057868  	93.320337 
2141.022292  	93.160093 
2141.986717  	93.150411 
2142.951141  	93.341685 
2143.915566  	93.520036 
2144.879990  	93.424899 
2145.844415  	93.490427 
2146.808839  	93.770369 
2147.773264  	93.690182 
2148.737688  	93.537620 
2149.702112  	93.533368 
2150.666537  	93.655301 
2151.630961  	93.684399 
2152.595386  	93.784890 
2153.559810  	93.637872 
2154.524235  	93.496516 
2155.488659  	93.831428 
2156.453084  	94.322069 
2157.417508  	94.433602 
2158.381933  	94.130789 
2159.346357  	93.567516 
2160.310781  	92.906459 
2161.275206  	92.325211 
2162.239630  	92.523459 
2163.204055  	93.207884 
2164.168479  	93.358762 
2165.132904  	92.862667 
2166.097328  	92.924251 
2167.061753  	93.505308 
2168.026177  	93.416343 
2168.990602  	92.838694 
2169.955026  	92.913580 
2170.919450  	93.342623 
2171.883875  	93.107889 
2172.848299  	93.046535 
2173.812724  	93.301673 
2174.777148  	93.525305 
2175.741573  	93.568160 
2176.705997  	93.132818 
2177.670422  	93.027104 
2178.634846  	93.444858 
2179.599271  	93.609588 
2180.563695  	93.444436 
2181.528119  	93.360546 
2182.492544  	93.291402 
2183.456968  	92.993916 
2184.421393  	92.787784 
2185.385817  	93.022085 
2186.350242  	93.157083 
2187.314666  	93.057357 
2188.279091  	93.157419 
2189.243515  	93.229188 
2190.207940  	93.194904 
2191.172364  	93.027510 
2192.136788  	92.976466 
2193.101213  	92.963205 
2194.065637  	92.951755 
2195.030062  	92.947321 
2195.994486  	92.858019 
2196.958911  	92.852807 
2197.923335  	92.949077 
2198.887760  	92.974751 
2199.852184  	93.000418 
2200.816609  	92.884852 
2201.781033  	92.866492 
2202.745458  	92.994456 
2203.709882  	93.043034 
2204.674306  	92.993304 
2205.638731  	92.903662 
2206.603155  	92.869522 
2207.567580  	92.806388 
2208.532004  	92.833385 
2209.496429  	92.888965 
2210.460853  	92.867154 
2211.425278  	92.889209 
2212.389702  	92.924986 
2213.354127  	92.762016 
2214.318551  	92.670424 
2215.282975  	92.839508 
2216.247400  	92.854580 
2217.211824  	92.992574 
2218.176249  	93.098495 
2219.140673  	92.865754 
2220.105098  	92.593213 
2221.069522  	92.642145 
2222.033947  	92.753746 
2222.998371  	92.746335 
2223.962796  	92.721287 
2224.927220  	92.800091 
2225.891644  	92.796522 
2226.856069  	92.689510 
2227.820493  	92.746150 
2228.784918  	92.906491 
2229.749342  	92.795367 
2230.713767  	92.817638 
2231.678191  	92.808877 
2232.642616  	92.738997 
2233.607040  	92.849371 
2234.571465  	92.907997 
2235.535889  	92.767458 
2236.500313  	92.731646 
2237.464738  	92.832431 
2238.429162  	92.829817 
2239.393587  	92.763297 
2240.358011  	92.807068 
2241.322436  	92.971808 
2242.286860  	92.829769 
2243.251285  	92.748678 
2244.215709  	92.661282 
2245.180134  	92.600086 
2246.144558  	92.590077 
2247.108982  	92.726693 
2248.073407  	92.866478 
2249.037831  	92.855306 
2250.002256  	92.749247 
2250.966680  	92.743917 
2251.931105  	92.787081 
2252.895529  	92.770972 
2253.859954  	92.762806 
2254.824378  	92.720014 
2255.788803  	92.601205 
2256.753227  	92.554283 
2257.717651  	92.676094 
2258.682076  	92.589692 
2259.646500  	92.474222 
2260.610925  	92.413840 
2261.575349  	92.427042 
2262.539774  	92.522951 
2263.504198  	92.547952 
2264.468623  	92.515297 
2265.433047  	92.584552 
2266.397472  	92.629150 
2267.361896  	92.512505 
2268.326321  	92.458113 
2269.290745  	92.511804 
2270.255169  	92.491975 
2271.219594  	92.512865 
2272.184018  	92.518137 
2273.148443  	92.423840 
2274.112867  	92.464788 
2275.077292  	92.449750 
2276.041716  	92.419477 
2277.006141  	92.462980 
2277.970565  	92.493511 
2278.934990  	92.431228 
2279.899414  	92.361811 
2280.863838  	92.391018 
2281.828263  	92.357089 
2282.792687  	92.285533 
2283.757112  	92.302608 
2284.721536  	92.322193 
2285.685961  	92.323258 
2286.650385  	92.312131 
2287.614810  	92.286174 
2288.579234  	92.182069 
2289.543659  	92.117954 
2290.508083  	92.259256 
2291.472507  	92.327590 
2292.436932  	92.336165 
2293.401356  	92.236592 
2294.365781  	92.175928 
2295.330205  	92.232830 
2296.294630  	92.158057 
2297.259054  	92.154723 
2298.223479  	92.112144 
2299.187903  	92.188237 
2300.152328  	92.221141 
2301.116752  	92.138599 
2302.081176  	92.185486 
2303.045601  	92.100145 
2304.010025  	92.185373 
2304.974450  	92.017162 
2305.938874  	91.994827 
2306.903299  	91.918501 
2307.867723  	91.974261 
2308.832148  	91.885437 
2309.796572  	91.827418 
2310.760997  	91.801482 
2311.725421  	91.819202 
2312.689845  	91.968611 
2313.654270  	91.923604 
2314.618694  	91.961736 
2315.583119  	91.987716 
2316.547543  	92.104218 
2317.511968  	92.128749 
2318.476392  	92.108602 
2319.440817  	92.006412 
2320.405241  	91.959148 
2321.369666  	92.008290 
2322.334090  	92.081048 
2323.298515  	91.969250 
2324.262939  	91.936376 
2325.227363  	92.251301 
2326.191788  	92.575153 
2327.156212  	92.734811 
2328.120637  	92.804463 
2329.085061  	92.853195 
2330.049486  	92.913222 
2331.013910  	92.903451 
2331.978335  	92.983289 
2332.942759  	93.116830 
2333.907184  	93.265972 
2334.871608  	93.388225 
2335.836032  	93.504164 
2336.800457  	93.541829 
2337.764881  	93.507050 
2338.729306  	93.519935 
2339.693730  	93.424070 
2340.658155  	93.468718 
2341.622579  	93.552370 
2342.587004  	93.431584 
2343.551428  	93.338646 
2344.515853  	93.138819 
2345.480277  	92.903100 
2346.444701  	92.711776 
2347.409126  	92.630664 
2348.373550  	92.477956 
2349.337975  	92.403342 
2350.302399  	92.541842 
2351.266824  	92.833851 
2352.231248  	93.150889 
2353.195673  	93.224780 
2354.160097  	93.203802 
2355.124522  	93.396109 
2356.088946  	93.637423 
2357.053370  	93.679054 
2358.017795  	93.650498 
2358.982219  	93.697451 
2359.946644  	93.910667 
2360.911068  	93.953075 
2361.875493  	93.771509 
2362.839917  	93.646308 
2363.804342  	93.676487 
2364.768766  	93.562034 
2365.733191  	93.496885 
2366.697615  	93.443459 
2367.662039  	93.361441 
2368.626464  	93.142839 
2369.590888  	92.910831 
2370.555313  	92.758422 
2371.519737  	92.615821 
2372.484162  	92.575975 
2373.448586  	92.504677 
2374.413011  	92.354587 
2375.377435  	92.241023 
2376.341860  	92.176551 
2377.306284  	92.130966 
2378.270708  	92.109795 
2379.235133  	92.042938 
2380.199557  	92.049401 
2381.163982  	92.136833 
2382.128406  	92.216821 
2383.092831  	92.309521 
2384.057255  	92.380216 
2385.021680  	92.452694 
2385.986104  	92.528079 
2386.950529  	92.597207 
2387.914953  	92.664377 
2388.879378  	92.657585 
2389.843802  	92.716692 
2390.808226  	92.763619 
2391.772651  	92.734229 
2392.737075  	92.752910 
2393.701500  	92.766045 
2394.665924  	92.733448 
2395.630349  	92.695251 
2396.594773  	92.645028 
2397.559198  	92.656157 
2398.523622  	92.724211 
2399.488047  	92.758502 
2400.452471  	92.744924 
2401.416895  	92.717266 
2402.381320  	92.704336 
2403.345744  	92.742634 
2404.310169  	92.797045 
2405.274593  	92.780537 
2406.239018  	92.759024 
2407.203442  	92.756885 
2408.167867  	92.730322 
2409.132291  	92.758978 
2410.096716  	92.751980 
2411.061140  	92.677235 
2412.025564  	92.675425 
2412.989989  	92.702077 
2413.954413  	92.740433 
2414.918838  	92.774168 
2415.883262  	92.747314 
2416.847687  	92.727800 
2417.812111  	92.764391 
2418.776536  	92.753276 
2419.740960  	92.748650 
2420.705385  	92.783027 
2421.669809  	92.723602 
2422.634233  	92.672820 
2423.598658  	92.652293 
2424.563082  	92.691909 
2425.527507  	92.794402 
2426.491931  	92.743347 
2427.456356  	92.684681 
2428.420780  	92.798450 
2429.385205  	92.813971 
2430.349629  	92.758034 
2431.314054  	92.764354 
2432.278478  	92.828297 
2433.242902  	92.812331 
2434.207327  	92.753938 
2435.171751  	92.764370 
2436.136176  	92.808537 
2437.100600  	92.804034 
2438.065025  	92.749171 
2439.029449  	92.787112 
2439.993874  	92.827100 
2440.958298  	92.810050 
2441.922723  	92.777228 
2442.887147  	92.764050 
2443.851572  	92.760376 
2444.815996  	92.777208 
2445.780420  	92.793141 
2446.744845  	92.739305 
2447.709269  	92.749208 
2448.673694  	92.801621 
2449.638118  	92.806474 
2450.602543  	92.761358 
2451.566967  	92.704726 
2452.531392  	92.685044 
2453.495816  	92.686014 
2454.460241  	92.707167 
2455.424665  	92.737444 
2456.389089  	92.739018 
2457.353514  	92.749324 
2458.317938  	92.768755 
2459.282363  	92.760968 
2460.246787  	92.757771 
2461.211212  	92.760632 
2462.175636  	92.757468 
2463.140061  	92.768804 
2464.104485  	92.761803 
2465.068910  	92.738530 
2466.033334  	92.698582 
2466.997758  	92.709414 
2467.962183  	92.794980 
2468.926607  	92.790366 
2469.891032  	92.763018 
2470.855456  	92.750483 
2471.819881  	92.754811 
2472.784305  	92.780269 
2473.748730  	92.814669 
2474.713154  	92.852976 
2475.677579  	92.774073 
2476.642003  	92.745593 
2477.606427  	92.716394 
2478.570852  	92.718855 
2479.535276  	92.751809 
2480.499701  	92.736907 
2481.464125  	92.742383 
2482.428550  	92.779061 
2483.392974  	92.783924 
2484.357399  	92.793199 
2485.321823  	92.766752 
2486.286248  	92.669464 
2487.250672  	92.663302 
2488.215096  	92.728789 
2489.179521  	92.672334 
2490.143945  	92.657761 
2491.108370  	92.647447 
2492.072794  	92.667024 
2493.037219  	92.737149 
2494.001643  	92.836703 
2494.966068  	92.866249 
2495.930492  	92.831035 
2496.894917  	92.758095 
2497.859341  	92.731337 
2498.823765  	92.747246 
2499.788190  	92.729064 
2500.752614  	92.710505 
2501.717039  	92.699246 
2502.681463  	92.703361 
2503.645888  	92.689239 
2504.610312  	92.661352 
2505.574737  	92.676477 
2506.539161  	92.683344 
2507.503586  	92.703273 
2508.468010  	92.723557 
2509.432435  	92.699637 
2510.396859  	92.689139 
2511.361283  	92.666669 
2512.325708  	92.657604 
2513.290132  	92.681345 
2514.254557  	92.660721 
2515.218981  	92.670021 
2516.183406  	92.699547 
2517.147830  	92.729795 
2518.112255  	92.688957 
2519.076679  	92.660349 
2520.041104  	92.678572 
2521.005528  	92.643806 
2521.969952  	92.556631 
2522.934377  	92.557853 
2523.898801  	92.656955 
2524.863226  	92.741706 
2525.827650  	92.704562 
2526.792075  	92.666542 
2527.756499  	92.658267 
2528.720924  	92.676668 
2529.685348  	92.640945 
2530.649773  	92.644791 
2531.614197  	92.681665 
2532.578621  	92.680612 
2533.543046  	92.664690 
2534.507470  	92.639919 
2535.471895  	92.641203 
2536.436319  	92.634011 
2537.400744  	92.613097 
2538.365168  	92.612705 
2539.329593  	92.642053 
2540.294017  	92.644013 
2541.258442  	92.616085 
2542.222866  	92.640297 
2543.187290  	92.667875 
2544.151715  	92.682728 
2545.116139  	92.727677 
2546.080564  	92.702830 
2547.044988  	92.595780 
2548.009413  	92.504638 
2548.973837  	92.546642 
2549.938262  	92.581778 
2550.902686  	92.602931 
2551.867111  	92.619566 
2552.831535  	92.583637 
2553.795959  	92.580060 
2554.760384  	92.594197 
2555.724808  	92.580752 
2556.689233  	92.535358 
2557.653657  	92.555689 
2558.618082  	92.595358 
2559.582506  	92.672872 
2560.546931  	92.678213 
2561.511355  	92.608578 
2562.475780  	92.565756 
2563.440204  	92.560720 
2564.404629  	92.600582 
2565.369053  	92.641056 
2566.333477  	92.649188 
2567.297902  	92.660093 
2568.262326  	92.657036 
2569.226751  	92.579971 
2570.191175  	92.535064 
2571.155600  	92.615144 
2572.120024  	92.618989 
2573.084449  	92.617157 
2574.048873  	92.579427 
2575.013298  	92.557516 
2575.977722  	92.579135 
2576.942146  	92.596146 
2577.906571  	92.594049 
2578.870995  	92.589522 
2579.835420  	92.548770 
2580.799844  	92.542181 
2581.764269  	92.557610 
2582.728693  	92.548581 
2583.693118  	92.489825 
2584.657542  	92.501804 
2585.621967  	92.553206 
2586.586391  	92.582039 
2587.550815  	92.624215 
2588.515240  	92.629598 
2589.479664  	92.584413 
2590.444089  	92.563905 
2591.408513  	92.609430 
2592.372938  	92.616572 
2593.337362  	92.533451 
2594.301787  	92.494744 
2595.266211  	92.509350 
2596.230636  	92.563203 
2597.195060  	92.628615 
2598.159484  	92.646095 
2599.123909  	92.640324 
2600.088333  	92.642627 
2601.052758  	92.583372 
2602.017182  	92.559808 
2602.981607  	92.580841 
2603.946031  	92.592479 
2604.910456  	92.600799 
2605.874880  	92.593336 
2606.839305  	92.577011 
2607.803729  	92.562895 
2608.768153  	92.547640 
2609.732578  	92.533199 
2610.697002  	92.535818 
2611.661427  	92.560063 
2612.625851  	92.583115 
2613.590276  	92.618459 
2614.554700  	92.594028 
2615.519125  	92.550203 
2616.483549  	92.548908 
2617.447974  	92.521222 
2618.412398  	92.516647 
2619.376822  	92.514285 
2620.341247  	92.497168 
2621.305671  	92.506149 
2622.270096  	92.502092 
2623.234520  	92.476763 
2624.198945  	92.474688 
2625.163369  	92.525085 
2626.127794  	92.521493 
2627.092218  	92.491997 
2628.056643  	92.471698 
2629.021067  	92.479156 
2629.985492  	92.512967 
2630.949916  	92.542275 
2631.914340  	92.517613 
2632.878765  	92.476695 
2633.843189  	92.494605 
2634.807614  	92.519311 
2635.772038  	92.499653 
2636.736463  	92.475677 
2637.700887  	92.505200 
2638.665312  	92.550643 
2639.629736  	92.536787 
2640.594161  	92.537239 
2641.558585  	92.563027 
2642.523009  	92.526578 
2643.487434  	92.534666 
2644.451858  	92.565811 
2645.416283  	92.559618 
2646.380707  	92.536635 
2647.345132  	92.528438 
2648.309556  	92.560697 
2649.273981  	92.567882 
2650.238405  	92.572877 
2651.202830  	92.593405 
2652.167254  	92.587340 
2653.131678  	92.582741 
2654.096103  	92.568116 
2655.060527  	92.561291 
2656.024952  	92.580036 
2656.989376  	92.555761 
2657.953801  	92.548081 
2658.918225  	92.596014 
2659.882650  	92.620383 
2660.847074  	92.596913 
2661.811499  	92.617169 
2662.775923  	92.639441 
2663.740347  	92.645767 
2664.704772  	92.657355 
2665.669196  	92.693082 
2666.633621  	92.696260 
2667.598045  	92.677691 
2668.562470  	92.671053 
2669.526894  	92.660805 
2670.491319  	92.652383 
2671.455743  	92.701066 
2672.420168  	92.728785 
2673.384592  	92.712518 
2674.349016  	92.698197 
2675.313441  	92.711300 
2676.277865  	92.718935 
2677.242290  	92.710653 
2678.206714  	92.693248 
2679.171139  	92.680543 
2680.135563  	92.677513 
2681.099988  	92.697871 
2682.064412  	92.728607 
2683.028837  	92.713968 
2683.993261  	92.682807 
2684.957686  	92.678734 
2685.922110  	92.695591 
2686.886534  	92.706290 
2687.850959  	92.709983 
2688.815383  	92.725241 
2689.779808  	92.720681 
2690.744232  	92.682844 
2691.708657  	92.678868 
2692.673081  	92.712484 
2693.637506  	92.716380 
2694.601930  	92.716351 
2695.566355  	92.732587 
2696.530779  	92.743117 
2697.495203  	92.725406 
2698.459628  	92.703852 
2699.424052  	92.709599 
2700.388477  	92.710170 
2701.352901  	92.690863 
2702.317326  	92.686995 
2703.281750  	92.699996 
2704.246175  	92.704114 
2705.210599  	92.706434 
2706.175024  	92.719005 
2707.139448  	92.689089 
2708.103872  	92.681692 
2709.068297  	92.721333 
2710.032721  	92.706157 
2710.997146  	92.684300 
2711.961570  	92.686801 
2712.925995  	92.691049 
2713.890419  	92.693717 
2714.854844  	92.684185 
2715.819268  	92.695244 
2716.783693  	92.720489 
2717.748117  	92.731916 
2718.712541  	92.707285 
2719.676966  	92.698326 
2720.641390  	92.707267 
2721.605815  	92.704459 
2722.570239  	92.687245 
2723.534664  	92.689818 
2724.499088  	92.697502 
2725.463513  	92.670567 
2726.427937  	92.663270 
2727.392362  	92.673319 
2728.356786  	92.672425 
2729.321210  	92.667677 
2730.285635  	92.678152 
2731.250059  	92.663229 
2732.214484  	92.664380 
2733.178908  	92.676621 
2734.143333  	92.675633 
2735.107757  	92.669886 
2736.072182  	92.678734 
2737.036606  	92.685162 
2738.001031  	92.673953 
2738.965455  	92.664866 
2739.929879  	92.646765 
2740.894304  	92.657001 
2741.858728  	92.682470 
2742.823153  	92.670600 
2743.787577  	92.665176 
2744.752002  	92.667791 
2745.716426  	92.644537 
2746.680851  	92.602445 
2747.645275  	92.588678 
2748.609700  	92.611026 
2749.574124  	92.618053 
2750.538549  	92.644944 
2751.502973  	92.628527 
2752.467397  	92.641835 
2753.431822  	92.632778 
2754.396246  	92.643729 
2755.360671  	92.655398 
2756.325095  	92.641439 
2757.289520  	92.615229 
2758.253944  	92.620925 
2759.218369  	92.619466 
2760.182793  	92.597581 
2761.147218  	92.588959 
2762.111642  	92.598288 
2763.076066  	92.612005 
2764.040491  	92.630054 
2765.004915  	92.635829 
2765.969340  	92.632535 
2766.933764  	92.638222 
2767.898189  	92.625192 
2768.862613  	92.613885 
2769.827038  	92.622886 
2770.791462  	92.622150 
2771.755887  	92.602912 
2772.720311  	92.592840 
2773.684735  	92.594401 
2774.649160  	92.594110 
2775.613584  	92.589074 
2776.578009  	92.600301 
2777.542433  	92.614228 
2778.506858  	92.607992 
2779.471282  	92.603087 
2780.435707  	92.593082 
2781.400131  	92.571881 
2782.364556  	92.573575 
2783.328980  	92.584725 
2784.293404  	92.589675 
2785.257829  	92.561625 
2786.222253  	92.552004 
2787.186678  	92.586721 
2788.151102  	92.576593 
2789.115527  	92.611706 
2790.079951  	92.583977 
2791.044376  	92.541985 
2792.008800  	92.552643 
2792.973225  	92.545512 
2793.937649  	92.547899 
2794.902073  	92.549543 
2795.866498  	92.525691 
2796.830922  	92.518561 
2797.795347  	92.540353 
2798.759771  	92.545457 
2799.724196  	92.515406 
2800.688620  	92.514455 
2801.653045  	92.506128 
2802.617469  	92.496335 
2803.581894  	92.525209 
2804.546318  	92.541485 
2805.510743  	92.520737 
2806.475167  	92.485572 
2807.439591  	92.451464 
2808.404016  	92.443451 
2809.368440  	92.485935 
2810.332865  	92.544953 
2811.297289  	92.519347 
2812.261714  	92.496904 
2813.226138  	92.498056 
2814.190563  	92.468278 
2815.154987  	92.484629 
2816.119412  	92.491577 
2817.083836  	92.464521 
2818.048260  	92.474966 
2819.012685  	92.512435 
2819.977109  	92.540328 
2820.941534  	92.522326 
2821.905958  	92.533109 
2822.870383  	92.524006 
2823.834807  	92.493920 
2824.799232  	92.455979 
2825.763656  	92.476628 
2826.728081  	92.486737 
2827.692505  	92.469625 
2828.656929  	92.458652 
2829.621354  	92.472775 
2830.585778  	92.470734 
2831.550203  	92.473560 
2832.514627  	92.451015 
2833.479052  	92.425409 
2834.443476  	92.432598 
2835.407901  	92.464584 
2836.372325  	92.473872 
2837.336750  	92.435483 
2838.301174  	92.377677 
2839.265598  	92.356050 
2840.230023  	92.350066 
2841.194447  	92.364173 
2842.158872  	92.332326 
2843.123296  	92.290920 
2844.087721  	92.288041 
2845.052145  	92.261869 
2846.016570  	92.196011 
2846.980994  	92.193841 
2847.945419  	92.200766 
2848.909843  	92.160069 
2849.874267  	92.123705 
2850.838692  	92.109503 
2851.803116  	92.081721 
2852.767541  	92.056133 
2853.731965  	92.059352 
2854.696390  	92.082625 
2855.660814  	92.112081 
2856.625239  	92.137489 
2857.589663  	92.114206 
2858.554088  	92.085435 
2859.518512  	92.111847 
2860.482936  	92.137938 
2861.447361  	92.104081 
2862.411785  	92.135732 
2863.376210  	92.181624 
2864.340634  	92.153380 
2865.305059  	92.105998 
2866.269483  	92.112809 
2867.233908  	92.121965 
2868.198332  	92.115829 
2869.162757  	92.096781 
2870.127181  	92.088216 
2871.091606  	92.086801 
2872.056030  	92.105214 
2873.020454  	92.099812 
2873.984879  	92.081068 
2874.949303  	92.055747 
2875.913728  	92.049920 
2876.878152  	92.084060 
2877.842577  	92.082641 
2878.807001  	92.052929 
2879.771426  	92.039491 
2880.735850  	92.017531 
2881.700275  	92.005749 
2882.664699  	92.002200 
2883.629123  	91.995600 
2884.593548  	91.990105 
2885.557972  	91.968346 
2886.522397  	91.934653 
2887.486821  	91.952971 
2888.451246  	91.943172 
2889.415670  	91.928372 
2890.380095  	91.930242 
2891.344519  	91.934217 
2892.308944  	91.924842 
2893.273368  	91.898441 
2894.237792  	91.887103 
2895.202217  	91.843259 
2896.166641  	91.825931 
2897.131066  	91.840638 
2898.095490  	91.847342 
2899.059915  	91.827965 
2900.024339  	91.746634 
2900.988764  	91.685010 
2901.953188  	91.686968 
2902.917613  	91.649634 
2903.882037  	91.580985 
2904.846461  	91.557632 
2905.810886  	91.508947 
2906.775310  	91.486701 
2907.739735  	91.506913 
2908.704159  	91.482993 
2909.668584  	91.467433 
2910.633008  	91.502128 
2911.597433  	91.554017 
2912.561857  	91.604941 
2913.526282  	91.621892 
2914.490706  	91.620242 
2915.455130  	91.613513 
2916.419555  	91.635848 
2917.383979  	91.666484 
2918.348404  	91.672259 
2919.312828  	91.707001 
2920.277253  	91.727286 
2921.241677  	91.685130 
2922.206102  	91.657666 
2923.170526  	91.646894 
2924.134951  	91.690227 
2925.099375  	91.747453 
2926.063800  	91.719794 
2927.028224  	91.719365 
2927.992648  	91.746383 
2928.957073  	91.763013 
2929.921497  	91.756273 
2930.885922  	91.749563 
2931.850346  	91.804326 
2932.814771  	91.859147 
2933.779195  	91.848077 
2934.743620  	91.826236 
2935.708044  	91.829113 
2936.672469  	91.839277 
2937.636893  	91.851753 
2938.601317  	91.845108 
2939.565742  	91.829979 
2940.530166  	91.838040 
2941.494591  	91.849916 
2942.459015  	91.816106 
2943.423440  	91.745747 
2944.387864  	91.646828 
2945.352289  	91.605322 
2946.316713  	91.623643 
2947.281138  	91.628792 
2948.245562  	91.603759 
2949.209986  	91.523510 
2950.174411  	91.456963 
2951.138835  	91.463344 
2952.103260  	91.398795 
2953.067684  	91.315601 
2954.032109  	91.262225 
2954.996533  	91.235358 
2955.960958  	91.188663 
2956.925382  	91.145653 
2957.889807  	91.129486 
2958.854231  	91.116838 
2959.818655  	91.069460 
2960.783080  	91.028066 
2961.747504  	91.004958 
2962.711929  	91.006173 
2963.676353  	90.968654 
2964.640778  	90.892506 
2965.605202  	90.831753 
2966.569627  	90.793792 
2967.534051  	90.880076 
2968.498476  	90.989638 
2969.462900  	90.983255 
2970.427324  	90.966165 
2971.391749  	90.968057 
2972.356173  	91.027841 
2973.320598  	91.095277 
2974.285022  	91.168849 
2975.249447  	91.195943 
2976.213871  	91.237420 
2977.178296  	91.321124 
2978.142720  	91.381471 
2979.107145  	91.448103 
2980.071569  	91.555780 
2981.035993  	91.574059 
2982.000418  	91.623299 
2982.964842  	91.728156 
2983.929267  	91.766226 
2984.893691  	91.823756 
2985.858116  	91.836771 
2986.822540  	91.826467 
2987.786965  	91.841999 
2988.751389  	91.876718 
2989.715814  	91.899594 
2990.680238  	91.956282 
2991.644663  	91.995428 
2992.609087  	91.986792 
2993.573511  	91.975543 
2994.537936  	91.988060 
2995.502360  	92.068607 
2996.466785  	92.082941 
2997.431209  	92.055673 
2998.395634  	92.070225 
2999.360058  	92.092332 
3000.324483  	92.124954 
3001.288907  	92.113668 
3002.253332  	92.078929 
3003.217756  	92.070556 
3004.182180  	92.052705 
3005.146605  	92.063059 
3006.111029  	92.109421 
3007.075454  	92.181713 
3008.039878  	92.205082 
3009.004303  	92.233396 
3009.968727  	92.245064 
3010.933152  	92.219570 
3011.897576  	92.169587 
3012.862001  	92.118310 
3013.826425  	92.199223 
3014.790849  	92.315191 
3015.755274  	92.326484 
3016.719698  	92.331908 
3017.684123  	92.368626 
3018.648547  	92.378078 
3019.612972  	92.387110 
3020.577396  	92.468945 
3021.541821  	92.492337 
3022.506245  	92.515398 
3023.470670  	92.533996 
3024.435094  	92.564220 
3025.399518  	92.554373 
3026.363943  	92.536356 
3027.328367  	92.556645 
3028.292792  	92.605697 
3029.257216  	92.634665 
3030.221641  	92.558429 
3031.186065  	92.434040 
3032.150490  	92.407883 
3033.114914  	92.514353 
3034.079339  	92.543476 
3035.043763  	92.535883 
3036.008187  	92.570342 
3036.972612  	92.582436 
3037.937036  	92.544023 
3038.901461  	92.512450 
3039.865885  	92.568393 
3040.830310  	92.618964 
3041.794734  	92.613933 
3042.759159  	92.582272 
3043.723583  	92.574289 
3044.688008  	92.557552 
3045.652432  	92.567561 
3046.616857  	92.555788 
3047.581281  	92.488178 
3048.545705  	92.399896 
3049.510130  	92.376900 
3050.474554  	92.395641 
3051.438979  	92.402551 
3052.403403  	92.398541 
3053.367828  	92.342417 
3054.332252  	92.286335 
3055.296677  	92.308062 
3056.261101  	92.225398 
3057.225526  	92.217366 
3058.189950  	92.373117 
3059.154374  	92.450464 
3060.118799  	92.444939 
3061.083223  	92.434903 
3062.047648  	92.430947 
3063.012072  	92.400949 
3063.976497  	92.311357 
3064.940921  	92.259904 
3065.905346  	92.346234 
3066.869770  	92.347483 
3067.834195  	92.356801 
3068.798619  	92.371146 
3069.763043  	92.385013 
3070.727468  	92.428453 
3071.691892  	92.473236 
3072.656317  	92.421436 
3073.620741  	92.375376 
3074.585166  	92.396211 
3075.549590  	92.435794 
3076.514015  	92.430409 
3077.478439  	92.394036 
3078.442864  	92.348255 
3079.407288  	92.319454 
3080.371712  	92.356282 
3081.336137  	92.410691 
3082.300561  	92.410774 
3083.264986  	92.457913 
3084.229410  	92.520007 
3085.193835  	92.534844 
3086.158259  	92.551495 
3087.122684  	92.507486 
3088.087108  	92.453747 
3089.051533  	92.461631 
3090.015957  	92.471149 
3090.980381  	92.478737 
3091.944806  	92.501662 
3092.909230  	92.514398 
3093.873655  	92.497209 
3094.838079  	92.488612 
3095.802504  	92.516491 
3096.766928  	92.531701 
3097.731353  	92.536340 
3098.695777  	92.545264 
3099.660202  	92.518338 
3100.624626  	92.430029 
3101.589050  	92.357624 
3102.553475  	92.406755 
3103.517899  	92.423171 
3104.482324  	92.464946 
3105.446748  	92.500164 
3106.411173  	92.490111 
3107.375597  	92.524994 
3108.340022  	92.529873 
3109.304446  	92.531141 
3110.268871  	92.538974 
3111.233295  	92.529682 
3112.197720  	92.525193 
3113.162144  	92.542483 
3114.126568  	92.530952 
3115.090993  	92.512824 
3116.055417  	92.500806 
3117.019842  	92.526264 
3117.984266  	92.559469 
3118.948691  	92.502613 
3119.913115  	92.533137 
3120.877540  	92.629501 
3121.841964  	92.588761 
3122.806389  	92.493890 
3123.770813  	92.569271 
3124.735237  	92.593280 
3125.699662  	92.532247 
3126.664086  	92.527815 
3127.628511  	92.588427 
3128.592935  	92.618012 
3129.557360  	92.589984 
3130.521784  	92.627769 
3131.486209  	92.640891 
3132.450633  	92.582149 
3133.415058  	92.515598 
3134.379482  	92.593160 
3135.343906  	92.693837 
3136.308331  	92.727814 
3137.272755  	92.645527 
3138.237180  	92.635367 
3139.201604  	92.660635 
3140.166029  	92.643649 
3141.130453  	92.732290 
3142.094878  	92.741331 
3143.059302  	92.667584 
3144.023727  	92.646945 
3144.988151  	92.700393 
3145.952575  	92.676432 
3146.917000  	92.641949 
3147.881424  	92.679937 
3148.845849  	92.726931 
3149.810273  	92.722340 
3150.774698  	92.724721 
3151.739122  	92.703804 
3152.703547  	92.704530 
3153.667971  	92.705472 
3154.632396  	92.685145 
3155.596820  	92.684612 
3156.561244  	92.648799 
3157.525669  	92.645885 
3158.490093  	92.662774 
3159.454518  	92.702755 
3160.418942  	92.728625 
3161.383367  	92.705523 
3162.347791  	92.693810 
3163.312216  	92.628506 
3164.276640  	92.636425 
3165.241065  	92.748434 
3166.205489  	92.766703 
3167.169914  	92.710950 
3168.134338  	92.654488 
3169.098762  	92.625626 
3170.063187  	92.613192 
3171.027611  	92.630008 
3171.992036  	92.699697 
3172.956460  	92.738980 
3173.920885  	92.715116 
3174.885309  	92.660261 
3175.849734  	92.657866 
3176.814158  	92.646676 
3177.778583  	92.531709 
3178.743007  	92.497840 
3179.707431  	92.574323 
3180.671856  	92.657284 
3181.636280  	92.726233 
3182.600705  	92.724930 
3183.565129  	92.633878 
3184.529554  	92.583269 
3185.493978  	92.605089 
3186.458403  	92.637942 
3187.422827  	92.641158 
3188.387252  	92.591841 
3189.351676  	92.631820 
3190.316100  	92.700456 
3191.280525  	92.710194 
3192.244949  	92.725266 
3193.209374  	92.713942 
3194.173798  	92.634746 
3195.138223  	92.599703 
3196.102647  	92.561231 
3197.067072  	92.552083 
3198.031496  	92.579121 
3198.995921  	92.681237 
3199.960345  	92.722675 
3200.924769  	92.712614 
3201.889194  	92.717102 
3202.853618  	92.714693 
3203.818043  	92.673118 
3204.782467  	92.626897 
3205.746892  	92.592288 
3206.711316  	92.590774 
3207.675741  	92.591200 
3208.640165  	92.591898 
3209.604590  	92.584881 
3210.569014  	92.548929 
3211.533438  	92.603732 
3212.497863  	92.629151 
3213.462287  	92.586706 
3214.426712  	92.506526 
3215.391136  	92.561328 
3216.355561  	92.600090 
3217.319985  	92.592101 
3218.284410  	92.596442 
3219.248834  	92.590157 
3220.213259  	92.608311 
3221.177683  	92.638381 
3222.142107  	92.589962 
3223.106532  	92.600146 
3224.070956  	92.651819 
3225.035381  	92.620720 
3225.999805  	92.578682 
3226.964230  	92.577581 
3227.928654  	92.583202 
3228.893079  	92.610827 
3229.857503  	92.641755 
3230.821928  	92.603000 
3231.786352  	92.560446 
3232.750777  	92.595634 
3233.715201  	92.605827 
3234.679625  	92.575424 
3235.644050  	92.609587 
3236.608474  	92.632009 
3237.572899  	92.600093 
3238.537323  	92.625991 
3239.501748  	92.606258 
3240.466172  	92.584965 
3241.430597  	92.641877 
3242.395021  	92.678842 
3243.359446  	92.629103 
3244.323870  	92.602107 
3245.288294  	92.513605 
3246.252719  	92.542159 
3247.217143  	92.642690 
3248.181568  	92.647506 
3249.145992  	92.637532 
3250.110417  	92.610440 
3251.074841  	92.556684 
3252.039266  	92.586525 
3253.003690  	92.630816 
3253.968115  	92.533436 
3254.932539  	92.485185 
3255.896963  	92.525152 
3256.861388  	92.477865 
3257.825812  	92.503635 
3258.790237  	92.503709 
3259.754661  	92.486746 
3260.719086  	92.514361 
3261.683510  	92.606809 
3262.647935  	92.625765 
3263.612359  	92.610956 
3264.576784  	92.608584 
3265.541208  	92.596392 
3266.505632  	92.612978 
3267.470057  	92.636909 
3268.434481  	92.658153 
3269.398906  	92.603034 
3270.363330  	92.585714 
3271.327755  	92.607795 
3272.292179  	92.614158 
3273.256604  	92.545507 
3274.221028  	92.493484 
3275.185453  	92.573080 
3276.149877  	92.577708 
3277.114301  	92.500890 
3278.078726  	92.528105 
3279.043150  	92.533288 
3280.007575  	92.545506 
3280.971999  	92.540582 
3281.936424  	92.552395 
3282.900848  	92.526385 
3283.865273  	92.474634 
3284.829697  	92.516848 
3285.794122  	92.530360 
3286.758546  	92.509108 
3287.722971  	92.488223 
3288.687395  	92.485009 
3289.651819  	92.565712 
3290.616244  	92.584223 
3291.580668  	92.518090 
3292.545093  	92.479122 
3293.509517  	92.521382 
3294.473942  	92.567081 
3295.438366  	92.526678 
3296.402791  	92.511285 
3297.367215  	92.500939 
3298.331640  	92.512728 
3299.296064  	92.576785 
3300.260488  	92.583607 
3301.224913  	92.623681 
3302.189337  	92.658206 
3303.153762  	92.602317 
3304.118186  	92.580072 
3305.082611  	92.591411 
3306.047035  	92.608376 
3307.011460  	92.689069 
3307.975884  	92.650187 
3308.940309  	92.522428 
3309.904733  	92.541387 
3310.869157  	92.557666 
3311.833582  	92.541292 
3312.798006  	92.573229 
3313.762431  	92.556756 
3314.726855  	92.592775 
3315.691280  	92.598861 
3316.655704  	92.574818 
3317.620129  	92.579705 
3318.584553  	92.610340 
3319.548978  	92.614484 
3320.513402  	92.586253 
3321.477826  	92.573313 
3322.442251  	92.584675 
3323.406675  	92.646651 
3324.371100  	92.620828 
3325.335524  	92.556669 
3326.299949  	92.574556 
3327.264373  	92.556689 
3328.228798  	92.538724 
3329.193222  	92.546861 
3330.157647  	92.524310 
3331.122071  	92.535537 
3332.086495  	92.604328 
3333.050920  	92.568348 
3334.015344  	92.507970 
3334.979769  	92.475108 
3335.944193  	92.513305 
3336.908618  	92.456534 
3337.873042  	92.457728 
3338.837467  	92.565891 
3339.801891  	92.611060 
3340.766316  	92.616780 
3341.730740  	92.576471 
3342.695164  	92.566967 
3343.659589  	92.585132 
3344.624013  	92.626043 
3345.588438  	92.688406 
3346.552862  	92.672702 
3347.517287  	92.582063 
3348.481711  	92.530580 
3349.446136  	92.558598 
3350.410560  	92.595496 
3351.374985  	92.649918 
3352.339409  	92.730292 
3353.303834  	92.693621 
3354.268258  	92.663955 
3355.232682  	92.634787 
3356.197107  	92.535627 
3357.161531  	92.576081 
3358.125956  	92.693291 
3359.090380  	92.661790 
3360.054805  	92.484006 
3361.019229  	92.443074 
3361.983654  	92.448514 
3362.948078  	92.479158 
3363.912503  	92.498470 
3364.876927  	92.472891 
3365.841351  	92.507328 
3366.805776  	92.553056 
3367.770200  	92.510452 
3368.734625  	92.483285 
3369.699049  	92.559453 
3370.663474  	92.651072 
3371.627898  	92.675601 
3372.592323  	92.628436 
3373.556747  	92.593027 
3374.521172  	92.623941 
3375.485596  	92.620331 
3376.450020  	92.573451 
3377.414445  	92.594510 
3378.378869  	92.571396 
3379.343294  	92.571604 
3380.307718  	92.645285 
3381.272143  	92.762880 
3382.236567  	92.738335 
3383.200992  	92.627023 
3384.165416  	92.512648 
3385.129841  	92.412665 
3386.094265  	92.466892 
3387.058689  	92.573646 
3388.023114  	92.673468 
3388.987538  	92.700223 
3389.951963  	92.656295 
3390.916387  	92.591513 
3391.880812  	92.471917 
3392.845236  	92.256095 
3393.809661  	92.316868 
3394.774085  	92.562837 
3395.738510  	92.589758 
3396.702934  	92.487659 
3397.667358  	92.371220 
3398.631783  	92.545216 
3399.596207  	92.682988 
3400.560632  	92.603535 
3401.525056  	92.513063 
3402.489481  	92.559447 
3403.453905  	92.539365 
3404.418330  	92.532619 
3405.382754  	92.541775 
3406.347179  	92.561397 
3407.311603  	92.545716 
3408.276028  	92.550417 
3409.240452  	92.549044 
3410.204876  	92.469277 
3411.169301  	92.494085 
3412.133725  	92.523450 
3413.098150  	92.501401 
3414.062574  	92.472738 
3415.026999  	92.443930 
3415.991423  	92.376009 
3416.955848  	92.371501 
3417.920272  	92.340491 
3418.884697  	92.343772 
3419.849121  	92.181962 
3420.813545  	91.910131 
3421.777970  	91.954777 
3422.742394  	92.042215 
3423.706819  	92.125138 
3424.671243  	92.215162 
3425.635668  	92.266407 
3426.600092  	92.267841 
3427.564517  	92.237716 
3428.528941  	92.253716 
3429.493366  	92.284101 
3430.457790  	92.217604 
3431.422214  	92.121691 
3432.386639  	92.118994 
3433.351063  	92.245552 
3434.315488  	92.372070 
3435.279912  	92.347437 
3436.244337  	92.298547 
3437.208761  	92.322003 
3438.173186  	92.344502 
3439.137610  	92.312833 
3440.102035  	92.347538 
3441.066459  	92.368850 
3442.030883  	92.283753 
3442.995308  	92.118116 
3443.959732  	92.297054 
3444.924157  	92.358117 
3445.888581  	92.304797 
3446.853006  	91.999932 
3447.817430  	91.697412 
3448.781855  	92.173743 
3449.746279  	92.518261 
3450.710704  	92.568698 
3451.675128  	92.534862 
3452.639552  	92.535152 
3453.603977  	92.510283 
3454.568401  	92.481992 
3455.532826  	92.495879 
3456.497250  	92.531075 
3457.461675  	92.490580 
3458.426099  	92.444073 
3459.390524  	92.462544 
3460.354948  	92.548469 
3461.319373  	92.455178 
3462.283797  	92.339188 
3463.248221  	92.318955 
3464.212646  	92.531566 
3465.177070  	92.625312 
3466.141495  	92.536933 
3467.105919  	92.335943 
3468.070344  	92.469689 
3469.034768  	92.670494 
3469.999193  	92.642007 
3470.963617  	92.538421 
3471.928042  	92.504765 
3472.892466  	92.512547 
3473.856891  	92.500953 
3474.821315  	92.398269 
3475.785739  	92.450239 
3476.750164  	92.560473 
3477.714588  	92.600067 
3478.679013  	92.598151 
3479.643437  	92.526394 
3480.607862  	92.255234 
3481.572286  	92.129929 
3482.536711  	92.025951 
3483.501135  	92.290151 
3484.465560  	92.595516 
3485.429984  	92.584914 
3486.394408  	92.534063 
3487.358833  	92.479602 
3488.323257  	92.233380 
3489.287682  	92.282356 
3490.252106  	92.536472 
3491.216531  	92.560484 
3492.180955  	92.568320 
3493.145380  	92.639331 
3494.109804  	92.703219 
3495.074229  	92.561795 
3496.038653  	92.349543 
3497.003077  	92.277625 
3497.967502  	92.438095 
3498.931926  	92.539916 
3499.896351  	92.464959 
3500.860775  	92.362917 
3501.825200  	92.037337 
3502.789624  	91.599106 
3503.754049  	91.493220 
3504.718473  	91.863358 
3505.682898  	92.205850 
3506.647322  	92.450253 
3507.611746  	92.538468 
3508.576171  	92.312727 
3509.540595  	91.730841 
3510.505020  	91.837494 
3511.469444  	92.163911 
3512.433869  	92.306352 
3513.398293  	92.415335 
3514.362718  	92.494701 
3515.327142  	92.598686 
3516.291567  	92.601796 
3517.255991  	92.474785 
3518.220415  	92.384827 
3519.184840  	92.343139 
3520.149264  	92.383510 
3521.113689  	92.520759 
3522.078113  	92.369152 
3523.042538  	91.623413 
3524.006962  	91.201918 
3524.971387  	91.618029 
3525.935811  	91.842968 
3526.900236  	91.731035 
3527.864660  	91.544527 
3528.829085  	91.683950 
3529.793509  	91.833329 
3530.757933  	92.025412 
3531.722358  	92.094862 
3532.686782  	92.401016 
3533.651207  	92.570348 
3534.615631  	92.523163 
3535.580056  	92.226905 
3536.544480  	91.678741 
3537.508905  	91.860546 
3538.473329  	92.410248 
3539.437754  	92.426218 
3540.402178  	92.396635 
3541.366602  	92.430238 
3542.331027  	92.450221 
3543.295451  	92.170619 
3544.259876  	91.785412 
3545.224300  	91.051414 
3546.188725  	90.803823 
3547.153149  	90.852077 
3548.117574  	91.275044 
3549.081998  	92.046705 
3550.046423  	92.276620 
3551.010847  	92.225408 
3551.975271  	91.747616 
3552.939696  	91.372589 
3553.904120  	91.612633 
3554.868545  	92.040136 
3555.832969  	92.473350 
3556.797394  	92.443644 
3557.761818  	92.414582 
3558.726243  	92.480595 
3559.690667  	92.106640 
3560.655092  	91.663168 
3561.619516  	92.012637 
3562.583940  	92.028555 
3563.548365  	91.901889 
3564.512789  	91.845805 
3565.477214  	91.124253 
3566.441638  	89.106296 
3567.406063  	88.958154 
3568.370487  	89.403802 
3569.334912  	90.697165 
3570.299336  	91.825822 
3571.263761  	92.024661 
3572.228185  	92.356267 
3573.192609  	92.372064 
3574.157034  	92.340636 
3575.121458  	92.325563 
3576.085883  	92.334563 
3577.050307  	92.209012 
3578.014732  	92.186405 
3578.979156  	92.274273 
3579.943581  	91.975184 
3580.908005  	91.934411 
3581.872430  	92.346314 
3582.836854  	92.469983 
3583.801278  	92.339741 
3584.765703  	92.285561 
3585.730127  	91.952050 
3586.694552  	90.500229 
3587.658976  	89.477523 
3588.623401  	89.788497 
3589.587825  	90.713900 
3590.552250  	91.973666 
3591.516674  	92.376533 
3592.481099  	92.327680 
3593.445523  	91.685597 
3594.409948  	91.637636 
3595.374372  	91.282214 
3596.338796  	91.084617 
3597.303221  	91.877105 
3598.267645  	91.936989 
3599.232070  	91.609687 
3600.196494  	91.699521 
3601.160919  	91.477663 
3602.125343  	91.734171 
3603.089768  	92.050992 
3604.054192  	92.357334 
3605.018617  	92.505209 
3605.983041  	92.347466 
3606.947465  	91.325880 
3607.911890  	90.717773 
3608.876314  	91.039201 
3609.840739  	90.736890 
3610.805163  	91.644012 
3611.769588  	91.788919 
3612.734012  	90.650803 
3613.698437  	90.612115 
3614.662861  	90.882064 
3615.627286  	90.910567 
3616.591710  	91.776694 
3617.556134  	91.343805 
3618.520559  	90.498538 
3619.484983  	90.468504 
3620.449408  	90.400405 
3621.413832  	91.070066 
3622.378257  	91.812641 
3623.342681  	92.258383 
3624.307106  	92.414152 
3625.271530  	92.379537 
3626.235955  	91.976797 
3627.200379  	91.777576 
3628.164803  	90.972374 
3629.129228  	88.370838 
3630.093652  	88.679089 
3631.058077  	90.914424 
3632.022501  	91.856320 
3632.986926  	91.963411 
3633.951350  	91.321808 
3634.915775  	91.592422 
3635.880199  	92.310147 
3636.844624  	92.458344 
3637.809048  	92.271875 
3638.773472  	92.186429 
3639.737897  	92.455578 
3640.702321  	92.530033 
3641.666746  	92.258583 
3642.631170  	91.857952 
3643.595595  	92.102757 
3644.560019  	92.500785 
3645.524444  	92.250914 
3646.488868  	91.253044 
3647.453293  	89.484986 
3648.417717  	89.532125 
3649.382142  	89.502805 
3650.346566  	88.670200 
3651.310990  	88.818734 
3652.275415  	90.768161 
3653.239839  	92.149615 
3654.204264  	92.490915 
3655.168688  	92.387233 
3656.133113  	91.540063 
3657.097537  	91.120219 
3658.061962  	92.191559 
3659.026386  	92.532650 
3659.990811  	92.427587 
3660.955235  	92.521168 
3661.919659  	92.785592 
3662.884084  	92.869454 
3663.848508  	92.838283 
3664.812933  	92.795192 
3665.777357  	92.862312 
3666.741782  	92.904159 
3667.706206  	92.817106 
3668.670631  	91.964327 
3669.635055  	90.790197 
3670.599480  	90.162361 
3671.563904  	90.518629 
3672.528328  	92.031112 
3673.492753  	92.419883 
3674.457177  	91.400205 
3675.421602  	88.666518 
3676.386026  	88.749583 
3677.350451  	90.673832 
3678.314875  	91.554786 
3679.279300  	91.600454 
3680.243724  	91.606322 
3681.208149  	92.425500 
3682.172573  	92.864416 
3683.136997  	92.892745 
3684.101422  	92.827439 
3685.065846  	92.734317 
3686.030271  	92.807221 
3686.994695  	92.638952 
3687.959120  	91.991927 
3688.923544  	90.917331 
3689.887969  	91.296107 
3690.852393  	90.946691 
3691.816818  	90.643254 
3692.781242  	92.047807 
3693.745666  	92.571778 
3694.710091  	92.657973 
3695.674515  	92.750035 
3696.638940  	92.648645 
3697.603364  	92.762423 
3698.567789  	92.984104 
3699.532213  	92.932072 
3700.496638  	92.919246 
3701.461062  	92.237429 
3702.425487  	91.441172 
3703.389911  	92.328268 
3704.354335  	92.891264 
3705.318760  	92.852643 
3706.283184  	92.806346 
3707.247609  	92.914352 
3708.212033  	92.913303 
3709.176458  	92.349013 
3710.140882  	91.607097 
3711.105307  	91.328275 
3712.069731  	90.393625 
3713.034156  	90.291723 
3713.998580  	91.786290 
3714.963005  	91.985765 
3715.927429  	92.195473 
3716.891853  	92.808124 
3717.856278  	92.946735 
3718.820702  	92.347178 
3719.785127  	92.023854 
3720.749551  	92.642794 
3721.713976  	92.327406 
3722.678400  	91.027424 
3723.642825  	91.487805 
3724.607249  	91.867108 
3725.571674  	91.212431 
3726.536098  	90.927249 
3727.500522  	91.181486 
3728.464947  	92.205873 
3729.429371  	92.813711 
3730.393796  	92.759922 
3731.358220  	92.422199 
3732.322645  	91.592404 
3733.287069  	91.490915 
3734.251494  	91.178934 
3735.215918  	88.357400 
3736.180343  	88.378532 
3737.144767  	89.908239 
3738.109191  	90.811571 
3739.073616  	91.280262 
3740.038040  	91.942328 
3741.002465  	91.730236 
3741.966889  	91.764280 
3742.931314  	92.285303 
3743.895738  	91.461683 
3744.860163  	88.140032 
3745.824587  	90.022192 
3746.789012  	91.328864 
3747.753436  	91.482231 
3748.717860  	91.416972 
3749.682285  	90.805609 
3750.646709  	90.457105 
3751.611134  	90.289865 
3752.575558  	89.008467 
3753.539983  	90.521434 
3754.504407  	91.784256 
3755.468832  	92.374636 
3756.433256  	92.140304 
3757.397681  	92.061716 
3758.362105  	92.291260 
3759.326529  	91.510908 
3760.290954  	90.969315 
3761.255378  	92.290763 
3762.219803  	92.758173 
3763.184227  	92.797134 
3764.148652  	92.813161 
3765.113076  	92.460155 
3766.077501  	91.641999 
3767.041925  	92.165158 
3768.006350  	92.787460 
3768.970774  	92.622306 
3769.935199  	91.663538 
3770.899623  	91.571369 
3771.864047  	92.389844 
3772.828472  	92.805763 
3773.792896  	92.936884 
3774.757321  	93.032335 
3775.721745  	93.146088 
3776.686170  	93.216858 
3777.650594  	93.075052 
3778.615019  	92.634103 
3779.579443  	91.853050 
3780.543868  	91.940467 
3781.508292  	92.782283 
3782.472716  	92.898690 
3783.437141  	92.934119 
3784.401565  	92.632095 
3785.365990  	92.165182 
3786.330414  	92.488980 
3787.294839  	92.884303 
3788.259263  	93.077375 
3789.223688  	93.113819 
3790.188112  	93.111450 
3791.152537  	93.164556 
3792.116961  	93.153735 
3793.081385  	93.191825 
3794.045810  	93.209303 
3795.010234  	93.084488 
3795.974659  	92.631581 
3796.939083  	91.772388 
3797.903508  	91.915546 
3798.867932  	92.483696 
3799.832357  	92.592977 
3800.796781  	91.772712 
3801.761206  	90.327998 
3802.725630  	90.602256 
3803.690054  	91.700536 
3804.654479  	92.614150 
3805.618903  	92.782798 
3806.583328  	92.179573 
3807.547752  	91.377842 
3808.512177  	92.265572 
3809.476601  	92.819902 
3810.441026  	92.928291 
3811.405450  	93.051421 
3812.369875  	93.130558 
3813.334299  	93.189218 
3814.298723  	93.125319 
3815.263148  	92.609795 
3816.227572  	91.185188 
3817.191997  	91.357927 
3818.156421  	92.415981 
3819.120846  	92.437410 
3820.085270  	91.791005 
3821.049695  	90.287572 
3822.014119  	89.941198 
3822.978544  	91.570200 
3823.942968  	92.227970 
3824.907392  	92.474390 
3825.871817  	92.484676 
3826.836241  	91.949627 
3827.800666  	91.979571 
3828.765090  	92.616441 
3829.729515  	92.967564 
3830.693939  	92.931887 
3831.658364  	92.220953 
3832.622788  	92.051587 
3833.587213  	92.680134 
3834.551637  	92.414590 
3835.516062  	91.708567 
3836.480486  	92.244413 
3837.444910  	92.015593 
3838.409335  	90.688661 
3839.373759  	91.086477 
3840.338184  	90.819774 
3841.302608  	90.802469 
3842.267033  	92.010651 
3843.231457  	92.199049 
3844.195882  	91.476305 
3845.160306  	92.233985 
3846.124731  	92.845634 
3847.089155  	92.978871 
3848.053579  	93.006150 
3849.018004  	92.816580 
3849.982428  	92.373375 
3850.946853  	92.368652 
3851.911277  	91.721271 
3852.875702  	90.043445 
3853.840126  	89.295178 
3854.804551  	89.168856 
3855.768975  	91.266397 
3856.733400  	91.733687 
3857.697824  	91.376043 
3858.662248  	92.259693 
3859.626673  	92.935141 
3860.591097  	92.975522 
3861.555522  	92.413529 
3862.519946  	91.769225 
3863.484371  	92.077302 
3864.448795  	91.480003 
3865.413220  	90.379472 
3866.377644  	91.634186 
3867.342069  	92.724967 
3868.306493  	92.714874 
3869.270917  	91.589440 
3870.235342  	89.722268 
3871.199766  	90.758445 
3872.164191  	91.992144 
3873.128615  	92.352513 
3874.093040  	91.210962 
3875.057464  	91.036303 
3876.021889  	92.596907 
3876.986313  	93.068142 
3877.950738  	93.116487 
3878.915162  	93.050901 
3879.879586  	92.173758 
3880.844011  	90.365960 
3881.808435  	91.400373 
3882.772860  	92.431726 
3883.737284  	92.180758 
3884.701709  	92.163843 
3885.666133  	91.529692 
3886.630558  	90.950483 
3887.594982  	92.365454 
3888.559407  	92.978394 
3889.523831  	93.027921 
3890.488256  	92.623170 
3891.452680  	91.453172 
3892.417104  	91.279131 
3893.381529  	92.237904 
3894.345953  	92.226999 
3895.310378  	92.504078 
3896.274802  	93.029464 
3897.239227  	93.066770 
3898.203651  	92.487919 
3899.168076  	91.530372 
3900.132500  	91.226375 
3901.096925  	91.949188 
3902.061349  	90.852599 
3903.025773  	90.732400 
3903.990198  	91.247640 
3904.954622  	90.704768 
3905.919047  	91.046739 
3906.883471  	91.869744 
3907.847896  	92.816602 
3908.812320  	93.128225 
3909.776745  	93.185967 
3910.741169  	93.211656 
3911.705594  	93.214937 
3912.670018  	93.206546 
3913.634442  	93.209811 
3914.598867  	93.221363 
3915.563291  	93.091806 
3916.527716  	92.265203 
3917.492140  	91.474849 
3918.456565  	92.230163 
3919.420989  	92.626866 
3920.385414  	92.012245 
3921.349838  	92.413435 
3922.314263  	93.085237 
3923.278687  	92.821261 
3924.243111  	92.044860 
3925.207536  	91.522606 
3926.171960  	92.181210 
3927.136385  	93.030859 
3928.100809  	93.120565 
3929.065234  	92.883659 
3930.029658  	92.582233 
3930.994083  	92.388325 
3931.958507  	92.000718 
3932.922932  	91.595122 
3933.887356  	92.324587 
3934.851780  	92.786834 
3935.816205  	93.052253 
3936.780629  	93.206187 
3937.745054  	93.167334 
3938.709478  	92.989031 
3939.673903  	93.107109 
3940.638327  	93.143556 
3941.602752  	92.961349 
3942.567176  	92.185517 
3943.531601  	91.703532 
3944.496025  	92.482365 
3945.460449  	92.933144 
3946.424874  	93.040517 
3947.389298  	92.519349 
3948.353723  	92.153020 
3949.318147  	92.451805 
3950.282572  	92.180627 
3951.246996  	92.481518 
3952.211421  	93.061141 
3953.175845  	92.965752 
3954.140270  	93.018992 
3955.104694  	93.159380 
3956.069119  	93.106854 
3957.033543  	92.927058 
3957.997967  	92.912271 
3958.962392  	93.008543 
3959.926816  	93.057911 
3960.891241  	93.036937 
3961.855665  	92.663046 
3962.820090  	92.611490 
3963.784514  	93.097005 
3964.748939  	93.164550 
3965.713363  	93.190476 
3966.677788  	93.252939 
3967.642212  	93.238216 
3968.606636  	93.061127 
3969.571061  	92.883717 
3970.535485  	93.021433 
3971.499910  	93.120755 
3972.464334  	92.932002 
3973.428759  	93.028367 
3974.393183  	93.122998 
3975.357608  	92.973082 
3976.322032  	92.819297 
3977.286457  	92.985807 
3978.250881  	93.194550 
3979.215305  	93.253419 
3980.179730  	93.255643 
3981.144154  	93.203621 
3982.108579  	93.113443 
3983.073003  	93.123196 
3984.037428  	93.227447 
3985.001852  	93.237453 
3985.966277  	93.201458 
3986.930701  	93.235324 
3987.895126  	93.259261 
3988.859550  	93.249906 
3989.823974  	93.151363 
3990.788399  	92.953645 
3991.752823  	93.040696 
3992.717248  	93.196284 
3993.681672  	93.212858 
3994.646097  	93.125633 
3995.610521  	92.994232 
3996.574946  	93.128645 
3997.539370  	93.234912 
3998.503795  	93.273834 
3999.468219  	93.299819 
4000.432643  	93.370194 
4001.397068  	93.359658 
4002.361492  	93.304091 
4003.325917  	93.245589 
4004.290341  	93.253301 
4005.254766  	93.277501 
4006.219190  	93.247230 
4007.183615  	93.206590 
4008.148039  	93.131332 
4009.112464  	93.011320 
4010.076888  	93.118290 
4011.041313  	93.194849 
4012.005737  	93.227220 
4012.970161  	93.198254 
4013.934586  	93.209327 
4014.899010  	93.230117 
4015.863435  	93.218655 
4016.827859  	93.230319 
4017.792284  	93.253996 
4018.756708  	93.255148 
4019.721133  	93.169136 
4020.685557  	93.174705 
4021.649982  	93.239754 
4022.614406  	93.271939 
4023.578830  	93.272517 
4024.543255  	93.240974 
4025.507679  	93.162442 
4026.472104  	93.176803 
4027.436528  	93.255039 
4028.400953  	93.293205 
4029.365377  	93.262668 
4030.329802  	93.224904 
4031.294226  	93.257994 
4032.258651  	93.277779 
4033.223075  	93.312686 
4034.187499  	93.297437 
4035.151924  	93.235491 
4036.116348  	93.248691 
4037.080773  	93.283451 
4038.045197  	93.310966 
4039.009622  	93.326400 
4039.974046  	93.296969 
4040.938471  	93.265551 
4041.902895  	93.227959 
4042.867320  	93.262059 
4043.831744  	93.182062 
4044.796168  	93.077284 
4045.760593  	93.116453 
4046.725017  	93.239888 
4047.689442  	93.257900 
4048.653866  	93.251929 
4049.618291  	93.239349 
4050.582715  	93.260338 
4051.547140  	93.271007 
4052.511564  	93.271500 
4053.475989  	93.253321 
4054.440413  	93.222131 
4055.404837  	93.222354 
4056.369262  	93.274472 
4057.333686  	93.301126 
4058.298111  	93.277867 
4059.262535  	93.311308 
4060.226960  	93.312833 
4061.191384  	93.247798 
4062.155809  	93.262712 
4063.120233  	93.339712 
4064.084658  	93.373393 
4065.049082  	93.332895 
4066.013506  	93.280968 
4066.977931  	93.265998 
4067.942355  	93.278015 
4068.906780  	93.212747 
4069.871204  	93.190164 
4070.835629  	93.244227 
4071.800053  	93.281401 
4072.764478  	93.236096 
4073.728902  	93.217657 
4074.693327  	93.247424 
4075.657751  	93.314812 
4076.622176  	93.272222 
4077.586600  	93.232892 
4078.551024  	93.216418 
4079.515449  	93.199341 
4080.479873  	93.223998 
4081.444298  	93.259286 
4082.408722  	93.202633 
4083.373147  	93.140774 
4084.337571  	93.130717 
4085.301996  	93.198987 
4086.266420  	93.215062 
4087.230845  	93.208734 
4088.195269  	93.192375 
4089.159693  	93.186269 
4090.124118  	93.230085 
4091.088542  	93.282701 
4092.052967  	93.270814 
4093.017391  	93.245887 
4093.981816  	93.179731 
4094.946240  	93.182918 
4095.910665  	93.264992 
4096.875089  	93.327451 
4097.839514  	93.280351 
4098.803938  	93.193132 
4099.768362  	93.222543 
4100.732787  	93.294414 
4101.697211  	93.286827 
4102.661636  	93.297655 
4103.626060  	93.303444 
4104.590485  	93.262793 
4105.554909  	93.232899 
4106.519334  	93.232866 
4107.483758  	93.211987 
4108.448183  	93.244749 
4109.412607  	93.246853 
4110.377031  	93.190524 
4111.341456  	93.257907 
4112.305880  	93.305547 
4113.270305  	93.302493 
4114.234729  	93.303813 
4115.199154  	93.318551 
4116.163578  	93.316596 
4117.128003  	93.316390 
4118.092427  	93.326592 
4119.056852  	93.304820 
4120.021276  	93.259513 
4120.985700  	93.267224 
4121.950125  	93.306417 
4122.914549  	93.271688 
4123.878974  	93.286565 
4124.843398  	93.309402 
4125.807823  	93.352849 
4126.772247  	93.336855 
4127.736672  	93.293781 
4128.701096  	93.300618 
4129.665521  	93.321903 
4130.629945  	93.310016 
4131.594370  	93.310466 
4132.558794  	93.300084 
4133.523218  	93.260488 
4134.487643  	93.270610 
4135.452067  	93.275876 
4136.416492  	93.284244 
4137.380916  	93.353065 
4138.345341  	93.364377 
4139.309765  	93.301904 
4140.274190  	93.261221 
4141.238614  	93.255908 
4142.203039  	93.271445 
4143.167463  	93.377314 
4144.131887  	93.354479 
4145.096312  	93.298173 
4146.060736  	93.308704 
4147.025161  	93.315242 
4147.989585  	93.294203 
4148.954010  	93.236904 
4149.918434  	93.225231 
4150.882859  	93.288241 
4151.847283  	93.355077 
4152.811708  	93.339428 
4153.776132  	93.337798 
4154.740556  	93.327570 
4155.704981  	93.276115 
4156.669405  	93.254901 
4157.633830  	93.279189 
4158.598254  	93.303026 
4159.562679  	93.332312 
4160.527103  	93.274719 
4161.491528  	93.249381 
4162.455952  	93.300767 
4163.420377  	93.348194 
4164.384801  	93.368944 
4165.349225  	93.320757 
4166.313650  	93.263067 
4167.278074  	93.241894 
4168.242499  	93.299153 
4169.206923  	93.357008 
4170.171348  	93.342224 
4171.135772  	93.306412 
4172.100197  	93.313919 
4173.064621  	93.351022 
4174.029046  	93.344838 
4174.993470  	93.325003 
4175.957894  	93.339929 
4176.922319  	93.358650 
4177.886743  	93.371855 
4178.851168  	93.333648 
4179.815592  	93.303408 
4180.780017  	93.310045 
4181.744441  	93.357868 
4182.708866  	93.377987 
4183.673290  	93.375714 
4184.637715  	93.369721 
4185.602139  	93.371059 
4186.566563  	93.322785 
4187.530988  	93.304114 
4188.495412  	93.352884 
4189.459837  	93.393228 
4190.424261  	93.341009 
4191.388686  	93.332764 
4192.353110  	93.372190 
4193.317535  	93.351456 
4194.281959  	93.299224 
4195.246384  	93.313223 
4196.210808  	93.281624 
4197.175233  	93.288675 
4198.139657  	93.359026 
4199.104081  	93.385447 
4200.068506  	93.346549 
4201.032930  	93.329219 
4201.997355  	93.392508 
4202.961779  	93.459218 
4203.926204  	93.387766 
4204.890628  	93.325651 
4205.855053  	93.347673 
4206.819477  	93.387947 
4207.783902  	93.396409 
4208.748326  	93.345674 
4209.712750  	93.360050 
4210.677175  	93.414996 
4211.641599  	93.375465 
4212.606024  	93.360523 
4213.570448  	93.379743 
4214.534873  	93.428122 
4215.499297  	93.396369 
4216.463722  	93.374316 
4217.428146  	93.322024 
4218.392571  	93.284696 
4219.356995  	93.327069 
4220.321419  	93.388483 
4221.285844  	93.407630 
4222.250268  	93.411825 
4223.214693  	93.321365 
4224.179117  	93.285573 
4225.143542  	93.309670 
4226.107966  	93.331542 
4227.072391  	93.350042 
4228.036815  	93.286325 
4229.001240  	93.271813 
4229.965664  	93.310982 
4230.930088  	93.383101 
4231.894513  	93.432338 
4232.858937  	93.379200 
4233.823362  	93.342596 
4234.787786  	93.363389 
4235.752211  	93.367359 
4236.716635  	93.351775 
4237.681060  	93.363373 
4238.645484  	93.355453 
4239.609909  	93.334629 
4240.574333  	93.346029 
4241.538757  	93.432668 
4242.503182  	93.448732 
4243.467606  	93.419337 
4244.432031  	93.420764 
4245.396455  	93.408901 
4246.360880  	93.379437 
4247.325304  	93.363434 
4248.289729  	93.364866 
4249.254153  	93.408423 
4250.218578  	93.438865 
4251.183002  	93.451361 
4252.147427  	93.406255 
4253.111851  	93.363606 
4254.076275  	93.319829 
4255.040700  	93.320245 
4256.005124  	93.356469 
4256.969549  	93.457925 
4257.933973  	93.487390 
4258.898398  	93.418402 
4259.862822  	93.348199 
4260.827247  	93.319639 
4261.791671  	93.354432 
4262.756096  	93.401717 
4263.720520  	93.381348 
4264.684944  	93.344679 
4265.649369  	93.338561 
4266.613793  	93.385970 
4267.578218  	93.363266 
4268.542642  	93.357072 
4269.507067  	93.346002 
4270.471491  	93.317241 
4271.435916  	93.354074 
4272.400340  	93.354414 
4273.364765  	93.347561 
4274.329189  	93.388358 
4275.293613  	93.390194 
4276.258038  	93.351287 
4277.222462  	93.341572 
4278.186887  	93.318960 
4279.151311  	93.222939 
4280.115736  	93.194916 
4281.080160  	93.265031 
4282.044585  	93.299356 
4283.009009  	93.285537 
4283.973434  	93.327327 
4284.937858  	93.338379 
4285.902282  	93.311750 
4286.866707  	93.294686 
4287.831131  	93.329225 
4288.795556  	93.404615 
4289.759980  	93.406566 
4290.724405  	93.303114 
4291.688829  	93.305429 
4292.653254  	93.315238 
4293.617678  	93.354511 
4294.582103  	93.401454 
4295.546527  	93.398378 
4296.510951  	93.380272 
4297.475376  	93.412371 
4298.439800  	93.368110 
4299.404225  	93.343845 
4300.368649  	93.401636 
4301.333074  	93.350625 
4302.297498  	93.251605 
4303.261923  	93.209938 
4304.226347  	93.272461 
4305.190772  	93.439343 
4306.155196  	93.437586 
4307.119620  	93.355261 
4308.084045  	93.319749 
4309.048469  	93.356725 
4310.012894  	93.378684 
4310.977318  	93.397201 
4311.941743  	93.408894 
4312.906167  	93.391993 
4313.870592  	93.383237 
4314.835016  	93.426694 
4315.799441  	93.401158 
4316.763865  	93.364853 
4317.728290  	93.384245 
4318.692714  	93.438023 
4319.657138  	93.411914 
4320.621563  	93.368480 
4321.585987  	93.357740 
4322.550412  	93.369172 
4323.514836  	93.366946 
4324.479261  	93.346714 
4325.443685  	93.312689 
4326.408110  	93.367415 
4327.372534  	93.411977 
4328.336959  	93.431133 
4329.301383  	93.409882 
4330.265807  	93.418834 
4331.230232  	93.428193 
4332.194656  	93.340466 
4333.159081  	93.368628 
4334.123505  	93.414276 
4335.087930  	93.381747 
4336.052354  	93.351502 
4337.016779  	93.372880 
4337.981203  	93.416239 
4338.945628  	93.449939 
4339.910052  	93.375287 
4340.874476  	93.370897 
4341.838901  	93.433515 
4342.803325  	93.370210 
4343.767750  	93.305819 
4344.732174  	93.323477 
4345.696599  	93.347716 
4346.661023  	93.364584 
4347.625448  	93.373301 
4348.589872  	93.385200 
4349.554297  	93.432845 
4350.518721  	93.441179 
4351.483145  	93.408562 
4352.447570  	93.341837 
4353.411994  	93.362394 
4354.376419  	93.389152 
4355.340843  	93.427201 
4356.305268  	93.429899 
4357.269692  	93.410946 
4358.234117  	93.457535 
4359.198541  	93.473761 
4360.162966  	93.471422 
4361.127390  	93.465631 
4362.091814  	93.382054 
4363.056239  	93.322382 
4364.020663  	93.375342 
4364.985088  	93.403745 
4365.949512  	93.354461 
4366.913937  	93.337921 
4367.878361  	93.366742 
4368.842786  	93.443610 
4369.807210  	93.458051 
4370.771635  	93.414678 
4371.736059  	93.370839 
4372.700484  	93.399463 
4373.664908  	93.441803 
4374.629332  	93.445878 
4375.593757  	93.427168 
4376.558181  	93.444344 
4377.522606  	93.476247 
4378.487030  	93.432755 
4379.451455  	93.380668 
4380.415879  	93.333498 
4381.380304  	93.343518 
4382.344728  	93.431780 
4383.309153  	93.468493 
4384.273577  	93.412420 
4385.238001  	93.408748 
4386.202426  	93.436235 
4387.166850  	93.440380 
4388.131275  	93.424748 
4389.095699  	93.383018 
4390.060124  	93.398603 
4391.024548  	93.464405 
4391.988973  	93.516616 
4392.953397  	93.474910 
4393.917822  	93.422566 
4394.882246  	93.364024 
4395.846670  	93.344198 
4396.811095  	93.334547 
4397.775519  	93.367028 
4398.739944  	93.418469 
4399.704368  	93.464421 
4400.668793  	93.505195 
4401.633217  	93.387653 
4402.597642  	93.329236 
4403.562066  	93.453374 
4404.526491  	93.461552 
4405.490915  	93.433577 
4406.455339  	93.409891 
4407.419764  	93.409207 
4408.384188  	93.463550 
4409.348613  	93.501630 
4410.313037  	93.469342 
4411.277462  	93.375442 
4412.241886  	93.351879 
4413.206311  	93.437856 
4414.170735  	93.487552 
4415.135160  	93.418450 
4416.099584  	93.318378 
4417.064008  	93.270738 
4418.028433  	93.309336 
4418.992857  	93.402634 
4419.957282  	93.434971 
4420.921706  	93.429941 
4421.886131  	93.454151 
4422.850555  	93.402630 
4423.814980  	93.387311 
4424.779404  	93.398962 
4425.743829  	93.335664 
4426.708253  	93.339503 
4427.672677  	93.339561 
4428.637102  	93.355160 
4429.601526  	93.359827 
4430.565951  	93.379305 
4431.530375  	93.337978 
4432.494800  	93.292788 
4433.459224  	93.256049 
4434.423649  	93.233518 
4435.388073  	93.292116 
4436.352498  	93.379021 
4437.316922  	93.428727 
4438.281347  	93.430979 
4439.245771  	93.359124 
4440.210195  	93.362568 
4441.174620  	93.366318 
4442.139044  	93.370925 
4443.103469  	93.435333 
4444.067893  	93.447694 
4445.032318  	93.414793 
4445.996742  	93.404868 
4446.961167  	93.364809 
4447.925591  	93.307635 
4448.890016  	93.284433 
4449.854440  	93.300799 
4450.818864  	93.367318 
4451.783289  	93.429086 
4452.747713  	93.346728 
4453.712138  	93.324127 
4454.676562  	93.320779 
4455.640987  	93.323472 
4456.605411  	93.363567 
4457.569836  	93.406981 
4458.534260  	93.315385 
4459.498685  	93.254282 
4460.463109  	93.311818 
4461.427533  	93.420406 
4462.391958  	93.401264 
4463.356382  	93.345295 
4464.320807  	93.387710 
4465.285231  	93.398715 
4466.249656  	93.405413 
4467.214080  	93.422236 
4468.178505  	93.408379 
4469.142929  	93.415211 
4470.107354  	93.409939 
4471.071778  	93.407842 
4472.036202  	93.459321 
4473.000627  	93.473495 
4473.965051  	93.385680 
4474.929476  	93.366864 
4475.893900  	93.404271 
4476.858325  	93.383392 
4477.822749  	93.364528 
4478.787174  	93.413511 
4479.751598  	93.462297 
4480.716023  	93.488401 
4481.680447  	93.524955 
4482.644871  	93.488021 
4483.609296  	93.397542 
4484.573720  	93.391760 
4485.538145  	93.434003 
4486.502569  	93.456948 
4487.466994  	93.479647 
4488.431418  	93.529333 
4489.395843  	93.475688 
4490.360267  	93.420120 
4491.324692  	93.407157 
4492.289116  	93.432927 
4493.253541  	93.415175 
4494.217965  	93.385109 
4495.182389  	93.394125 
4496.146814  	93.404960 
4497.111238  	93.421988 
4498.075663  	93.455592 
4499.040087  	93.463776 
4500.004512  	93.466112 
4500.968936  	93.458635 
4501.933361  	93.447995 
4502.897785  	93.489987 
4503.862210  	93.522254 
4504.826634  	93.500372 
4505.791058  	93.453333 
4506.755483  	93.375455 
4507.719907  	93.357688 
4508.684332  	93.461704 
4509.648756  	93.514891 
4510.613181  	93.422658 
4511.577605  	93.420923 
4512.542030  	93.503070 
4513.506454  	93.489142 
4514.470879  	93.433441 
4515.435303  	93.427786 
4516.399727  	93.411834 
4517.364152  	93.404487 
4518.328576  	93.461160 
4519.293001  	93.494919 
4520.257425  	93.489303 
4521.221850  	93.470917 
4522.186274  	93.493346 
4523.150699  	93.452807 
4524.115123  	93.399116 
4525.079548  	93.388553 
4526.043972  	93.412218 
4527.008396  	93.421768 
4527.972821  	93.374305 
4528.937245  	93.368710 
4529.901670  	93.395721 
4530.866094  	93.473965 
4531.830519  	93.540208 
4532.794943  	93.501045 
4533.759368  	93.438787 
4534.723792  	93.416107 
4535.688217  	93.391110 
4536.652641  	93.411253 
4537.617065  	93.450556 
4538.581490  	93.496388 
4539.545914  	93.477561 
4540.510339  	93.436413 
4541.474763  	93.374365 
4542.439188  	93.383307 
4543.403612  	93.421504 
4544.368037  	93.418033 
4545.332461  	93.408628 
4546.296886  	93.392188 
4547.261310  	93.379615 
4548.225734  	93.410889 
4549.190159  	93.473837 
4550.154583  	93.462911 
4551.119008  	93.395038 
4552.083432  	93.420745 
4553.047857  	93.459895 
4554.012281  	93.447656 
4554.976706  	93.466496 
4555.941130  	93.450368 
4556.905555  	93.410099 
4557.869979  	93.460689 
4558.834404  	93.522147 
4559.798828  	93.462803 
4560.763252  	93.371731 
4561.727677  	93.374754 
4562.692101  	93.457666 
4563.656526  	93.563750 
4564.620950  	93.576804 
4565.585375  	93.479505 
4566.549799  	93.458749 
4567.514224  	93.495714 
4568.478648  	93.447984 
4569.443073  	93.435763 
4570.407497  	93.432895 
4571.371921  	93.489000 
4572.336346  	93.499792 
4573.300770  	93.516847 
4574.265195  	93.515946 
4575.229619  	93.480777 
4576.194044  	93.423890 
4577.158468  	93.442990 
4578.122893  	93.525841 
4579.087317  	93.536828 
4580.051742  	93.494476 
4581.016166  	93.495006 
4581.980590  	93.543233 
4582.945015  	93.521813 
4583.909439  	93.409679 
4584.873864  	93.435561 
4585.838288  	93.449369 
4586.802713  	93.478890 
4587.767137  	93.387474 
4588.731562  	93.418009 
4589.695986  	93.505059 
4590.660411  	93.471634 
4591.624835  	93.378673 
4592.589259  	93.379763 
4593.553684  	93.461334 
4594.518108  	93.424367 
4595.482533  	93.369147 
4596.446957  	93.389416 
4597.411382  	93.363840 
4598.375806  	93.370368 
4599.340231  	93.444619 
4600.304655  	93.446088 
4601.269080  	93.435305 
4602.233504  	93.440900 
4603.197928  	93.410237 
4604.162353  	93.407838 
4605.126777  	93.381902 
4606.091202  	93.395213 
4607.055626  	93.458256 
4608.020051  	93.470487 
4608.984475  	93.433093 
4609.948900  	93.452572 
4610.913324  	93.454127 
4611.877749  	93.458371 
4612.842173  	93.466285 
4613.806598  	93.533710 
4614.771022  	93.548378 
4615.735446  	93.568724 
4616.699871  	93.533268 
4617.664295  	93.487513 
4618.628720  	93.432453 
4619.593144  	93.383781 
4620.557569  	93.480787 
4621.521993  	93.548527 
4622.486418  	93.460228 
4623.450842  	93.402834 
4624.415267  	93.372600 
4625.379691  	93.399454 
4626.344115  	93.417742 
4627.308540  	93.416565 
4628.272964  	93.372840 
4629.237389  	93.416950 
4630.201813  	93.390317 
4631.166238  	93.381542 
4632.130662  	93.417483 
4633.095087  	93.352103 
4634.059511  	93.256174 
4635.023936  	93.406781 
4635.988360  	93.526627 
4636.952784  	93.465473 
4637.917209  	93.420702 
4638.881633  	93.410422 
4639.846058  	93.387709 
4640.810482  	93.406721 
4641.774907  	93.408745 
4642.739331  	93.342928 
4643.703756  	93.306489 
4644.668180  	93.323189 
4645.632605  	93.311539 
4646.597029  	93.381951 
4647.561453  	93.390664 
4648.525878  	93.404714 
4649.490302  	93.460454 
4650.454727  	93.502694 
4651.419151  	93.459542 
4652.383576  	93.465083 
4653.348000  	93.464238 
4654.312425  	93.446961 
4655.276849  	93.447357 
4656.241274  	93.350414 
4657.205698  	93.365332 
4658.170122  	93.419982 
4659.134547  	93.440955 
4660.098971  	93.427649 
4661.063396  	93.439075 
4662.027820  	93.481691 
4662.992245  	93.462523 
4663.956669  	93.434628 
4664.921094  	93.451282 
4665.885518  	93.438380 
4666.849943  	93.422966 
4667.814367  	93.432035 
4668.778791  	93.471356 
4669.743216  	93.491639 
4670.707640  	93.493753 
4671.672065  	93.465867 
4672.636489  	93.411771 
4673.600914  	93.401101 
4674.565338  	93.417766 
4675.529763  	93.382440 
4676.494187  	93.435965 
4677.458612  	93.477972 
4678.423036  	93.473393 
4679.387461  	93.502269 
4680.351885  	93.516758 
4681.316309  	93.491689 
4682.280734  	93.453996 
4683.245158  	93.338360 
4684.209583  	93.354862 
4685.174007  	93.474530 
4686.138432  	93.470560 
4687.102856  	93.489404 
4688.067281  	93.563599 
4689.031705  	93.498591 
4689.996130  	93.395471 
4690.960554  	93.404418 
4691.924978  	93.435068 
4692.889403  	93.390525 
4693.853827  	93.419386 
4694.818252  	93.440323 
4695.782676  	93.477013 
4696.747101  	93.495711 
4697.711525  	93.493539 
4698.675950  	93.475343 
4699.640374  	93.380208 