##TITLE=No Description
##DATA TYPE=INFRARED SPECTRUM
##XUNITS=1/CM
##YUNITS=%T
400.236149  	159.972436 
401.200574  	133.230338 
402.164998  	87.186434 
403.129423  	82.243537 
404.093847  	96.974844 
405.058272  	84.723685 
406.022696  	77.673692 
406.987120  	76.548540 
407.951545  	81.348551 
408.915969  	81.431709 
409.880394  	76.765258 
410.844818  	80.668921 
411.809243  	92.667748 
412.773667  	94.074995 
413.738092  	81.386957 
414.702516  	75.606102 
415.666941  	76.881889 
416.631365  	82.908627 
417.595789  	89.490454 
418.560214  	89.386167 
419.524638  	81.514434 
420.489063  	82.317562 
421.453487  	84.150733 
422.417912  	83.540939 
423.382336  	82.866303 
424.346761  	79.773958 
425.311185  	76.445619 
426.275610  	77.600564 
427.240034  	77.075704 
428.204458  	78.270282 
429.168883  	80.256422 
430.133307  	79.817058 
431.097732  	78.654326 
432.062156  	77.204981 
433.026581  	75.288940 
433.991005  	75.614032 
434.955430  	76.774228 
435.919854  	76.073411 
436.884279  	76.733065 
437.848703  	79.617896 
438.813127  	79.737425 
439.777552  	79.237210 
440.741976  	79.577877 
441.706401  	80.637030 
442.670825  	81.508613 
443.635250  	81.356112 
444.599674  	82.211804 
445.564099  	83.613804 
446.528523  	83.374440 
447.492948  	82.691603 
448.457372  	84.101557 
449.421796  	83.674292 
450.386221  	82.275563 
451.350645  	81.689071 
452.315070  	80.952661 
453.279494  	81.499787 
454.243919  	82.590227 
455.208343  	82.274475 
456.172768  	81.730585 
457.137192  	80.766779 
458.101617  	81.206948 
459.066041  	82.414497 
460.030466  	82.701578 
460.994890  	82.720937 
461.959314  	82.401157 
462.923739  	82.762979 
463.888163  	82.782518 
464.852588  	82.388421 
465.817012  	82.782714 
466.781437  	82.421106 
467.745861  	81.246043 
468.710286  	80.711612 
469.674710  	80.452384 
470.639135  	80.904160 
471.603559  	80.788581 
472.567983  	81.111652 
473.532408  	82.477087 
474.496832  	81.947139 
475.461257  	81.587517 
476.425681  	81.146312 
477.390106  	81.275004 
478.354530  	82.111368 
479.318955  	81.305647 
480.283379  	80.413238 
481.247804  	80.814232 
482.212228  	80.879024 
483.176652  	81.645703 
484.141077  	82.131496 
485.105501  	81.657498 
486.069926  	80.801468 
487.034350  	80.781250 
487.998775  	80.572629 
488.963199  	80.653650 
489.927624  	80.963837 
490.892048  	80.719418 
491.856473  	80.125530 
492.820897  	80.248257 
493.785321  	79.964613 
494.749746  	79.457747 
495.714170  	79.081785 
496.678595  	78.680321 
497.643019  	79.020142 
498.607444  	79.069271 
499.571868  	78.079080 
500.536293  	77.911334 
501.500717  	77.600832 
502.465142  	77.103569 
503.429566  	77.125977 
504.393990  	77.297379 
505.358415  	77.552215 
506.322839  	76.910101 
507.287264  	77.097342 
508.251688  	78.766194 
509.216113  	80.032444 
510.180537  	80.480522 
511.144962  	80.957832 
512.109386  	81.630909 
513.073811  	81.948870 
514.038235  	82.022672 
515.002660  	81.767187 
515.967084  	81.499080 
516.931508  	81.322929 
517.895933  	81.888131 
518.860357  	81.885156 
519.824782  	81.374745 
520.789206  	81.842658 
521.753631  	82.265464 
522.718055  	82.096067 
523.682480  	81.780171 
524.646904  	81.520661 
525.611329  	81.270243 
526.575753  	81.773311 
527.540177  	82.392440 
528.504602  	82.266471 
529.469026  	82.242454 
530.433451  	82.810311 
531.397875  	82.876620 
532.362300  	82.819785 
533.326724  	83.332213 
534.291149  	83.003743 
535.255573  	82.561730 
536.219998  	82.733481 
537.184422  	83.288526 
538.148846  	82.950841 
539.113271  	83.141970 
540.077695  	83.248532 
541.042120  	83.655546 
542.006544  	83.785241 
542.970969  	83.684274 
543.935393  	83.398501 
544.899818  	83.302568 
545.864242  	83.530519 
546.828667  	83.596352 
547.793091  	83.211428 
548.757515  	83.420525 
549.721940  	83.748709 
550.686364  	83.819987 
551.650789  	83.892268 
552.615213  	83.628139 
553.579638  	83.886809 
554.544062  	83.978405 
555.508487  	83.942083 
556.472911  	83.582260 
557.437336  	83.235054 
558.401760  	83.553653 
559.366184  	83.999175 
560.330609  	83.967841 
561.295033  	83.855606 
562.259458  	83.874767 
563.223882  	83.487457 
564.188307  	83.227494 
565.152731  	83.586370 
566.117156  	83.665151 
567.081580  	83.163875 
568.046005  	83.141742 
569.010429  	83.272120 
569.974853  	83.435295 
570.939278  	83.263039 
571.903702  	83.326899 
572.868127  	83.333582 
573.832551  	83.191339 
574.796976  	83.195693 
575.761400  	82.781108 
576.725825  	82.766777 
577.690249  	83.177441 
578.654674  	83.312379 
579.619098  	83.070815 
580.583523  	82.791070 
581.547947  	83.237455 
582.512371  	83.463430 
583.476796  	83.191061 
584.441220  	83.001311 
585.405645  	83.129446 
586.370069  	83.468993 
587.334494  	83.483929 
588.298918  	83.411734 
589.263343  	83.344534 
590.227767  	83.352126 
591.192192  	82.909441 
592.156616  	82.570532 
593.121040  	83.105151 
594.085465  	83.292340 
595.049889  	83.258274 
596.014314  	83.265604 
596.978738  	83.064990 
597.943163  	83.108306 
598.907587  	83.068494 
599.872012  	82.664934 
600.836436  	82.835348 
601.800861  	83.167120 
602.765285  	83.136031 
603.729709  	82.993398 
604.694134  	82.909597 
605.658558  	82.928704 
606.622983  	83.043813 
607.587407  	82.898407 
608.551832  	82.785270 
609.516256  	82.785325 
610.480681  	82.722369 
611.445105  	82.660483 
612.409530  	82.921352 
613.373954  	83.055168 
614.338378  	82.743036 
615.302803  	82.343941 
616.267227  	82.195157 
617.231652  	82.541712 
618.196076  	82.714243 
619.160501  	82.564673 
620.124925  	82.275087 
621.089350  	82.118737 
622.053774  	82.061315 
623.018199  	82.243303 
623.982623  	82.067716 
624.947047  	81.868072 
625.911472  	81.731903 
626.875896  	81.730895 
627.840321  	81.535890 
628.804745  	81.568728 
629.769170  	81.297151 
630.733594  	80.839166 
631.698019  	80.634305 
632.662443  	80.799389 
633.626868  	81.056748 
634.591292  	81.372201 
635.555717  	81.324007 
636.520141  	81.550927 
637.484565  	81.749341 
638.448990  	81.836553 
639.413414  	81.683666 
640.377839  	81.618852 
641.342263  	81.518637 
642.306688  	81.253311 
643.271112  	81.136390 
644.235537  	81.151495 
645.199961  	81.162494 
646.164386  	81.295818 
647.128810  	81.337867 
648.093234  	81.215183 
649.057659  	81.010582 
650.022083  	80.965561 
650.986508  	81.001398 
651.950932  	80.976472 
652.915357  	80.842743 
653.879781  	80.806713 
654.844206  	80.764487 
655.808630  	80.613235 
656.773055  	80.390525 
657.737479  	80.421131 
658.701903  	80.200244 
659.666328  	79.999607 
660.630752  	80.036966 
661.595177  	80.055756 
662.559601  	79.891918 
663.524026  	79.709495 
664.488450  	79.692753 
665.452875  	79.529990 
666.417299  	79.507383 
667.381724  	79.691602 
668.346148  	79.188083 
669.310572  	78.770600 
670.274997  	78.622209 
671.239421  	78.515131 
672.203846  	78.472141 
673.168270  	78.419961 
674.132695  	78.092197 
675.097119  	77.701664 
676.061544  	77.406371 
677.025968  	77.286243 
677.990393  	77.002381 
678.954817  	76.666534 
679.919241  	76.474511 
680.883666  	76.518383 
681.848090  	76.506842 
682.812515  	76.406118 
683.776939  	76.171388 
684.741364  	76.068640 
685.705788  	75.949568 
686.670213  	75.855070 
687.634637  	75.504257 
688.599062  	75.085913 
689.563486  	74.727610 
690.527910  	74.427548 
691.492335  	74.018806 
692.456759  	73.674513 
693.421184  	73.240211 
694.385608  	72.796785 
695.350033  	72.162400 
696.314457  	71.487245 
697.278882  	70.729291 
698.243306  	69.846094 
699.207731  	68.945913 
700.172155  	68.184817 
701.136580  	67.368210 
702.101004  	66.617256 
703.065428  	65.899152 
704.029853  	65.216315 
704.994277  	64.488079 
705.958702  	63.713843 
706.923126  	62.852724 
707.887551  	61.970060 
708.851975  	61.046029 
709.816400  	60.015192 
710.780824  	58.843658 
711.745249  	57.591904 
712.709673  	56.296693 
713.674097  	54.904383 
714.638522  	53.468778 
715.602946  	51.900567 
716.567371  	50.168202 
717.531795  	48.454999 
718.496220  	46.788946 
719.460644  	45.332052 
720.425069  	44.108815 
721.389493  	43.216203 
722.353918  	42.765376 
723.318342  	42.896775 
724.282766  	43.829217 
725.247191  	45.676166 
726.211615  	48.141222 
727.176040  	50.880351 
728.140464  	53.616886 
729.104889  	56.374520 
730.069313  	59.131447 
731.033738  	61.891635 
731.998162  	64.609932 
732.962587  	67.455872 
733.927011  	70.345072 
734.891435  	73.128021 
735.855860  	75.792453 
736.820284  	78.277909 
737.784709  	80.634823 
738.749133  	82.811095 
739.713558  	84.592327 
740.677982  	85.995935 
741.642407  	86.992543 
742.606831  	87.707052 
743.571256  	88.152724 
744.535680  	88.406787 
745.500104  	88.619828 
746.464529  	88.787538 
747.428953  	88.814201 
748.393378  	88.762922 
749.357802  	88.644116 
750.322227  	88.608445 
751.286651  	88.506451 
752.251076  	88.399797 
753.215500  	88.322107 
754.179925  	88.146352 
755.144349  	88.016458 
756.108774  	87.930685 
757.073198  	87.804745 
758.037622  	87.661240 
759.002047  	87.455663 
759.966471  	87.369103 
760.930896  	87.291090 
761.895320  	87.230222 
762.859745  	87.130265 
763.824169  	87.006844 
764.788594  	86.824798 
765.753018  	86.626660 
766.717443  	86.323139 
767.681867  	86.077604 
768.646291  	85.911042 
769.610716  	85.832939 
770.575140  	85.759842 
771.539565  	85.660990 
772.503989  	85.446762 
773.468414  	85.305282 
774.432838  	85.214735 
775.397263  	85.183374 
776.361687  	85.035714 
777.326112  	84.795031 
778.290536  	84.623856 
779.254960  	84.564908 
780.219385  	84.285223 
781.183809  	84.309495 
782.148234  	83.982810 
783.112658  	83.920509 
784.077083  	83.694929 
785.041507  	83.289589 
786.005932  	83.063407 
786.970356  	82.686951 
787.934781  	82.298127 
788.899205  	81.993737 
789.863629  	81.744283 
790.828054  	81.422411 
791.792478  	81.087147 
792.756903  	80.963670 
793.721327  	81.154641 
794.685752  	81.499819 
795.650176  	82.111959 
796.614601  	82.763121 
797.579025  	83.192296 
798.543450  	83.275842 
799.507874  	83.301207 
800.472298  	83.350073 
801.436723  	83.340911 
802.401147  	83.266058 
803.365572  	83.262475 
804.329996  	83.246035 
805.294421  	83.100820 
806.258845  	83.013152 
807.223270  	83.103632 
808.187694  	83.088206 
809.152119  	83.086650 
810.116543  	83.086206 
811.080967  	82.991054 
812.045392  	82.918460 
813.009816  	82.907409 
813.974241  	82.942687 
814.938665  	82.934287 
815.903090  	82.860353 
816.867514  	82.842631 
817.831939  	82.840843 
818.796363  	82.852140 
819.760788  	82.827276 
820.725212  	82.714847 
821.689637  	82.483691 
822.654061  	82.391330 
823.618485  	82.339321 
824.582910  	82.126938 
825.547334  	81.866311 
826.511759  	81.734641 
827.476183  	81.623402 
828.440608  	81.499099 
829.405032  	81.313228 
830.369457  	81.100081 
831.333881  	80.903353 
832.298306  	80.681667 
833.262730  	80.417350 
834.227154  	80.174146 
835.191579  	79.956406 
836.156003  	79.650621 
837.120428  	79.317311 
838.084852  	78.914422 
839.049277  	78.595358 
840.013701  	78.285022 
840.978126  	77.931458 
841.942550  	77.636334 
842.906975  	77.256410 
843.871399  	76.793586 
844.835823  	76.431458 
845.800248  	76.242941 
846.764672  	76.227468 
847.729097  	76.364137 
848.693521  	76.573121 
849.657946  	76.915952 
850.622370  	77.347308 
851.586795  	77.713488 
852.551219  	77.875339 
853.515644  	78.043143 
854.480068  	78.255683 
855.444492  	78.405118 
856.408917  	78.477511 
857.373341  	78.594175 
858.337766  	78.781754 
859.302190  	78.933050 
860.266615  	78.902642 
861.231039  	78.783752 
862.195464  	78.678525 
863.159888  	78.433329 
864.124313  	78.087465 
865.088737  	77.617987 
866.053161  	76.938025 
867.017586  	75.955583 
867.982010  	74.708453 
868.946435  	73.132347 
869.910859  	71.163031 
870.875284  	69.159559 
871.839708  	68.150002 
872.804133  	68.901088 
873.768557  	71.083552 
874.732982  	73.417148 
875.697406  	75.154823 
876.661831  	76.339413 
877.626255  	77.408461 
878.590679  	78.408866 
879.555104  	79.251682 
880.519528  	79.982519 
881.483953  	80.622343 
882.448377  	81.180191 
883.412802  	81.686470 
884.377226  	82.066197 
885.341651  	82.361457 
886.306075  	82.589213 
887.270500  	82.747491 
888.234924  	82.829812 
889.199348  	82.826863 
890.163773  	82.823801 
891.128197  	82.815805 
892.092622  	82.743620 
893.057046  	82.578970 
894.021471  	82.482678 
894.985895  	82.493788 
895.950320  	82.416431 
896.914744  	82.272536 
897.879169  	82.273784 
898.843593  	82.323208 
899.808017  	82.386406 
900.772442  	82.444681 
901.736866  	82.512484 
902.701291  	82.676229 
903.665715  	82.800984 
904.630140  	82.856860 
905.594564  	82.966109 
906.558989  	83.136450 
907.523413  	83.275581 
908.487838  	83.347640 
909.452262  	83.439202 
910.416686  	83.582131 
911.381111  	83.692217 
912.345535  	83.684583 
913.309960  	83.665436 
914.274384  	83.668379 
915.238809  	83.661219 
916.203233  	83.590254 
917.167658  	83.552368 
918.132082  	83.545288 
919.096507  	83.526518 
920.060931  	83.520297 
921.025355  	83.477211 
921.989780  	83.366232 
922.954204  	83.264904 
923.918629  	83.176462 
924.883053  	83.100685 
925.847478  	83.002095 
926.811902  	82.881869 
927.776327  	82.801321 
928.740751  	82.732716 
929.705176  	82.716992 
930.669600  	82.635205 
931.634024  	82.514738 
932.598449  	82.471492 
933.562873  	82.414773 
934.527298  	82.311491 
935.491722  	82.151280 
936.456147  	82.026743 
937.420571  	81.988904 
938.384996  	81.878962 
939.349420  	81.726612 
940.313845  	81.613467 
941.278269  	81.556276 
942.242694  	81.452300 
943.207118  	81.314445 
944.171542  	81.234239 
945.135967  	81.078873 
946.100391  	80.893120 
947.064816  	80.710153 
948.029240  	80.543781 
948.993665  	80.417888 
949.958089  	80.273208 
950.922514  	80.126078 
951.886938  	79.982172 
952.851363  	79.793147 
953.815787  	79.564035 
954.780211  	79.372070 
955.744636  	79.186242 
956.709060  	78.956944 
957.673485  	78.694856 
958.637909  	78.434655 
959.602334  	78.166086 
960.566758  	77.904620 
961.531183  	77.608013 
962.495607  	77.272145 
963.460032  	76.995506 
964.424456  	76.735163 
965.388880  	76.388262 
966.353305  	76.118091 
967.317729  	75.929281 
968.282154  	75.717346 
969.246578  	75.560125 
970.211003  	75.503890 
971.175427  	75.570882 
972.139852  	75.721926 
973.104276  	75.947865 
974.068701  	76.264040 
975.033125  	76.644771 
975.997549  	77.022720 
976.961974  	77.357110 
977.926398  	77.652220 
978.890823  	77.956985 
979.855247  	78.185067 
980.819672  	78.292583 
981.784096  	78.399434 
982.748521  	78.514816 
983.712945  	78.529178 
984.677370  	78.474788 
985.641794  	78.408962 
986.606218  	78.348699 
987.570643  	78.278357 
988.535067  	78.187613 
989.499492  	78.127858 
990.463916  	78.082499 
991.428341  	78.014592 
992.392765  	77.886009 
993.357190  	77.732176 
994.321614  	77.625096 
995.286039  	77.501120 
996.250463  	77.317861 
997.214888  	77.081024 
998.179312  	76.857063 
999.143736  	76.581442 
1000.108161  	76.262590 
1001.072585  	75.977780 
1002.037010  	75.728406 
1003.001434  	75.393340 
1003.965859  	74.969782 
1004.930283  	74.510765 
1005.894708  	74.009023 
1006.859132  	73.402604 
1007.823557  	72.687042 
1008.787981  	71.892578 
1009.752405  	70.972135 
1010.716830  	69.858483 
1011.681254  	68.558416 
1012.645679  	67.083401 
1013.610103  	65.439386 
1014.574528  	63.798873 
1015.538952  	62.475975 
1016.503377  	61.791479 
1017.467801  	61.898699 
1018.432226  	62.716524 
1019.396650  	64.048223 
1020.361074  	65.628716 
1021.325499  	67.240785 
1022.289923  	68.710522 
1023.254348  	70.192741 
1024.218772  	71.918583 
1025.183197  	73.796072 
1026.147621  	75.482795 
1027.112046  	76.729711 
1028.076470  	77.347308 
1029.040895  	77.496695 
1030.005319  	77.414024 
1030.969743  	77.221582 
1031.934168  	77.013716 
1032.898592  	76.768053 
1033.863017  	76.403408 
1034.827441  	76.003826 
1035.791866  	75.707666 
1036.756290  	75.456493 
1037.720715  	75.150902 
1038.685139  	74.847823 
1039.649564  	74.615824 
1040.613988  	74.447048 
1041.578412  	74.280112 
1042.542837  	74.126428 
1043.507261  	74.077521 
1044.471686  	73.969472 
1045.436110  	73.818405 
1046.400535  	73.819331 
1047.364959  	73.910161 
1048.329384  	73.886235 
1049.293808  	73.817231 
1050.258233  	73.821308 
1051.222657  	73.892813 
1052.187081  	73.860512 
1053.151506  	73.722664 
1054.115930  	73.621529 
1055.080355  	73.523891 
1056.044779  	73.355998 
1057.009204  	73.088565 
1057.973628  	72.823691 
1058.938053  	72.574955 
1059.902477  	72.211600 
1060.866902  	71.797878 
1061.831326  	71.466951 
1062.795751  	71.071770 
1063.760175  	70.599917 
1064.724599  	70.088899 
1065.689024  	69.624462 
1066.653448  	69.176121 
1067.617873  	68.614290 
1068.582297  	68.004506 
1069.546722  	67.400418 
1070.511146  	66.752137 
1071.475571  	66.031861 
1072.439995  	65.294175 
1073.404420  	64.555266 
1074.368844  	63.764816 
1075.333268  	62.883010 
1076.297693  	61.993713 
1077.262117  	61.121936 
1078.226542  	60.302082 
1079.190966  	59.459519 
1080.155391  	58.614017 
1081.119815  	57.881132 
1082.084240  	57.240426 
1083.048664  	56.671973 
1084.013089  	56.228975 
1084.977513  	55.838151 
1085.941937  	55.390973 
1086.906362  	54.996095 
1087.870786  	54.690496 
1088.835211  	54.400725 
1089.799635  	54.067086 
1090.764060  	53.764842 
1091.728484  	53.552562 
1092.692909  	53.359240 
1093.657333  	53.182388 
1094.621758  	53.080771 
1095.586182  	53.128520 
1096.550606  	53.271577 
1097.515031  	53.460267 
1098.479455  	53.746476 
1099.443880  	54.142271 
1100.408304  	54.584183 
1101.372729  	55.101100 
1102.337153  	55.684153 
1103.301578  	56.339552 
1104.266002  	57.055178 
1105.230427  	57.768929 
1106.194851  	58.546202 
1107.159275  	59.370905 
1108.123700  	60.125123 
1109.088124  	60.770362 
1110.052549  	61.323572 
1111.016973  	61.710914 
1111.981398  	61.980722 
1112.945822  	62.152079 
1113.910247  	62.187879 
1114.874671  	62.126440 
1115.839096  	61.982657 
1116.803520  	61.851574 
1117.767945  	61.765879 
1118.732369  	61.816848 
1119.696793  	62.031902 
1120.661218  	62.315698 
1121.625642  	62.617317 
1122.590067  	63.057164 
1123.554491  	63.625086 
1124.518916  	64.228153 
1125.483340  	64.895167 
1126.447765  	65.674558 
1127.412189  	66.512279 
1128.376614  	67.390052 
1129.341038  	68.356946 
1130.305462  	69.410511 
1131.269887  	70.528201 
1132.234311  	71.624556 
1133.198736  	72.672961 
1134.163160  	73.771606 
1135.127585  	74.877089 
1136.092009  	75.926942 
1137.056434  	76.924308 
1138.020858  	77.914422 
1138.985283  	78.814363 
1139.949707  	79.574177 
1140.914131  	80.295396 
1141.878556  	81.017390 
1142.842980  	81.633034 
1143.807405  	82.214280 
1144.771829  	82.772764 
1145.736254  	83.253329 
1146.700678  	83.686692 
1147.665103  	84.070793 
1148.629527  	84.412996 
1149.593952  	84.736924 
1150.558376  	85.016590 
1151.522800  	85.237353 
1152.487225  	85.447111 
1153.451649  	85.636270 
1154.416074  	85.812082 
1155.380498  	85.897944 
1156.344923  	85.991964 
1157.309347  	86.118876 
1158.273772  	86.155479 
1159.238196  	86.098288 
1160.202621  	86.113944 
1161.167045  	86.141932 
1162.131469  	86.093281 
1163.095894  	86.008002 
1164.060318  	85.936352 
1165.024743  	85.837530 
1165.989167  	85.672096 
1166.953592  	85.457504 
1167.918016  	85.196467 
1168.882441  	84.860611 
1169.846865  	84.465153 
1170.811290  	84.058682 
1171.775714  	83.729178 
1172.740138  	83.532846 
1173.704563  	83.299488 
1174.668987  	83.062093 
1175.633412  	83.040237 
1176.597836  	83.118958 
1177.562261  	83.151777 
1178.526685  	83.182930 
1179.491110  	83.260407 
1180.455534  	83.321868 
1181.419959  	83.386328 
1182.384383  	83.399678 
1183.348808  	83.368899 
1184.313232  	83.327554 
1185.277656  	83.183910 
1186.242081  	82.975525 
1187.206505  	82.780213 
1188.170930  	82.573244 
1189.135354  	82.306376 
1190.099779  	82.034607 
1191.064203  	81.787122 
1192.028628  	81.473268 
1192.993052  	81.055498 
1193.957477  	80.636809 
1194.921901  	80.268727 
1195.886325  	79.874722 
1196.850750  	79.380449 
1197.815174  	78.903430 
1198.779599  	78.505647 
1199.744023  	78.110902 
1200.708448  	77.642606 
1201.672872  	77.146337 
1202.637297  	76.722129 
1203.601721  	76.307032 
1204.566146  	75.839337 
1205.530570  	75.356862 
1206.494994  	74.912220 
1207.459419  	74.465814 
1208.423843  	73.977222 
1209.388268  	73.472775 
1210.352692  	72.986253 
1211.317117  	72.437709 
1212.281541  	71.818562 
1213.245966  	71.252777 
1214.210390  	70.704395 
1215.174815  	70.056479 
1216.139239  	69.344607 
1217.103663  	68.658565 
1218.068088  	67.976604 
1219.032512  	67.241807 
1219.996937  	66.507523 
1220.961361  	65.849097 
1221.925786  	65.221968 
1222.890210  	64.596383 
1223.854635  	63.987563 
1224.819059  	63.373738 
1225.783484  	62.760126 
1226.747908  	62.097675 
1227.712332  	61.346878 
1228.676757  	60.539834 
1229.641181  	59.671543 
1230.605606  	58.737237 
1231.570030  	57.759288 
1232.534455  	56.810329 
1233.498879  	55.878617 
1234.463304  	54.945595 
1235.427728  	54.069202 
1236.392153  	53.300981 
1237.356577  	52.668982 
1238.321002  	52.138790 
1239.285426  	51.723751 
1240.249850  	51.450296 
1241.214275  	51.314562 
1242.178699  	51.296980 
1243.143124  	51.359987 
1244.107548  	51.532375 
1245.071973  	51.863761 
1246.036397  	52.244361 
1247.000822  	52.611070 
1247.965246  	53.032877 
1248.929671  	53.502610 
1249.894095  	53.963971 
1250.858519  	54.426829 
1251.822944  	54.888647 
1252.787368  	55.311529 
1253.751793  	55.698106 
1254.716217  	56.025410 
1255.680642  	56.327581 
1256.645066  	56.620783 
1257.609491  	56.867594 
1258.573915  	57.084704 
1259.538340  	57.321560 
1260.502764  	57.627372 
1261.467188  	58.136866 
1262.431613  	58.653702 
1263.396037  	59.205405 
1264.360462  	59.849399 
1265.324886  	60.526117 
1266.289311  	61.258166 
1267.253735  	62.093959 
1268.218160  	62.929769 
1269.182584  	63.736324 
1270.147009  	64.515496 
1271.111433  	65.356416 
1272.075857  	66.178475 
1273.040282  	67.041483 
1274.004706  	67.765451 
1274.969131  	68.441462 
1275.933555  	69.101196 
1276.897980  	69.714518 
1277.862404  	70.305301 
1278.826829  	70.886093 
1279.791253  	71.411219 
1280.755678  	71.951306 
1281.720102  	72.516136 
1282.684526  	73.097904 
1283.648951  	73.639661 
1284.613375  	74.122765 
1285.577800  	74.633542 
1286.542224  	75.125181 
1287.506649  	75.505824 
1288.471073  	76.030665 
1289.435498  	76.727148 
1290.399922  	77.340158 
1291.364347  	77.930767 
1292.328771  	78.578971 
1293.293195  	79.239590 
1294.257620  	79.915972 
1295.222044  	80.501389 
1296.186469  	81.028974 
1297.150893  	81.633303 
1298.115318  	82.386375 
1299.079742  	83.012431 
1300.044167  	83.605350 
1301.008591  	84.179810 
1301.973016  	84.700745 
1302.937440  	85.117189 
1303.901865  	85.469939 
1304.866289  	85.787110 
1305.830713  	86.071206 
1306.795138  	86.304414 
1307.759562  	86.484385 
1308.723987  	86.756622 
1309.688411  	87.167203 
1310.652836  	87.436141 
1311.617260  	87.522969 
1312.581685  	87.322539 
1313.546109  	87.556074 
1314.510534  	87.895195 
1315.474958  	88.236961 
1316.439382  	88.245495 
1317.403807  	88.202496 
1318.368231  	88.272997 
1319.332656  	88.203483 
1320.297080  	88.610595 
1321.261505  	88.946826 
1322.225929  	89.189563 
1323.190354  	89.230806 
1324.154778  	89.261976 
1325.119203  	89.251021 
1326.083627  	89.171656 
1327.048051  	89.024735 
1328.012476  	88.764835 
1328.976900  	88.308758 
1329.941325  	87.635458 
1330.905749  	86.886546 
1331.870174  	85.958097 
1332.834598  	84.730717 
1333.799023  	83.348235 
1334.763447  	81.955196 
1335.727872  	80.379836 
1336.692296  	78.613869 
1337.656720  	77.500571 
1338.621145  	76.261483 
1339.585569  	75.340492 
1340.549994  	75.906106 
1341.514418  	77.834133 
1342.478843  	79.430327 
1343.443267  	80.773649 
1344.407692  	82.240305 
1345.372116  	83.715081 
1346.336541  	85.071026 
1347.300965  	86.208628 
1348.265389  	87.086314 
1349.229814  	87.677543 
1350.194238  	88.324573 
1351.158663  	88.891759 
1352.123087  	89.254889 
1353.087512  	89.531520 
1354.051936  	89.536580 
1355.016361  	89.368221 
1355.980785  	89.713082 
1356.945210  	89.872439 
1357.909634  	89.714941 
1358.874059  	89.727895 
1359.838483  	89.685879 
1360.802907  	88.894096 
1361.767332  	88.260388 
1362.731756  	87.230377 
1363.696181  	87.177296 
1364.660605  	88.490678 
1365.625030  	88.646915 
1366.589454  	88.447885 
1367.553879  	87.974473 
1368.518303  	87.261469 
1369.482728  	87.240385 
1370.447152  	87.674344 
1371.411576  	87.640561 
1372.376001  	87.420917 
1373.340425  	86.609610 
1374.304850  	86.024882 
1375.269274  	86.567220 
1376.233699  	87.509915 
1377.198123  	87.701317 
1378.162548  	87.439127 
1379.126972  	87.536390 
1380.091397  	87.722547 
1381.055821  	87.943668 
1382.020245  	87.980824 
1382.984670  	87.977910 
1383.949094  	88.008500 
1384.913519  	87.974516 
1385.877943  	87.488492 
1386.842368  	86.324879 
1387.806792  	86.112405 
1388.771217  	87.371279 
1389.735641  	87.836282 
1390.700066  	87.705939 
1391.664490  	87.688286 
1392.628914  	87.651410 
1393.593339  	86.932913 
1394.557763  	85.425234 
1395.522188  	85.089072 
1396.486612  	85.685696 
1397.451037  	85.427761 
1398.415461  	84.420630 
1399.379886  	83.859246 
1400.344310  	84.281640 
1401.308735  	84.249643 
1402.273159  	83.484657 
1403.237583  	82.518480 
1404.202008  	80.982605 
1405.166432  	79.156466 
1406.130857  	78.702495 
1407.095281  	78.451104 
1408.059706  	77.929332 
1409.024130  	77.827544 
1409.988555  	78.084051 
1410.952979  	78.947855 
1411.917404  	80.207188 
1412.881828  	82.180386 
1413.846252  	83.998970 
1414.810677  	85.455557 
1415.775101  	86.242804 
1416.739526  	86.550438 
1417.703950  	86.762890 
1418.668375  	86.681937 
1419.632799  	86.771452 
1420.597224  	89.187335 
1421.561648  	90.093672 
1422.526073  	90.271321 
1423.490497  	89.302763 
1424.454922  	89.012496 
1425.419346  	90.294693 
1426.383770  	90.715626 
1427.348195  	90.599893 
1428.312619  	90.236967 
1429.277044  	89.650121 
1430.241468  	89.190468 
1431.205893  	89.688288 
1432.170317  	89.632637 
1433.134742  	89.236427 
1434.099166  	89.305386 
1435.063591  	88.969823 
1436.028015  	87.397067 
1436.992439  	86.423920 
1437.956864  	88.131086 
1438.921288  	88.821955 
1439.885713  	88.911680 
1440.850137  	88.893506 
1441.814562  	88.840725 
1442.778986  	88.828357 
1443.743411  	88.735329 
1444.707835  	88.597005 
1445.672260  	88.443359 
1446.636684  	88.148130 
1447.601108  	87.174010 
1448.565533  	87.074571 
1449.529957  	87.976811 
1450.494382  	88.150361 
1451.458806  	87.609017 
1452.423231  	87.142520 
1453.387655  	87.552296 
1454.352080  	87.056905 
1455.316504  	85.766090 
1456.280929  	84.750050 
1457.245353  	84.073162 
1458.209777  	84.350466 
1459.174202  	85.459333 
1460.138626  	87.184066 
1461.103051  	88.134269 
1462.067475  	88.353950 
1463.031900  	88.386042 
1463.996324  	87.860895 
1464.960749  	86.887718 
1465.925173  	87.606067 
1466.889598  	88.183326 
1467.854022  	88.136772 
1468.818446  	88.034304 
1469.782871  	87.643788 
1470.747295  	86.780285 
1471.711720  	84.922432 
1472.676144  	83.881595 
1473.640569  	84.796861 
1474.604993  	86.637940 
1475.569418  	86.852171 
1476.533842  	86.465097 
1477.498267  	88.056435 
1478.462691  	88.958494 
1479.427116  	89.194164 
1480.391540  	89.069368 
1481.355964  	88.634710 
1482.320389  	89.337350 
1483.284813  	90.026528 
1484.249238  	90.264095 
1485.213662  	90.141800 
1486.178087  	89.530043 
1487.142511  	88.905956 
1488.106936  	89.111281 
1489.071360  	88.053459 
1490.035785  	86.489017 
1491.000209  	88.061910 
1491.964633  	90.013861 
1492.929058  	90.764179 
1493.893482  	90.806027 
1494.857907  	90.379404 
1495.822331  	89.110202 
1496.786756  	88.487951 
1497.751180  	89.026282 
1498.715605  	88.300242 
1499.680029  	88.296986 
1500.644454  	88.416260 
1501.608878  	87.501332 
1502.573302  	86.892709 
1503.537727  	86.527962 
1504.502151  	85.502648 
1505.466576  	83.582592 
1506.431000  	80.295565 
1507.395425  	80.097403 
1508.359849  	82.959675 
1509.324274  	85.155120 
1510.288698  	86.895110 
1511.253123  	88.459522 
1512.217547  	88.457398 
1513.181971  	89.369394 
1514.146396  	89.838320 
1515.110820  	88.771019 
1516.075245  	87.568062 
1517.039669  	86.100419 
1518.004094  	88.058674 
1518.968518  	89.447072 
1519.932943  	88.301790 
1520.897367  	85.623876 
1521.861792  	86.070023 
1522.826216  	87.583123 
1523.790640  	88.727641 
1524.755065  	88.207632 
1525.719489  	87.701192 
1526.683914  	88.358226 
1527.648338  	87.983928 
1528.612763  	88.521239 
1529.577187  	89.733717 
1530.541612  	90.046738 
1531.506036  	89.142203 
1532.470461  	88.533133 
1533.434885  	87.529607 
1534.399309  	88.074263 
1535.363734  	89.117902 
1536.328158  	89.641822 
1537.292583  	89.744579 
1538.257007  	88.547155 
1539.221432  	85.697854 
1540.185856  	85.601076 
1541.150281  	87.033442 
1542.114705  	86.993637 
1543.079130  	87.067252 
1544.043554  	87.158988 
1545.007979  	86.749011 
1545.972403  	88.133255 
1546.936827  	89.802710 
1547.901252  	90.121448 
1548.865676  	89.468711 
1549.830101  	87.439990 
1550.794525  	88.091042 
1551.758950  	89.709378 
1552.723374  	89.714722 
1553.687799  	88.697750 
1554.652223  	87.644933 
1555.616648  	88.732769 
1556.581072  	88.849175 
1557.545496  	87.403123 
1558.509921  	83.346059 
1559.474345  	82.810732 
1560.438770  	86.034400 
1561.403194  	88.600559 
1562.367619  	89.415589 
1563.332043  	89.620753 
1564.296468  	89.139934 
1565.260892  	88.786147 
1566.225317  	89.408763 
1567.189741  	89.597635 
1568.154165  	89.096878 
1569.118590  	87.534106 
1570.083014  	87.195975 
1571.047439  	88.662658 
1572.011863  	88.991875 
1572.976288  	88.833189 
1573.940712  	88.618085 
1574.905137  	88.057610 
1575.869561  	86.744211 
1576.833986  	86.147617 
1577.798410  	87.123431 
1578.762834  	87.854248 
1579.727259  	88.231013 
1580.691683  	88.539126 
1581.656108  	88.782806 
1582.620532  	88.977469 
1583.584957  	89.172106 
1584.549381  	89.396103 
1585.513806  	89.549543 
1586.478230  	89.656393 
1587.442655  	89.706402 
1588.407079  	89.716250 
1589.371503  	89.567938 
1590.335928  	89.486551 
1591.300352  	89.529747 
1592.264777  	89.549320 
1593.229201  	89.534900 
1594.193626  	89.245368 
1595.158050  	89.158011 
1596.122475  	89.281436 
1597.086899  	89.356165 
1598.051324  	89.470263 
1599.015748  	89.393072 
1599.980173  	89.307262 
1600.944597  	89.060754 
1601.909021  	88.912367 
1602.873446  	88.679583 
1603.837870  	88.670559 
1604.802295  	88.855075 
1605.766719  	88.762340 
1606.731144  	88.325121 
1607.695568  	88.128551 
1608.659993  	88.076667 
1609.624417  	87.678853 
1610.588842  	87.968697 
1611.553266  	88.123285 
1612.517690  	88.013095 
1613.482115  	87.942734 
1614.446539  	87.820240 
1615.410964  	87.363488 
1616.375388  	86.277143 
1617.339813  	86.336622 
1618.304237  	87.425947 
1619.268662  	87.783453 
1620.233086  	87.819821 
1621.197511  	87.779802 
1622.161935  	87.315314 
1623.126359  	86.256467 
1624.090784  	86.519130 
1625.055208  	87.439675 
1626.019633  	87.583074 
1626.984057  	87.210576 
1627.948482  	86.608491 
1628.912906  	87.152389 
1629.877331  	87.517662 
1630.841755  	87.497586 
1631.806180  	87.431711 
1632.770604  	87.347988 
1633.735028  	86.945763 
1634.699453  	85.843572 
1635.663877  	84.058193 
1636.628302  	85.033639 
1637.592726  	85.240179 
1638.557151  	86.095225 
1639.521575  	86.589274 
1640.486000  	86.548419 
1641.450424  	86.531195 
1642.414849  	86.427351 
1643.379273  	86.436739 
1644.343697  	86.302542 
1645.308122  	85.360125 
1646.272546  	83.751832 
1647.236971  	83.095920 
1648.201395  	83.507226 
1649.165820  	85.006401 
1650.130244  	85.528906 
1651.094669  	85.127159 
1652.059093  	83.924262 
1653.023518  	80.662821 
1653.987942  	80.366850 
1654.952366  	82.889442 
1655.916791  	84.358776 
1656.881215  	84.612082 
1657.845640  	84.741708 
1658.810064  	84.820511 
1659.774489  	84.722674 
1660.738913  	84.237258 
1661.703338  	83.502910 
1662.667762  	82.642525 
1663.632187  	82.928680 
1664.596611  	83.288740 
1665.561036  	83.164229 
1666.525460  	82.905916 
1667.489884  	82.201903 
1668.454309  	80.621251 
1669.418733  	79.677545 
1670.383158  	80.483433 
1671.347582  	80.084193 
1672.312007  	80.192763 
1673.276431  	80.557712 
1674.240856  	79.944873 
1675.205280  	78.486784 
1676.169705  	78.695268 
1677.134129  	79.249992 
1678.098553  	79.029257 
1679.062978  	78.248875 
1680.027402  	76.590625 
1680.991827  	76.372867 
1681.956251  	76.748217 
1682.920676  	75.437219 
1683.885100  	71.907018 
1684.849525  	71.956203 
1685.813949  	74.910630 
1686.778374  	75.365604 
1687.742798  	74.558830 
1688.707222  	73.682207 
1689.671647  	73.486124 
1690.636071  	73.171514 
1691.600496  	73.076495 
1692.564920  	72.497177 
1693.529345  	71.572117 
1694.493769  	70.326683 
1695.458194  	68.302167 
1696.422618  	66.252916 
1697.387043  	66.126210 
1698.351467  	65.456909 
1699.315891  	64.031389 
1700.280316  	60.521044 
1701.244740  	60.308316 
1702.209165  	60.541892 
1703.173589  	59.650794 
1704.138014  	57.983877 
1705.102438  	56.471379 
1706.066863  	55.381260 
1707.031287  	54.141700 
1707.995712  	53.749216 
1708.960136  	53.188954 
1709.924560  	52.191058 
1710.888985  	51.662348 
1711.853409  	51.732983 
1712.817834  	51.577720 
1713.782258  	51.246518 
1714.746683  	51.035410 
1715.711107  	52.034790 
1716.675532  	52.834208 
1717.639956  	52.692778 
1718.604381  	54.409228 
1719.568805  	57.225062 
1720.533230  	58.888115 
1721.497654  	60.087523 
1722.462078  	61.186351 
1723.426503  	62.038981 
1724.390927  	63.483020 
1725.355352  	64.939662 
1726.319776  	66.134652 
1727.284201  	67.325834 
1728.248625  	68.516841 
1729.213050  	68.972045 
1730.177474  	69.269781 
1731.141899  	71.366448 
1732.106323  	72.545447 
1733.070747  	72.290599 
1734.035172  	71.614108 
1734.999596  	75.090751 
1735.964021  	77.914140 
1736.928445  	79.231317 
1737.892870  	80.342935 
1738.857294  	81.087528 
1739.821719  	81.611825 
1740.786143  	83.786238 
1741.750568  	85.237375 
1742.714992  	85.307718 
1743.679416  	85.374324 
1744.643841  	87.067455 
1745.608265  	88.318121 
1746.572690  	88.634209 
1747.537114  	88.685733 
1748.501539  	88.726989 
1749.465963  	89.300541 
1750.430388  	89.816199 
1751.394812  	89.248317 
1752.359237  	90.860915 
1753.323661  	92.173274 
1754.288085  	92.734526 
1755.252510  	92.814197 
1756.216934  	92.090347 
1757.181359  	91.478293 
1758.145783  	92.273031 
1759.110208  	92.752553 
1760.074632  	92.990408 
1761.039057  	92.305265 
1762.003481  	91.313521 
1762.967906  	92.482125 
1763.932330  	93.222901 
1764.896754  	93.360617 
1765.861179  	93.380544 
1766.825603  	93.159407 
1767.790028  	92.103974 
1768.754452  	91.931058 
1769.718877  	92.999468 
1770.683301  	92.581387 
1771.647726  	91.359511 
1772.612150  	90.935652 
1773.576575  	92.178228 
1774.540999  	92.838193 
1775.505423  	92.424162 
1776.469848  	92.719688 
1777.434272  	93.374659 
1778.398697  	93.156950 
1779.363121  	92.835102 
1780.327546  	92.321656 
1781.291970  	92.243356 
1782.256395  	93.054435 
1783.220819  	93.350138 
1784.185244  	92.904464 
1785.149668  	92.298792 
1786.114093  	92.953753 
1787.078517  	93.378936 
1788.042941  	93.351808 
1789.007366  	93.265393 
1789.971790  	92.877535 
1790.936215  	91.804542 
1791.900639  	91.318483 
1792.865064  	91.315392 
1793.829488  	92.368787 
1794.793913  	92.758414 
1795.758337  	92.039707 
1796.722762  	92.084561 
1797.687186  	92.883822 
1798.651610  	92.860427 
1799.616035  	92.206269 
1800.580459  	92.217821 
1801.544884  	92.017690 
1802.509308  	91.826008 
1803.473733  	92.682739 
1804.438157  	93.172754 
1805.402582  	93.130410 
1806.367006  	93.098219 
1807.331431  	92.774064 
1808.295855  	92.663690 
1809.260279  	92.980647 
1810.224704  	92.451588 
1811.189128  	92.043298 
1812.153553  	92.358138 
1813.117977  	92.742375 
1814.082402  	93.169651 
1815.046826  	93.184627 
1816.011251  	93.156718 
1816.975675  	92.860730 
1817.940100  	92.731636 
1818.904524  	93.097615 
1819.868948  	93.181594 
1820.833373  	93.039687 
1821.797797  	92.911110 
1822.762222  	92.663086 
1823.726646  	92.660056 
1824.691071  	92.059256 
1825.655495  	91.444083 
1826.619920  	92.578839 
1827.584344  	92.967501 
1828.548769  	92.445938 
1829.513193  	91.192236 
1830.477617  	91.294645 
1831.442042  	92.573152 
1832.406466  	92.943223 
1833.370891  	92.791471 
1834.335315  	93.042207 
1835.299740  	93.244246 
1836.264164  	93.018323 
1837.228589  	92.510592 
1838.193013  	92.768498 
1839.157438  	93.178988 
1840.121862  	93.297070 
1841.086287  	93.219946 
1842.050711  	92.801445 
1843.015135  	92.435827 
1843.979560  	91.656012 
1844.943984  	91.597188 
1845.908409  	92.489092 
1846.872833  	92.693876 
1847.837258  	92.173919 
1848.801682  	92.502243 
1849.766107  	93.186485 
1850.730531  	93.410572 
1851.694956  	93.400555 
1852.659380  	93.365541 
1853.623804  	93.440163 
1854.588229  	93.456454 
1855.552653  	93.416470 
1856.517078  	93.368685 
1857.481502  	93.330536 
1858.445927  	93.151317 
1859.410351  	93.145340 
1860.374776  	93.284543 
1861.339200  	93.183874 
1862.303625  	93.213032 
1863.268049  	93.383400 
1864.232473  	93.361425 
1865.196898  	93.348140 
1866.161322  	92.938090 
1867.125747  	92.456534 
1868.090171  	91.827553 
1869.054596  	91.293761 
1870.019020  	91.910982 
1870.983445  	92.753651 
1871.947869  	93.236238 
1872.912294  	93.465875 
1873.876718  	93.485383 
1874.841142  	93.435645 
1875.805567  	93.415968 
1876.769991  	93.433460 
1877.734416  	93.432333 
1878.698840  	93.313014 
1879.663265  	93.189985 
1880.627689  	93.366187 
1881.592114  	93.421200 
1882.556538  	93.363750 
1883.520963  	93.340037 
1884.485387  	93.279499 
1885.449811  	93.215041 
1886.414236  	93.399867 
1887.378660  	93.387813 
1888.343085  	93.134566 
1889.307509  	92.266985 
1890.271934  	92.238685 
1891.236358  	93.085104 
1892.200783  	93.394526 
1893.165207  	93.390664 
1894.129632  	93.219949 
1895.094056  	92.681151 
1896.058480  	92.853595 
1897.022905  	93.221552 
1897.987329  	93.170957 
1898.951754  	93.214018 
1899.916178  	93.297449 
1900.880603  	93.278446 
1901.845027  	93.142222 
1902.809452  	93.222173 
1903.773876  	93.243820 
1904.738301  	93.189633 
1905.702725  	93.200389 
1906.667150  	93.171699 
1907.631574  	92.921783 
1908.595998  	92.828647 
1909.560423  	92.632648 
1910.524847  	92.598377 
1911.489272  	93.118551 
1912.453696  	93.237372 
1913.418121  	93.145603 
1914.382545  	93.094906 
1915.346970  	93.207858 
1916.311394  	93.123042 
1917.275819  	92.543677 
1918.240243  	91.844066 
1919.204667  	92.662288 
1920.169092  	93.096705 
1921.133516  	92.985759 
1922.097941  	92.324015 
1923.062365  	91.778643 
1924.026790  	92.658504 
1924.991214  	93.223803 
1925.955639  	93.071332 
1926.920063  	93.035135 
1927.884488  	93.070686 
1928.848912  	93.141510 
1929.813336  	93.218395 
1930.777761  	93.187289 
1931.742185  	93.004259 
1932.706610  	93.032899 
1933.671034  	93.185663 
1934.635459  	93.193893 
1935.599883  	93.007317 
1936.564308  	92.981814 
1937.528732  	92.938297 
1938.493157  	93.074181 
1939.457581  	93.185476 
1940.422005  	93.030073 
1941.386430  	92.621010 
1942.350854  	91.644923 
1943.315279  	91.666409 
1944.279703  	92.540547 
1945.244128  	92.595906 
1946.208552  	92.668369 
1947.172977  	92.663270 
1948.137401  	92.780859 
1949.101826  	92.901216 
1950.066250  	93.004783 
1951.030674  	93.065004 
1951.995099  	93.094742 
1952.959523  	93.024577 
1953.923948  	92.839095 
1954.888372  	92.558017 
1955.852797  	92.614755 
1956.817221  	92.892715 
1957.781646  	93.090352 
1958.746070  	93.051142 
1959.710495  	93.019998 
1960.674919  	92.921754 
1961.639344  	92.717478 
1962.603768  	92.451386 
1963.568192  	92.487853 
1964.532617  	92.923553 
1965.497041  	93.231661 
1966.461466  	93.021668 
1967.425890  	92.562115 
1968.390315  	92.909495 
1969.354739  	93.376498 
1970.319164  	93.104721 
1971.283588  	93.309273 
1972.248013  	93.484456 
1973.212437  	93.351117 
1974.176861  	93.012508 
1975.141286  	93.091723 
1976.105710  	93.622218 
1977.070135  	93.837197 
1978.034559  	93.666635 
1978.998984  	92.934738 
1979.963408  	92.630963 
1980.927833  	92.756223 
1981.892257  	92.864197 
1982.856682  	93.119385 
1983.821106  	93.158757 
1984.785530  	93.180682 
1985.749955  	93.163789 
1986.714379  	93.248583 
1987.678804  	93.007802 
1988.643228  	92.862663 
1989.607653  	93.301563 
1990.572077  	93.307964 
1991.536502  	92.690204 
1992.500926  	92.259792 
1993.465351  	92.637089 
1994.429775  	92.964947 
1995.394199  	93.075261 
1996.358624  	93.075183 
1997.323048  	92.998621 
1998.287473  	93.164455 
1999.251897  	93.390776 
2000.216322  	93.602230 
2001.180746  	93.713555 
2002.145171  	93.597083 
2003.109595  	93.526379 
2004.074020  	93.681612 
2005.038444  	93.818256 
2006.002868  	93.723215 
2006.967293  	93.568846 
2007.931717  	93.112792 
2008.896142  	93.107527 
2009.860566  	93.427384 
2010.824991  	93.362946 
2011.789415  	93.222741 
2012.753840  	93.376469 
2013.718264  	93.642947 
2014.682689  	93.651520 
2015.647113  	93.459821 
2016.611537  	93.013235 
2017.575962  	92.896460 
2018.540386  	93.215926 
2019.504811  	93.702655 
2020.469235  	93.862591 
2021.433660  	93.895112 
2022.398084  	93.642791 
2023.362509  	93.430303 
2024.326933  	93.542273 
2025.291358  	93.395803 
2026.255782  	93.423346 
2027.220207  	93.635531 
2028.184631  	93.679657 
2029.149055  	93.800019 
2030.113480  	93.708798 
2031.077904  	93.774840 
2032.042329  	93.542302 
2033.006753  	93.469231 
2033.971178  	93.786126 
2034.935602  	93.962685 
2035.900027  	93.938028 
2036.864451  	93.590706 
2037.828876  	93.300155 
2038.793300  	93.357613 
2039.757724  	93.060710 
2040.722149  	92.872873 
2041.686573  	92.826435 
2042.650998  	92.914200 
2043.615422  	92.745767 
2044.579847  	93.155051 
2045.544271  	93.659499 
2046.508696  	93.673688 
2047.473120  	93.320268 
2048.437545  	93.494226 
2049.401969  	93.540148 
2050.366393  	93.101203 
2051.330818  	92.896269 
2052.295242  	93.236477 
2053.259667  	93.517653 
2054.224091  	93.318455 
2055.188516  	93.030764 
2056.152940  	93.211854 
2057.117365  	93.107765 
2058.081789  	93.092608 
2059.046214  	93.224773 
2060.010638  	93.125775 
2060.975062  	92.926548 
2061.939487  	92.953650 
2062.903911  	92.971939 
2063.868336  	92.788395 
2064.832760  	92.570234 
2065.797185  	92.787000 
2066.761609  	92.985535 
2067.726034  	93.045043 
2068.690458  	93.112521 
2069.654883  	93.076724 
2070.619307  	92.964026 
2071.583731  	92.884489 
2072.548156  	92.868567 
2073.512580  	92.880932 
2074.477005  	92.851959 
2075.441429  	92.929404 
2076.405854  	92.922156 
2077.370278  	92.775489 
2078.334703  	92.638201 
2079.299127  	92.656971 
2080.263552  	92.658972 
2081.227976  	92.724664 
2082.192401  	92.740178 
2083.156825  	92.724632 
2084.121249  	92.737306 
2085.085674  	92.806348 
2086.050098  	92.776698 
2087.014523  	92.787929 
2087.978947  	92.854588 
2088.943372  	92.860957 
2089.907796  	92.675654 
2090.872221  	92.795211 
2091.836645  	93.119081 
2092.801070  	93.018519 
2093.765494  	92.950910 
2094.729918  	92.934497 
2095.694343  	92.778788 
2096.658767  	92.718176 
2097.623192  	92.739809 
2098.587616  	92.744981 
2099.552041  	92.733122 
2100.516465  	92.738694 
2101.480890  	92.846369 
2102.445314  	92.756420 
2103.409739  	92.662124 
2104.374163  	92.785454 
2105.338587  	92.804592 
2106.303012  	92.764782 
2107.267436  	92.684771 
2108.231861  	92.703737 
2109.196285  	92.749892 
2110.160710  	92.848088 
2111.125134  	92.771132 
2112.089559  	92.610169 
2113.053983  	92.637547 
2114.018408  	92.668273 
2114.982832  	92.688551 
2115.947256  	92.662941 
2116.911681  	92.761936 
2117.876105  	92.891084 
2118.840530  	92.897048 
2119.804954  	92.950527 
2120.769379  	92.996302 
2121.733803  	92.998844 
2122.698228  	93.108010 
2123.662652  	93.118529 
2124.627077  	93.059607 
2125.591501  	93.139491 
2126.555925  	93.241861 
2127.520350  	93.158509 
2128.484774  	93.174075 
2129.449199  	93.370186 
2130.413623  	93.327827 
2131.378048  	93.302644 
2132.342472  	93.476557 
2133.306897  	93.591467 
2134.271321  	93.475868 
2135.235746  	93.121413 
2136.200170  	92.889818 
2137.164594  	93.251094 
2138.129019  	93.471757 
2139.093443  	93.571481 
2140.057868  	93.744357 
2141.022292  	93.608437 
2141.986717  	93.218637 
2142.951141  	93.342530 
2143.915566  	93.638387 
2144.879990  	93.514425 
2145.844415  	93.430496 
2146.808839  	93.618161 
2147.773264  	93.691347 
2148.737688  	93.760663 
2149.702112  	93.978609 
2150.666537  	94.081623 
2151.630961  	94.049782 
2152.595386  	94.094474 
2153.559810  	94.103838 
2154.524235  	94.486886 
2155.488659  	94.915249 
2156.453084  	95.088216 
2157.417508  	95.019151 
2158.381933  	94.612733 
2159.346357  	93.753922 
2160.310781  	93.102003 
2161.275206  	92.822380 
2162.239630  	93.184404 
2163.204055  	93.435359 
2164.168479  	93.666826 
2165.132904  	93.676872 
2166.097328  	93.551558 
2167.061753  	93.679443 
2168.026177  	93.647171 
2168.990602  	93.315621 
2169.955026  	93.228580 
2170.919450  	93.646314 
2171.883875  	93.862583 
2172.848299  	93.910807 
2173.812724  	93.634577 
2174.777148  	93.681175 
2175.741573  	93.768895 
2176.705997  	93.194417 
2177.670422  	93.201094 
2178.634846  	93.669591 
2179.599271  	93.729329 
2180.563695  	93.593090 
2181.528119  	93.750165 
2182.492544  	93.781650 
2183.456968  	93.345182 
2184.421393  	93.146158 
2185.385817  	93.599986 
2186.350242  	93.794329 
2187.314666  	93.440588 
2188.279091  	93.318022 
2189.243515  	93.198613 
2190.207940  	93.010453 
2191.172364  	93.285425 
2192.136788  	93.265179 
2193.101213  	93.178174 
2194.065637  	93.042845 
2195.030062  	92.957029 
2195.994486  	92.743760 
2196.958911  	92.806011 
2197.923335  	93.288968 
2198.887760  	93.376813 
2199.852184  	93.396315 
2200.816609  	93.293321 
2201.781033  	93.160763 
2202.745458  	93.176133 
2203.709882  	93.012770 
2204.674306  	93.024378 
2205.638731  	93.083820 
2206.603155  	93.090123 
2207.567580  	93.214034 
2208.532004  	93.255402 
2209.496429  	93.151809 
2210.460853  	93.242529 
2211.425278  	93.416365 
2212.389702  	93.183640 
2213.354127  	92.828470 
2214.318551  	92.754088 
2215.282975  	92.841404 
2216.247400  	92.949731 
2217.211824  	93.067224 
2218.176249  	93.193319 
2219.140673  	93.161284 
2220.105098  	93.083809 
2221.069522  	93.201568 
2222.033947  	93.181835 
2222.998371  	93.044943 
2223.962796  	93.118779 
2224.927220  	93.250707 
2225.891644  	93.163461 
2226.856069  	93.027561 
2227.820493  	92.889021 
2228.784918  	92.893129 
2229.749342  	92.888595 
2230.713767  	92.901460 
2231.678191  	92.983234 
2232.642616  	92.986196 
2233.607040  	93.050892 
2234.571465  	92.963971 
2235.535889  	92.781000 
2236.500313  	92.807753 
2237.464738  	92.831215 
2238.429162  	92.827872 
2239.393587  	92.738004 
2240.358011  	92.762416 
2241.322436  	92.920591 
2242.286860  	92.878525 
2243.251285  	92.854232 
2244.215709  	92.895860 
2245.180134  	92.800447 
2246.144558  	92.743596 
2247.108982  	92.819078 
2248.073407  	92.882136 
2249.037831  	92.862117 
2250.002256  	92.831394 
2250.966680  	92.821591 
2251.931105  	92.780286 
2252.895529  	92.751285 
2253.859954  	92.803284 
2254.824378  	92.805978 
2255.788803  	92.709740 
2256.753227  	92.636338 
2257.717651  	92.661687 
2258.682076  	92.637748 
2259.646500  	92.693782 
2260.610925  	92.663089 
2261.575349  	92.602585 
2262.539774  	92.585614 
2263.504198  	92.742821 
2264.468623  	92.785833 
2265.433047  	92.723918 
2266.397472  	92.712128 
2267.361896  	92.654029 
2268.326321  	92.616819 
2269.290745  	92.568706 
2270.255169  	92.595293 
2271.219594  	92.713494 
2272.184018  	92.676053 
2273.148443  	92.640599 
2274.112867  	92.621722 
2275.077292  	92.560387 
2276.041716  	92.479229 
2277.006141  	92.519455 
2277.970565  	92.528606 
2278.934990  	92.536778 
2279.899414  	92.501920 
2280.863838  	92.502405 
2281.828263  	92.512299 
2282.792687  	92.452451 
2283.757112  	92.388832 
2284.721536  	92.368808 
2285.685961  	92.328823 
2286.650385  	92.367419 
2287.614810  	92.373295 
2288.579234  	92.345303 
2289.543659  	92.247997 
2290.508083  	92.336641 
2291.472507  	92.357435 
2292.436932  	92.388561 
2293.401356  	92.345087 
2294.365781  	92.301809 
2295.330205  	92.335963 
2296.294630  	92.297514 
2297.259054  	92.257392 
2298.223479  	92.200215 
2299.187903  	92.277482 
2300.152328  	92.327193 
2301.116752  	92.271591 
2302.081176  	92.297448 
2303.045601  	92.191267 
2304.010025  	92.260434 
2304.974450  	92.155657 
2305.938874  	92.192769 
2306.903299  	92.123081 
2307.867723  	92.177664 
2308.832148  	92.082455 
2309.796572  	92.197548 
2310.760997  	92.147711 
2311.725421  	92.091167 
2312.689845  	92.148216 
2313.654270  	92.232398 
2314.618694  	92.282441 
2315.583119  	92.434769 
2316.547543  	92.469790 
2317.511968  	92.538234 
2318.476392  	92.533105 
2319.440817  	92.515463 
2320.405241  	92.471439 
2321.369666  	92.566581 
2322.334090  	92.719504 
2323.298515  	92.722705 
2324.262939  	92.713979 
2325.227363  	93.061024 
2326.191788  	93.441488 
2327.156212  	93.670651 
2328.120637  	93.729268 
2329.085061  	93.777533 
2330.049486  	93.891041 
2331.013910  	93.914254 
2331.978335  	94.014646 
2332.942759  	94.227009 
2333.907184  	94.378024 
2334.871608  	94.459043 
2335.836032  	94.632367 
2336.800457  	94.826084 
2337.764881  	94.867751 
2338.729306  	94.809527 
2339.693730  	94.675994 
2340.658155  	94.736549 
2341.622579  	94.823576 
2342.587004  	94.689997 
2343.551428  	94.500154 
2344.515853  	94.244808 
2345.480277  	94.011359 
2346.444701  	93.753803 
2347.409126  	93.545356 
2348.373550  	93.103385 
2349.337975  	92.863526 
2350.302399  	93.168842 
2351.266824  	93.643778 
2352.231248  	94.159154 
2353.195673  	94.503845 
2354.160097  	94.630184 
2355.124522  	94.732748 
2356.088946  	94.971233 
2357.053370  	95.157763 
2358.017795  	95.279145 
2358.982219  	95.398943 
2359.946644  	95.765061 
2360.911068  	95.939036 
2361.875493  	95.708459 
2362.839917  	95.481134 
2363.804342  	95.391321 
2364.768766  	95.249411 
2365.733191  	95.179568 
2366.697615  	95.022969 
2367.662039  	94.713787 
2368.626464  	94.447434 
2369.590888  	94.184252 
2370.555313  	93.964902 
2371.519737  	93.695829 
2372.484162  	93.451578 
2373.448586  	93.311600 
2374.413011  	93.076100 
2375.377435  	92.798863 
2376.341860  	92.628067 
2377.306284  	92.558987 
2378.270708  	92.452367 
2379.235133  	92.302358 
2380.199557  	92.298674 
2381.163982  	92.310588 
2382.128406  	92.302157 
2383.092831  	92.353256 
2384.057255  	92.414307 
2385.021680  	92.458501 
2385.986104  	92.519196 
2386.950529  	92.609173 
2387.914953  	92.650573 
2388.879378  	92.665453 
2389.843802  	92.711451 
2390.808226  	92.700675 
2391.772651  	92.656611 
2392.737075  	92.651535 
2393.701500  	92.696958 
2394.665924  	92.727573 
2395.630349  	92.725787 
2396.594773  	92.683867 
2397.559198  	92.679268 
2398.523622  	92.741425 
2399.488047  	92.843731 
2400.452471  	92.823421 
2401.416895  	92.691661 
2402.381320  	92.665295 
2403.345744  	92.763889 
2404.310169  	92.798521 
2405.274593  	92.736098 
2406.239018  	92.726054 
2407.203442  	92.720041 
2408.167867  	92.709052 
2409.132291  	92.703374 
2410.096716  	92.698199 
2411.061140  	92.674534 
2412.025564  	92.668773 
2412.989989  	92.699457 
2413.954413  	92.728631 
2414.918838  	92.795934 
2415.883262  	92.761161 
2416.847687  	92.680183 
2417.812111  	92.747680 
2418.776536  	92.817481 
2419.740960  	92.802186 
2420.705385  	92.767683 
2421.669809  	92.709919 
2422.634233  	92.747980 
2423.598658  	92.739590 
2424.563082  	92.724361 
2425.527507  	92.804251 
2426.491931  	92.807789 
2427.456356  	92.720246 
2428.420780  	92.762254 
2429.385205  	92.778250 
2430.349629  	92.765729 
2431.314054  	92.739303 
2432.278478  	92.751396 
2433.242902  	92.770048 
2434.207327  	92.765777 
2435.171751  	92.814791 
2436.136176  	92.881784 
2437.100600  	92.879557 
2438.065025  	92.835588 
2439.029449  	92.901172 
2439.993874  	92.886365 
2440.958298  	92.770867 
2441.922723  	92.737126 
2442.887147  	92.774846 
2443.851572  	92.781875 
2444.815996  	92.759264 
2445.780420  	92.740059 
2446.744845  	92.681423 
2447.709269  	92.693897 
2448.673694  	92.736788 
2449.638118  	92.748579 
2450.602543  	92.691835 
2451.566967  	92.663596 
2452.531392  	92.714673 
2453.495816  	92.725829 
2454.460241  	92.704537 
2455.424665  	92.718308 
2456.389089  	92.699651 
2457.353514  	92.696249 
2458.317938  	92.735024 
2459.282363  	92.768876 
2460.246787  	92.802412 
2461.211212  	92.829349 
2462.175636  	92.831025 
2463.140061  	92.798753 
2464.104485  	92.780329 
2465.068910  	92.766657 
2466.033334  	92.722686 
2466.997758  	92.740088 
2467.962183  	92.778169 
2468.926607  	92.766047 
2469.891032  	92.740763 
2470.855456  	92.714467 
2471.819881  	92.724453 
2472.784305  	92.790148 
2473.748730  	92.791033 
2474.713154  	92.789896 
2475.677579  	92.768557 
2476.642003  	92.691886 
2477.606427  	92.667693 
2478.570852  	92.773676 
2479.535276  	92.823735 
2480.499701  	92.784140 
2481.464125  	92.767943 
2482.428550  	92.787957 
2483.392974  	92.819918 
2484.357399  	92.830760 
2485.321823  	92.738472 
2486.286248  	92.690119 
2487.250672  	92.741519 
2488.215096  	92.768405 
2489.179521  	92.715288 
2490.143945  	92.663712 
2491.108370  	92.606817 
2492.072794  	92.584415 
2493.037219  	92.643820 
2494.001643  	92.688421 
2494.966068  	92.719828 
2495.930492  	92.788401 
2496.894917  	92.764510 
2497.859341  	92.732008 
2498.823765  	92.742444 
2499.788190  	92.727472 
2500.752614  	92.687420 
2501.717039  	92.675849 
2502.681463  	92.648345 
2503.645888  	92.661045 
2504.610312  	92.655785 
2505.574737  	92.673953 
2506.539161  	92.686946 
2507.503586  	92.721669 
2508.468010  	92.752169 
2509.432435  	92.723508 
2510.396859  	92.669530 
2511.361283  	92.663376 
2512.325708  	92.653742 
2513.290132  	92.669630 
2514.254557  	92.716704 
2515.218981  	92.660006 
2516.183406  	92.637007 
2517.147830  	92.700769 
2518.112255  	92.659091 
2519.076679  	92.622097 
2520.041104  	92.642116 
2521.005528  	92.630812 
2521.969952  	92.576641 
2522.934377  	92.592760 
2523.898801  	92.619344 
2524.863226  	92.611764 
2525.827650  	92.607941 
2526.792075  	92.616543 
2527.756499  	92.624427 
2528.720924  	92.651893 
2529.685348  	92.626711 
2530.649773  	92.620269 
2531.614197  	92.620428 
2532.578621  	92.635895 
2533.543046  	92.655222 
2534.507470  	92.629315 
2535.471895  	92.590569 
2536.436319  	92.595956 
2537.400744  	92.598790 
2538.365168  	92.558392 
2539.329593  	92.566337 
2540.294017  	92.623699 
2541.258442  	92.655712 
2542.222866  	92.660397 
2543.187290  	92.651523 
2544.151715  	92.649490 
2545.116139  	92.614001 
2546.080564  	92.616756 
2547.044988  	92.558047 
2548.009413  	92.523270 
2548.973837  	92.571820 
2549.938262  	92.557531 
2550.902686  	92.531427 
2551.867111  	92.545827 
2552.831535  	92.563103 
2553.795959  	92.558703 
2554.760384  	92.566448 
2555.724808  	92.557902 
2556.689233  	92.549994 
2557.653657  	92.566108 
2558.618082  	92.502205 
2559.582506  	92.546042 
2560.546931  	92.598394 
2561.511355  	92.552021 
2562.475780  	92.521092 
2563.440204  	92.496941 
2564.404629  	92.538478 
2565.369053  	92.560217 
2566.333477  	92.539845 
2567.297902  	92.567708 
2568.262326  	92.583447 
2569.226751  	92.489837 
2570.191175  	92.452976 
2571.155600  	92.500348 
2572.120024  	92.541113 
2573.084449  	92.607899 
2574.048873  	92.549530 
2575.013298  	92.459604 
2575.977722  	92.510090 
2576.942146  	92.583065 
2577.906571  	92.555963 
2578.870995  	92.516592 
2579.835420  	92.499871 
2580.799844  	92.548534 
2581.764269  	92.543291 
2582.728693  	92.569524 
2583.693118  	92.578431 
2584.657542  	92.531669 
2585.621967  	92.499337 
2586.586391  	92.507229 
2587.550815  	92.533366 
2588.515240  	92.531892 
2589.479664  	92.477036 
2590.444089  	92.504078 
2591.408513  	92.555672 
2592.372938  	92.563514 
2593.337362  	92.548016 
2594.301787  	92.515349 
2595.266211  	92.490537 
2596.230636  	92.548269 
2597.195060  	92.581697 
2598.159484  	92.565035 
2599.123909  	92.560356 
2600.088333  	92.564787 
2601.052758  	92.520430 
2602.017182  	92.505313 
2602.981607  	92.544430 
2603.946031  	92.581197 
2604.910456  	92.575141 
2605.874880  	92.553660 
2606.839305  	92.512593 
2607.803729  	92.512309 
2608.768153  	92.531965 
2609.732578  	92.518402 
2610.697002  	92.500204 
2611.661427  	92.520352 
2612.625851  	92.550606 
2613.590276  	92.558703 
2614.554700  	92.526983 
2615.519125  	92.495378 
2616.483549  	92.511383 
2617.447974  	92.510022 
2618.412398  	92.546254 
2619.376822  	92.557985 
2620.341247  	92.510124 
2621.305671  	92.450986 
2622.270096  	92.426946 
2623.234520  	92.471949 
2624.198945  	92.493953 
2625.163369  	92.505698 
2626.127794  	92.470953 
2627.092218  	92.442511 
2628.056643  	92.462844 
2629.021067  	92.457932 
2629.985492  	92.473869 
2630.949916  	92.522879 
2631.914340  	92.522960 
2632.878765  	92.481708 
2633.843189  	92.457817 
2634.807614  	92.450040 
2635.772038  	92.445587 
2636.736463  	92.439911 
2637.700887  	92.463766 
2638.665312  	92.470287 
2639.629736  	92.471350 
2640.594161  	92.508715 
2641.558585  	92.527590 
2642.523009  	92.481182 
2643.487434  	92.490017 
2644.451858  	92.518700 
2645.416283  	92.494014 
2646.380707  	92.489346 
2647.345132  	92.494195 
2648.309556  	92.537872 
2649.273981  	92.558777 
2650.238405  	92.547462 
2651.202830  	92.537322 
2652.167254  	92.506936 
2653.131678  	92.497603 
2654.096103  	92.498188 
2655.060527  	92.500180 
2656.024952  	92.514139 
2656.989376  	92.491674 
2657.953801  	92.489212 
2658.918225  	92.519297 
2659.882650  	92.521050 
2660.847074  	92.510681 
2661.811499  	92.530639 
2662.775923  	92.536997 
2663.740347  	92.564373 
2664.704772  	92.571538 
2665.669196  	92.606235 
2666.633621  	92.634012 
2667.598045  	92.585399 
2668.562470  	92.557960 
2669.526894  	92.560414 
2670.491319  	92.567371 
2671.455743  	92.619637 
2672.420168  	92.645270 
2673.384592  	92.626455 
2674.349016  	92.609109 
2675.313441  	92.605622 
2676.277865  	92.621686 
2677.242290  	92.617714 
2678.206714  	92.608564 
2679.171139  	92.599675 
2680.135563  	92.597812 
2681.099988  	92.612477 
2682.064412  	92.630250 
2683.028837  	92.638330 
2683.993261  	92.613667 
2684.957686  	92.624832 
2685.922110  	92.626408 
2686.886534  	92.608970 
2687.850959  	92.596734 
2688.815383  	92.605001 
2689.779808  	92.602611 
2690.744232  	92.588068 
2691.708657  	92.594307 
2692.673081  	92.608701 
2693.637506  	92.614875 
2694.601930  	92.652673 
2695.566355  	92.645301 
2696.530779  	92.614189 
2697.495203  	92.604994 
2698.459628  	92.597334 
2699.424052  	92.611307 
2700.388477  	92.612584 
2701.352901  	92.601927 
2702.317326  	92.596810 
2703.281750  	92.623577 
2704.246175  	92.646820 
2705.210599  	92.630367 
2706.175024  	92.627294 
2707.139448  	92.610655 
2708.103872  	92.603496 
2709.068297  	92.615791 
2710.032721  	92.593354 
2710.997146  	92.587513 
2711.961570  	92.599902 
2712.925995  	92.615273 
2713.890419  	92.634168 
2714.854844  	92.612681 
2715.819268  	92.590418 
2716.783693  	92.598153 
2717.748117  	92.604470 
2718.712541  	92.608537 
2719.676966  	92.612374 
2720.641390  	92.588942 
2721.605815  	92.583404 
2722.570239  	92.577887 
2723.534664  	92.596013 
2724.499088  	92.600284 
2725.463513  	92.597280 
2726.427937  	92.579595 
2727.392362  	92.561691 
2728.356786  	92.544264 
2729.321210  	92.529651 
2730.285635  	92.547088 
2731.250059  	92.546719 
2732.214484  	92.562903 
2733.178908  	92.588908 
2734.143333  	92.576339 
2735.107757  	92.546512 
2736.072182  	92.549291 
2737.036606  	92.555315 
2738.001031  	92.520573 
2738.965455  	92.505691 
2739.929879  	92.515230 
2740.894304  	92.537563 
2741.858728  	92.534267 
2742.823153  	92.512573 
2743.787577  	92.526623 
2744.752002  	92.538633 
2745.716426  	92.513751 
2746.680851  	92.485668 
2747.645275  	92.484613 
2748.609700  	92.500865 
2749.574124  	92.511817 
2750.538549  	92.515810 
2751.502973  	92.497312 
2752.467397  	92.510276 
2753.431822  	92.540342 
2754.396246  	92.536524 
2755.360671  	92.501341 
2756.325095  	92.512811 
2757.289520  	92.492555 
2758.253944  	92.498991 
2759.218369  	92.510832 
2760.182793  	92.502495 
2761.147218  	92.484935 
2762.111642  	92.459967 
2763.076066  	92.482673 
2764.040491  	92.524228 
2765.004915  	92.533471 
2765.969340  	92.509439 
2766.933764  	92.498888 
2767.898189  	92.508600 
2768.862613  	92.496504 
2769.827038  	92.480659 
2770.791462  	92.474308 
2771.755887  	92.480608 
2772.720311  	92.456471 
2773.684735  	92.431583 
2774.649160  	92.435879 
2775.613584  	92.460342 
2776.578009  	92.489475 
2777.542433  	92.466143 
2778.506858  	92.435572 
2779.471282  	92.441520 
2780.435707  	92.445277 
2781.400131  	92.432338 
2782.364556  	92.447930 
2783.328980  	92.460955 
2784.293404  	92.440856 
2785.257829  	92.430187 
2786.222253  	92.421064 
2787.186678  	92.434918 
2788.151102  	92.434544 
2789.115527  	92.482845 
2790.079951  	92.471809 
2791.044376  	92.439220 
2792.008800  	92.425970 
2792.973225  	92.390805 
2793.937649  	92.371095 
2794.902073  	92.380395 
2795.866498  	92.392524 
2796.830922  	92.372767 
2797.795347  	92.354383 
2798.759771  	92.340157 
2799.724196  	92.344216 
2800.688620  	92.339699 
2801.653045  	92.325488 
2802.617469  	92.328683 
2803.581894  	92.341025 
2804.546318  	92.361920 
2805.510743  	92.371212 
2806.475167  	92.360147 
2807.439591  	92.338500 
2808.404016  	92.318239 
2809.368440  	92.325738 
2810.332865  	92.358338 
2811.297289  	92.340392 
2812.261714  	92.325758 
2813.226138  	92.337681 
2814.190563  	92.326270 
2815.154987  	92.313166 
2816.119412  	92.312535 
2817.083836  	92.313182 
2818.048260  	92.330705 
2819.012685  	92.351503 
2819.977109  	92.381201 
2820.941534  	92.379305 
2821.905958  	92.342009 
2822.870383  	92.309106 
2823.834807  	92.322319 
2824.799232  	92.298483 
2825.763656  	92.295312 
2826.728081  	92.283376 
2827.692505  	92.276897 
2828.656929  	92.311338 
2829.621354  	92.326593 
2830.585778  	92.299430 
2831.550203  	92.300014 
2832.514627  	92.277909 
2833.479052  	92.242318 
2834.443476  	92.259894 
2835.407901  	92.261585 
2836.372325  	92.235185 
2837.336750  	92.207957 
2838.301174  	92.162414 
2839.265598  	92.120910 
2840.230023  	92.131486 
2841.194447  	92.140091 
2842.158872  	92.085727 
2843.123296  	92.047551 
2844.087721  	92.016818 
2845.052145  	91.964402 
2846.016570  	91.897272 
2846.980994  	91.862290 
2847.945419  	91.818206 
2848.909843  	91.757073 
2849.874267  	91.699852 
2850.838692  	91.685348 
2851.803116  	91.685564 
2852.767541  	91.666410 
2853.731965  	91.684352 
2854.696390  	91.738342 
2855.660814  	91.778593 
2856.625239  	91.809031 
2857.589663  	91.814562 
2858.554088  	91.811586 
2859.518512  	91.802294 
2860.482936  	91.806327 
2861.447361  	91.808571 
2862.411785  	91.840423 
2863.376210  	91.844698 
2864.340634  	91.804619 
2865.305059  	91.818497 
2866.269483  	91.833362 
2867.233908  	91.812058 
2868.198332  	91.794012 
2869.162757  	91.792812 
2870.127181  	91.806487 
2871.091606  	91.761966 
2872.056030  	91.777222 
2873.020454  	91.828785 
2873.984879  	91.819672 
2874.949303  	91.729943 
2875.913728  	91.700271 
2876.878152  	91.749270 
2877.842577  	91.746329 
2878.807001  	91.751302 
2879.771426  	91.759832 
2880.735850  	91.717745 
2881.700275  	91.694820 
2882.664699  	91.662371 
2883.629123  	91.643820 
2884.593548  	91.662759 
2885.557972  	91.655263 
2886.522397  	91.623435 
2887.486821  	91.624182 
2888.451246  	91.606311 
2889.415670  	91.591043 
2890.380095  	91.575665 
2891.344519  	91.552858 
2892.308944  	91.551386 
2893.273368  	91.549272 
2894.237792  	91.542071 
2895.202217  	91.485095 
2896.166641  	91.457996 
2897.131066  	91.463925 
2898.095490  	91.436889 
2899.059915  	91.392879 
2900.024339  	91.337061 
2900.988764  	91.299485 
2901.953188  	91.299793 
2902.917613  	91.260250 
2903.882037  	91.172065 
2904.846461  	91.148141 
2905.810886  	91.107276 
2906.775310  	91.058379 
2907.739735  	91.036720 
2908.704159  	91.003750 
2909.668584  	90.979808 
2910.633008  	91.006625 
2911.597433  	91.046956 
2912.561857  	91.081183 
2913.526282  	91.082034 
2914.490706  	91.068870 
2915.455130  	91.063332 
2916.419555  	91.107364 
2917.383979  	91.131565 
2918.348404  	91.115562 
2919.312828  	91.146498 
2920.277253  	91.147000 
2921.241677  	91.123643 
2922.206102  	91.145782 
2923.170526  	91.165327 
2924.134951  	91.215657 
2925.099375  	91.254544 
2926.063800  	91.260429 
2927.028224  	91.268831 
2927.992648  	91.305439 
2928.957073  	91.344469 
2929.921497  	91.347364 
2930.885922  	91.358132 
2931.850346  	91.393617 
2932.814771  	91.434217 
2933.779195  	91.439964 
2934.743620  	91.435297 
2935.708044  	91.442308 
2936.672469  	91.425991 
2937.636893  	91.438970 
2938.601317  	91.484132 
2939.565742  	91.497354 
2940.530166  	91.496685 
2941.494591  	91.458510 
2942.459015  	91.382686 
2943.423440  	91.326833 
2944.387864  	91.282625 
2945.352289  	91.277721 
2946.316713  	91.267766 
2947.281138  	91.206199 
2948.245562  	91.182423 
2949.209986  	91.129429 
2950.174411  	91.057284 
2951.138835  	91.057564 
2952.103260  	90.990382 
2953.067684  	90.884225 
2954.032109  	90.827971 
2954.996533  	90.803019 
2955.960958  	90.752157 
2956.925382  	90.683739 
2957.889807  	90.666083 
2958.854231  	90.658187 
2959.818655  	90.617310 
2960.783080  	90.562530 
2961.747504  	90.512059 
2962.711929  	90.513558 
2963.676353  	90.489643 
2964.640778  	90.412497 
2965.605202  	90.351382 
2966.569627  	90.339579 
2967.534051  	90.410445 
2968.498476  	90.474388 
2969.462900  	90.448424 
2970.427324  	90.471180 
2971.391749  	90.496929 
2972.356173  	90.573000 
2973.320598  	90.669864 
2974.285022  	90.693456 
2975.249447  	90.656730 
2976.213871  	90.742908 
2977.178296  	90.878555 
2978.142720  	90.920956 
2979.107145  	90.980826 
2980.071569  	91.119750 
2981.035993  	91.166574 
2982.000418  	91.188275 
2982.964842  	91.280368 
2983.929267  	91.348037 
2984.893691  	91.370880 
2985.858116  	91.444032 
2986.822540  	91.532091 
2987.786965  	91.516900 
2988.751389  	91.543554 
2989.715814  	91.605331 
2990.680238  	91.653083 
2991.644663  	91.661975 
2992.609087  	91.664773 
2993.573511  	91.666602 
2994.537936  	91.641932 
2995.502360  	91.679318 
2996.466785  	91.723291 
2997.431209  	91.716628 
2998.395634  	91.706216 
2999.360058  	91.720183 
3000.324483  	91.766265 
3001.288907  	91.796728 
3002.253332  	91.809512 
3003.217756  	91.796599 
3004.182180  	91.743583 
3005.146605  	91.746273 
3006.111029  	91.822273 
3007.075454  	91.889311 
3008.039878  	91.886577 
3009.004303  	91.910235 
3009.968727  	91.915638 
3010.933152  	91.898671 
3011.897576  	91.877591 
3012.862001  	91.823114 
3013.826425  	91.922929 
3014.790849  	92.027825 
3015.755274  	92.013721 
3016.719698  	92.039269 
3017.684123  	92.125996 
3018.648547  	92.167501 
3019.612972  	92.158449 
3020.577396  	92.191174 
3021.541821  	92.229442 
3022.506245  	92.230258 
3023.470670  	92.242573 
3024.435094  	92.301396 
3025.399518  	92.294060 
3026.363943  	92.239431 
3027.328367  	92.294017 
3028.292792  	92.354546 
3029.257216  	92.395385 
3030.221641  	92.346910 
3031.186065  	92.196413 
3032.150490  	92.137434 
3033.114914  	92.266980 
3034.079339  	92.281991 
3035.043763  	92.280722 
3036.008187  	92.335631 
3036.972612  	92.377936 
3037.937036  	92.374143 
3038.901461  	92.337371 
3039.865885  	92.336148 
3040.830310  	92.360564 
3041.794734  	92.352254 
3042.759159  	92.298656 
3043.723583  	92.289495 
3044.688008  	92.265097 
3045.652432  	92.276263 
3046.616857  	92.278995 
3047.581281  	92.219113 
3048.545705  	92.135530 
3049.510130  	92.097628 
3050.474554  	92.080347 
3051.438979  	92.073172 
3052.403403  	92.078758 
3053.367828  	92.064606 
3054.332252  	92.024717 
3055.296677  	92.016931 
3056.261101  	91.931074 
3057.225526  	91.939050 
3058.189950  	92.064431 
3059.154374  	92.134117 
3060.118799  	92.144945 
3061.083223  	92.129861 
3062.047648  	92.137355 
3063.012072  	92.128397 
3063.976497  	92.046049 
3064.940921  	91.985750 
3065.905346  	92.016234 
3066.869770  	91.986458 
3067.834195  	91.986942 
3068.798619  	92.059431 
3069.763043  	92.062029 
3070.727468  	92.086222 
3071.691892  	92.150263 
3072.656317  	92.118373 
3073.620741  	92.068121 
3074.585166  	92.126303 
3075.549590  	92.177567 
3076.514015  	92.164406 
3077.478439  	92.101715 
3078.442864  	92.085659 
3079.407288  	92.055327 
3080.371712  	92.039938 
3081.336137  	92.086973 
3082.300561  	92.085032 
3083.264986  	92.124298 
3084.229410  	92.186481 
3085.193835  	92.192768 
3086.158259  	92.179880 
3087.122684  	92.155140 
3088.087108  	92.159026 
3089.051533  	92.211282 
3090.015957  	92.242481 
3090.980381  	92.287309 
3091.944806  	92.317678 
3092.909230  	92.298451 
3093.873655  	92.253080 
3094.838079  	92.207597 
3095.802504  	92.172956 
3096.766928  	92.210750 
3097.731353  	92.218560 
3098.695777  	92.187782 
3099.660202  	92.177465 
3100.624626  	92.144052 
3101.589050  	92.069947 
3102.553475  	92.100080 
3103.517899  	92.111912 
3104.482324  	92.163169 
3105.446748  	92.201068 
3106.411173  	92.171210 
3107.375597  	92.143057 
3108.340022  	92.180326 
3109.304446  	92.268054 
3110.268871  	92.258646 
3111.233295  	92.250190 
3112.197720  	92.219016 
3113.162144  	92.196580 
3114.126568  	92.212598 
3115.090993  	92.215710 
3116.055417  	92.192296 
3117.019842  	92.237831 
3117.984266  	92.232725 
3118.948691  	92.157597 
3119.913115  	92.243168 
3120.877540  	92.330166 
3121.841964  	92.259153 
3122.806389  	92.164118 
3123.770813  	92.246064 
3124.735237  	92.285818 
3125.699662  	92.265730 
3126.664086  	92.256274 
3127.628511  	92.278184 
3128.592935  	92.320391 
3129.557360  	92.295976 
3130.521784  	92.308426 
3131.486209  	92.386371 
3132.450633  	92.325075 
3133.415058  	92.231247 
3134.379482  	92.334404 
3135.343906  	92.439154 
3136.308331  	92.437489 
3137.272755  	92.380309 
3138.237180  	92.401166 
3139.201604  	92.432632 
3140.166029  	92.398562 
3141.130453  	92.419990 
3142.094878  	92.386073 
3143.059302  	92.306759 
3144.023727  	92.319189 
3144.988151  	92.397415 
3145.952575  	92.377140 
3146.917000  	92.317094 
3147.881424  	92.340555 
3148.845849  	92.401129 
3149.810273  	92.403110 
3150.774698  	92.423685 
3151.739122  	92.407017 
3152.703547  	92.341424 
3153.667971  	92.320682 
3154.632396  	92.381029 
3155.596820  	92.413005 
3156.561244  	92.340653 
3157.525669  	92.327365 
3158.490093  	92.359860 
3159.454518  	92.396194 
3160.418942  	92.426203 
3161.383367  	92.406598 
3162.347791  	92.390876 
3163.312216  	92.337761 
3164.276640  	92.292988 
3165.241065  	92.334358 
3166.205489  	92.346687 
3167.169914  	92.328852 
3168.134338  	92.300897 
3169.098762  	92.301383 
3170.063187  	92.316040 
3171.027611  	92.316225 
3171.992036  	92.320318 
3172.956460  	92.350037 
3173.920885  	92.340819 
3174.885309  	92.336149 
3175.849734  	92.337313 
3176.814158  	92.321921 
3177.778583  	92.240531 
3178.743007  	92.219779 
3179.707431  	92.266841 
3180.671856  	92.316429 
3181.636280  	92.394179 
3182.600705  	92.370995 
3183.565129  	92.273158 
3184.529554  	92.239739 
3185.493978  	92.255322 
3186.458403  	92.279712 
3187.422827  	92.250312 
3188.387252  	92.180437 
3189.351676  	92.233521 
3190.316100  	92.318941 
3191.280525  	92.367168 
3192.244949  	92.361926 
3193.209374  	92.369503 
3194.173798  	92.324468 
3195.138223  	92.281216 
3196.102647  	92.225093 
3197.067072  	92.189420 
3198.031496  	92.189541 
3198.995921  	92.258460 
3199.960345  	92.281499 
3200.924769  	92.293290 
3201.889194  	92.323032 
3202.853618  	92.268279 
3203.818043  	92.233266 
3204.782467  	92.263617 
3205.746892  	92.272202 
3206.711316  	92.202397 
3207.675741  	92.216013 
3208.640165  	92.222891 
3209.604590  	92.204647 
3210.569014  	92.213266 
3211.533438  	92.269046 
3212.497863  	92.265627 
3213.462287  	92.202851 
3214.426712  	92.134308 
3215.391136  	92.153673 
3216.355561  	92.184431 
3217.319985  	92.213816 
3218.284410  	92.256992 
3219.248834  	92.205126 
3220.213259  	92.181958 
3221.177683  	92.257086 
3222.142107  	92.253240 
3223.106532  	92.242697 
3224.070956  	92.212837 
3225.035381  	92.162300 
3225.999805  	92.157341 
3226.964230  	92.227846 
3227.928654  	92.159723 
3228.893079  	92.132348 
3229.857503  	92.166021 
3230.821928  	92.188578 
3231.786352  	92.191110 
3232.750777  	92.161623 
3233.715201  	92.178131 
3234.679625  	92.224746 
3235.644050  	92.205512 
3236.608474  	92.207316 
3237.572899  	92.272071 
3238.537323  	92.275430 
3239.501748  	92.165577 
3240.466172  	92.111144 
3241.430597  	92.186154 
3242.395021  	92.234672 
3243.359446  	92.206092 
3244.323870  	92.116193 
3245.288294  	91.996688 
3246.252719  	92.080618 
3247.217143  	92.215738 
3248.181568  	92.211744 
3249.145992  	92.096307 
3250.110417  	92.103694 
3251.074841  	92.176776 
3252.039266  	92.189076 
3253.003690  	92.209198 
3253.968115  	92.132979 
3254.932539  	92.081348 
3255.896963  	92.095396 
3256.861388  	92.019174 
3257.825812  	92.030791 
3258.790237  	92.064773 
3259.754661  	92.092742 
3260.719086  	92.107237 
3261.683510  	92.166911 
3262.647935  	92.197546 
3263.612359  	92.210031 
3264.576784  	92.162854 
3265.541208  	92.090366 
3266.505632  	92.111791 
3267.470057  	92.175381 
3268.434481  	92.175060 
3269.398906  	92.130189 
3270.363330  	92.100943 
3271.327755  	92.115472 
3272.292179  	92.072635 
3273.256604  	92.037947 
3274.221028  	92.016107 
3275.185453  	92.089427 
3276.149877  	92.091467 
3277.114301  	92.062931 
3278.078726  	92.080814 
3279.043150  	92.006536 
3280.007575  	91.978894 
3280.971999  	92.023977 
3281.936424  	92.057774 
3282.900848  	92.051767 
3283.865273  	92.018853 
3284.829697  	92.043906 
3285.794122  	92.114242 
3286.758546  	92.087958 
3287.722971  	92.010103 
3288.687395  	91.985742 
3289.651819  	92.074954 
3290.616244  	92.081535 
3291.580668  	92.016046 
3292.545093  	91.984907 
3293.509517  	92.017298 
3294.473942  	92.053286 
3295.438366  	92.041439 
3296.402791  	92.038586 
3297.367215  	92.001621 
3298.331640  	91.996778 
3299.296064  	92.098113 
3300.260488  	92.153622 
3301.224913  	92.160784 
3302.189337  	92.191464 
3303.153762  	92.114241 
3304.118186  	92.026914 
3305.082611  	92.067025 
3306.047035  	92.108792 
3307.011460  	92.179802 
3307.975884  	92.099015 
3308.940309  	91.979312 
3309.904733  	92.039125 
3310.869157  	92.085167 
3311.833582  	92.078797 
3312.798006  	92.106389 
3313.762431  	92.084520 
3314.726855  	92.092189 
3315.691280  	92.093490 
3316.655704  	92.073098 
3317.620129  	92.017651 
3318.584553  	92.053405 
3319.548978  	92.110903 
3320.513402  	92.114581 
3321.477826  	92.128626 
3322.442251  	92.139344 
3323.406675  	92.158152 
3324.371100  	92.139747 
3325.335524  	92.119402 
3326.299949  	92.123591 
3327.264373  	92.065462 
3328.228798  	92.046660 
3329.193222  	92.066502 
3330.157647  	92.018480 
3331.122071  	92.008583 
3332.086495  	92.150965 
3333.050920  	92.184117 
3334.015344  	92.116686 
3334.979769  	92.069055 
3335.944193  	92.062993 
3336.908618  	91.953406 
3337.873042  	91.956702 
3338.837467  	92.088204 
3339.801891  	92.108390 
3340.766316  	92.108661 
3341.730740  	92.065324 
3342.695164  	92.063558 
3343.659589  	92.130867 
3344.624013  	92.190604 
3345.588438  	92.176234 
3346.552862  	92.186161 
3347.517287  	92.149275 
3348.481711  	92.086494 
3349.446136  	92.085965 
3350.410560  	92.155532 
3351.374985  	92.242986 
3352.339409  	92.250780 
3353.303834  	92.126797 
3354.268258  	92.110648 
3355.232682  	92.102890 
3356.197107  	91.943499 
3357.161531  	92.028671 
3358.125956  	92.194126 
3359.090380  	92.209834 
3360.054805  	92.107463 
3361.019229  	92.010080 
3361.983654  	91.980640 
3362.948078  	92.110567 
3363.912503  	92.195139 
3364.876927  	92.105560 
3365.841351  	92.058482 
3366.805776  	92.060418 
3367.770200  	91.996190 
3368.734625  	91.981026 
3369.699049  	92.073406 
3370.663474  	92.163454 
3371.627898  	92.134969 
3372.592323  	92.054959 
3373.556747  	92.086819 
3374.521172  	92.153551 
3375.485596  	92.130211 
3376.450020  	92.135179 
3377.414445  	92.172475 
3378.378869  	92.142856 
3379.343294  	92.151417 
3380.307718  	92.202937 
3381.272143  	92.304702 
3382.236567  	92.267358 
3383.200992  	92.160041 
3384.165416  	92.084194 
3385.129841  	92.026089 
3386.094265  	92.070058 
3387.058689  	92.165075 
3388.023114  	92.231534 
3388.987538  	92.216965 
3389.951963  	92.195591 
3390.916387  	92.156563 
3391.880812  	92.025379 
3392.845236  	91.790753 
3393.809661  	91.869952 
3394.774085  	92.150828 
3395.738510  	92.158988 
3396.702934  	92.018366 
3397.667358  	91.845946 
3398.631783  	92.028514 
3399.596207  	92.238828 
3400.560632  	92.191022 
3401.525056  	92.144423 
3402.489481  	92.144093 
3403.453905  	92.088463 
3404.418330  	92.101786 
3405.382754  	92.134950 
3406.347179  	92.116209 
3407.311603  	92.055477 
3408.276028  	92.028575 
3409.240452  	91.999438 
3410.204876  	91.965688 
3411.169301  	91.990439 
3412.133725  	92.068910 
3413.098150  	92.082727 
3414.062574  	92.017668 
3415.026999  	92.012304 
3415.991423  	91.903486 
3416.955848  	91.881949 
3417.920272  	91.876495 
3418.884697  	91.848000 
3419.849121  	91.645766 
3420.813545  	91.354738 
3421.777970  	91.422703 
3422.742394  	91.529752 
3423.706819  	91.686447 
3424.671243  	91.755044 
3425.635668  	91.745558 
3426.600092  	91.755827 
3427.564517  	91.808875 
3428.528941  	91.839424 
3429.493366  	91.830963 
3430.457790  	91.749861 
3431.422214  	91.689800 
3432.386639  	91.745259 
3433.351063  	91.826953 
3434.315488  	91.912563 
3435.279912  	91.922328 
3436.244337  	91.846648 
3437.208761  	91.853824 
3438.173186  	91.885976 
3439.137610  	91.912874 
3440.102035  	91.951183 
3441.066459  	91.919180 
3442.030883  	91.800299 
3442.995308  	91.590981 
3443.959732  	91.787677 
3444.924157  	91.871848 
3445.888581  	91.819112 
3446.853006  	91.367016 
3447.817430  	91.053398 
3448.781855  	91.676652 
3449.746279  	91.988996 
3450.710704  	92.052038 
3451.675128  	92.133355 
3452.639552  	92.157196 
3453.603977  	92.131444 
3454.568401  	92.157435 
3455.532826  	92.162430 
3456.497250  	92.176169 
3457.461675  	92.155496 
3458.426099  	92.095922 
3459.390524  	92.040166 
3460.354948  	92.084135 
3461.319373  	91.980882 
3462.283797  	91.913083 
3463.248221  	91.883624 
3464.212646  	92.072894 
3465.177070  	92.202190 
3466.141495  	92.156429 
3467.105919  	91.903369 
3468.070344  	91.990874 
3469.034768  	92.215289 
3469.999193  	92.250629 
3470.963617  	92.187275 
3471.928042  	92.189700 
3472.892466  	92.192831 
3473.856891  	92.162925 
3474.821315  	92.037242 
3475.785739  	92.099911 
3476.750164  	92.234669 
3477.714588  	92.238412 
3478.679013  	92.239262 
3479.643437  	92.173154 
3480.607862  	91.859195 
3481.572286  	91.732594 
3482.536711  	91.660555 
3483.501135  	91.897867 
3484.465560  	92.106450 
3485.429984  	92.064794 
3486.394408  	92.097491 
3487.358833  	92.066342 
3488.323257  	91.784156 
3489.287682  	91.867217 
3490.252106  	92.125689 
3491.216531  	92.143819 
3492.180955  	92.181306 
3493.145380  	92.266014 
3494.109804  	92.316568 
3495.074229  	92.160916 
3496.038653  	91.889231 
3497.003077  	91.767499 
3497.967502  	91.932378 
3498.931926  	92.102241 
3499.896351  	92.012546 
3500.860775  	91.856048 
3501.825200  	91.505440 
3502.789624  	91.048849 
3503.754049  	91.052804 
3504.718473  	91.465352 
3505.682898  	91.759748 
3506.647322  	92.041290 
3507.611746  	92.200938 
3508.576171  	91.917032 
3509.540595  	91.208172 
3510.505020  	91.420565 
3511.469444  	91.898501 
3512.433869  	91.982305 
3513.398293  	92.006814 
3514.362718  	92.127645 
3515.327142  	92.278074 
3516.291567  	92.268916 
3517.255991  	92.106300 
3518.220415  	91.991647 
3519.184840  	91.993282 
3520.149264  	92.071796 
3521.113689  	92.135080 
3522.078113  	91.881688 
3523.042538  	91.079354 
3524.006962  	90.675667 
3524.971387  	91.045005 
3525.935811  	91.251747 
3526.900236  	91.194433 
3527.864660  	91.026341 
3528.829085  	91.137294 
3529.793509  	91.370680 
3530.757933  	91.642597 
3531.722358  	91.699533 
3532.686782  	92.044553 
3533.651207  	92.226505 
3534.615631  	92.180683 
3535.580056  	91.831728 
3536.544480  	91.173800 
3537.508905  	91.414541 
3538.473329  	92.032272 
3539.437754  	92.075355 
3540.402178  	92.087534 
3541.366602  	92.084630 
3542.331027  	92.090595 
3543.295451  	91.739644 
3544.259876  	91.248038 
3545.224300  	90.329953 
3546.188725  	90.127896 
3547.153149  	90.267561 
3548.117574  	90.791912 
3549.081998  	91.677048 
3550.046423  	91.972759 
3551.010847  	91.870812 
3551.975271  	91.227766 
3552.939696  	90.896610 
3553.904120  	91.260641 
3554.868545  	91.704613 
3555.832969  	92.076804 
3556.797394  	91.984286 
3557.761818  	91.982999 
3558.726243  	92.070270 
3559.690667  	91.612955 
3560.655092  	91.094416 
3561.619516  	91.583313 
3562.583940  	91.628779 
3563.548365  	91.500355 
3564.512789  	91.425137 
3565.477214  	90.550755 
3566.441638  	88.205886 
3567.406063  	88.153397 
3568.370487  	88.668378 
3569.334912  	90.253337 
3570.299336  	91.402410 
3571.263761  	91.543279 
3572.228185  	91.974822 
3573.192609  	92.026939 
3574.157034  	91.890160 
3575.121458  	91.904647 
3576.085883  	92.072453 
3577.050307  	91.929630 
3578.014732  	91.922360 
3578.979156  	91.996224 
3579.943581  	91.602023 
3580.908005  	91.586013 
3581.872430  	91.971410 
3582.836854  	91.956324 
3583.801278  	91.810933 
3584.765703  	91.853356 
3585.730127  	91.441675 
3586.694552  	89.670858 
3587.658976  	88.626217 
3588.623401  	89.027576 
3589.587825  	90.301550 
3590.552250  	91.759513 
3591.516674  	92.084759 
3592.481099  	91.909744 
3593.445523  	91.095991 
3594.409948  	91.154188 
3595.374372  	90.772268 
3596.338796  	90.663245 
3597.303221  	91.576276 
3598.267645  	91.582691 
3599.232070  	91.224290 
3600.196494  	91.280041 
3601.160919  	91.025839 
3602.125343  	91.382090 
3603.089768  	91.650136 
3604.054192  	91.992916 
3605.018617  	92.190532 
3605.983041  	92.040923 
3606.947465  	90.878894 
3607.911890  	90.316294 
3608.876314  	90.580890 
3609.840739  	90.222134 
3610.805163  	91.290153 
3611.769588  	91.244898 
3612.734012  	89.895525 
3613.698437  	90.027666 
3614.662861  	90.277290 
3615.627286  	90.425455 
3616.591710  	91.477496 
3617.556134  	90.800608 
3618.520559  	89.898315 
3619.484983  	89.886851 
3620.449408  	89.908095 
3621.413832  	90.686916 
3622.378257  	91.471033 
3623.342681  	91.953727 
3624.307106  	92.116500 
3625.271530  	92.061469 
3626.235955  	91.452258 
3627.200379  	91.188596 
3628.164803  	90.257152 
3629.129228  	87.353869 
3630.093652  	88.139885 
3631.058077  	90.626062 
3632.022501  	91.606199 
3632.986926  	91.667789 
3633.951350  	90.934870 
3634.915775  	91.366599 
3635.880199  	92.108148 
3636.844624  	92.212669 
3637.809048  	92.033045 
3638.773472  	91.945268 
3639.737897  	92.159649 
3640.702321  	92.172828 
3641.666746  	91.901282 
3642.631170  	91.478312 
3643.595595  	91.710715 
3644.560019  	92.098183 
3645.524444  	91.834694 
3646.488868  	90.646166 
3647.453293  	88.680080 
3648.417717  	88.864386 
3649.382142  	88.642210 
3650.346566  	87.677070 
3651.310990  	87.940725 
3652.275415  	90.342357 
3653.239839  	91.773633 
3654.204264  	92.142615 
3655.168688  	91.981911 
3656.133113  	90.903406 
3657.097537  	90.664259 
3658.061962  	91.967928 
3659.026386  	92.267368 
3659.990811  	92.152266 
3660.955235  	92.321179 
3661.919659  	92.576582 
3662.884084  	92.566017 
3663.848508  	92.562024 
3664.812933  	92.526103 
3665.777357  	92.521324 
3666.741782  	92.500785 
3667.706206  	92.396632 
3668.670631  	91.377373 
3669.635055  	90.135231 
3670.599480  	89.437058 
3671.563904  	90.068860 
3672.528328  	91.739601 
3673.492753  	91.990820 
3674.457177  	90.660550 
3675.421602  	87.559674 
3676.386026  	88.351372 
3677.350451  	90.453762 
3678.314875  	91.248020 
3679.279300  	91.202920 
3680.243724  	91.271143 
3681.208149  	92.157485 
3682.172573  	92.546128 
3683.136997  	92.593229 
3684.101422  	92.444818 
3685.065846  	92.328255 
3686.030271  	92.500994 
3686.994695  	92.304522 
3687.959120  	91.378897 
3688.923544  	90.327198 
3689.887969  	91.006211 
3690.852393  	90.385365 
3691.816818  	90.220993 
3692.781242  	91.866280 
3693.745666  	92.269596 
3694.710091  	92.383776 
3695.674515  	92.510926 
3696.638940  	92.404171 
3697.603364  	92.527933 
3698.567789  	92.773329 
3699.532213  	92.663967 
3700.496638  	92.561091 
3701.461062  	91.718413 
3702.425487  	91.133000 
3703.389911  	92.293282 
3704.354335  	92.733327 
3705.318760  	92.534758 
3706.283184  	92.491896 
3707.247609  	92.650327 
3708.212033  	92.624486 
3709.176458  	91.876078 
3710.140882  	91.141082 
3711.105307  	90.854703 
3712.069731  	89.641664 
3713.034156  	89.993698 
3713.998580  	91.544004 
3714.963005  	91.563348 
3715.927429  	91.904140 
3716.891853  	92.567630 
3717.856278  	92.639204 
3718.820702  	91.902936 
3719.785127  	91.643468 
3720.749551  	92.388461 
3721.713976  	91.897589 
3722.678400  	90.473212 
3723.642825  	91.193245 
3724.607249  	91.536113 
3725.571674  	90.701452 
3726.536098  	90.437141 
3727.500522  	90.831480 
3728.464947  	91.935466 
3729.429371  	92.544974 
3730.393796  	92.443480 
3731.358220  	91.958199 
3732.322645  	91.047208 
3733.287069  	91.280219 
3734.251494  	90.555673 
3735.215918  	87.094486 
3736.180343  	87.550915 
3737.144767  	89.336160 
3738.109191  	90.423632 
3739.073616  	90.939488 
3740.038040  	91.604936 
3741.002465  	91.135098 
3741.966889  	91.199832 
3742.931314  	91.813059 
3743.895738  	90.792935 
3744.860163  	87.447443 
3745.824587  	90.008181 
3746.789012  	90.993942 
3747.753436  	90.904208 
3748.717860  	90.647626 
3749.682285  	90.005639 
3750.646709  	90.067160 
3751.611134  	89.693338 
3752.575558  	88.522995 
3753.539983  	90.373660 
3754.504407  	91.416119 
3755.468832  	91.968209 
3756.433256  	91.672738 
3757.397681  	91.653378 
3758.362105  	91.862143 
3759.326529  	90.867284 
3760.290954  	90.448178 
3761.255378  	92.040758 
3762.219803  	92.436635 
3763.184227  	92.463089 
3764.148652  	92.521169 
3765.113076  	92.055115 
3766.077501  	91.179461 
3767.041925  	91.965700 
3768.006350  	92.516959 
3768.970774  	92.180239 
3769.935199  	91.076827 
3770.899623  	91.300089 
3771.864047  	92.198302 
3772.828472  	92.569319 
3773.792896  	92.716627 
3774.757321  	92.790477 
3775.721745  	92.873846 
3776.686170  	92.960763 
3777.650594  	92.814865 
3778.615019  	92.326221 
3779.579443  	91.434399 
3780.543868  	91.704622 
3781.508292  	92.539887 
3782.472716  	92.594263 
3783.437141  	92.638572 
3784.401565  	92.248639 
3785.365990  	91.757916 
3786.330414  	92.169811 
3787.294839  	92.558843 
3788.259263  	92.783784 
3789.223688  	92.807727 
3790.188112  	92.748733 
3791.152537  	92.851594 
3792.116961  	92.900775 
3793.081385  	92.937685 
3794.045810  	92.924633 
3795.010234  	92.753331 
3795.974659  	92.177894 
3796.939083  	91.318868 
3797.903508  	91.665941 
3798.867932  	92.171626 
3799.832357  	92.207141 
3800.796781  	91.152723 
3801.761206  	89.646346 
3802.725630  	90.279351 
3803.690054  	91.383874 
3804.654479  	92.302876 
3805.618903  	92.394954 
3806.583328  	91.562024 
3807.547752  	90.840325 
3808.512177  	92.102566 
3809.476601  	92.597915 
3810.441026  	92.667530 
3811.405450  	92.754683 
3812.369875  	92.783341 
3813.334299  	92.788024 
3814.298723  	92.659586 
3815.263148  	92.042828 
3816.227572  	90.572108 
3817.191997  	91.161596 
3818.156421  	92.048432 
3819.120846  	91.903994 
3820.085270  	91.111574 
3821.049695  	89.422096 
3822.014119  	89.370703 
3822.978544  	91.274957 
3823.942968  	91.918784 
3824.907392  	92.113709 
3825.871817  	92.034857 
3826.836241  	91.424665 
3827.800666  	91.570976 
3828.765090  	92.301295 
3829.729515  	92.650040 
3830.693939  	92.504438 
3831.658364  	91.657326 
3832.622788  	91.804585 
3833.587213  	92.448070 
3834.551637  	91.946934 
3835.516062  	91.329138 
3836.480486  	91.931727 
3837.444910  	91.350358 
3838.409335  	90.131507 
3839.373759  	90.763080 
3840.338184  	90.177691 
3841.302608  	90.217264 
3842.267033  	91.691030 
3843.231457  	91.766747 
3844.195882  	90.915075 
3845.160306  	91.862209 
3846.124731  	92.522430 
3847.089155  	92.649469 
3848.053579  	92.686392 
3849.018004  	92.476135 
3849.982428  	91.924215 
3850.946853  	91.855008 
3851.911277  	90.893101 
3852.875702  	89.223444 
3853.840126  	88.528718 
3854.804551  	88.902017 
3855.768975  	91.132362 
3856.733400  	91.214638 
3857.697824  	90.771345 
3858.662248  	91.941273 
3859.626673  	92.650867 
3860.591097  	92.572246 
3861.555522  	91.865606 
3862.519946  	91.325081 
3863.484371  	91.727911 
3864.448795  	90.825860 
3865.413220  	89.696248 
3866.377644  	91.291541 
3867.342069  	92.336654 
3868.306493  	92.223497 
3869.270917  	90.831382 
3870.235342  	88.725536 
3871.199766  	90.266433 
3872.164191  	91.598067 
3873.128615  	91.891955 
3874.093040  	90.469005 
3875.057464  	90.509217 
3876.021889  	92.317304 
3876.986313  	92.688914 
3877.950738  	92.710586 
3878.915162  	92.616870 
3879.879586  	91.513899 
3880.844011  	89.625974 
3881.808435  	91.032170 
3882.772860  	92.063096 
3883.737284  	91.723743 
3884.701709  	91.636731 
3885.666133  	90.682990 
3886.630558  	90.404002 
3887.594982  	92.143420 
3888.559407  	92.648023 
3889.523831  	92.642405 
3890.488256  	92.136183 
3891.452680  	90.746511 
3892.417104  	90.791961 
3893.381529  	91.888385 
3894.345953  	91.802632 
3895.310378  	92.116771 
3896.274802  	92.660535 
3897.239227  	92.679547 
3898.203651  	91.972092 
3899.168076  	90.789577 
3900.132500  	90.690356 
3901.096925  	91.501884 
3902.061349  	90.113615 
3903.025773  	90.179530 
3903.990198  	90.553897 
3904.954622  	90.062564 
3905.919047  	90.560734 
3906.883471  	91.465625 
3907.847896  	92.503385 
3908.812320  	92.795071 
3909.776745  	92.845273 
3910.741169  	92.867701 
3911.705594  	92.873077 
3912.670018  	92.845180 
3913.634442  	92.835309 
3914.598867  	92.845881 
3915.563291  	92.659474 
3916.527716  	91.668943 
3917.492140  	90.843950 
3918.456565  	91.882142 
3919.420989  	92.192269 
3920.385414  	91.418259 
3921.349838  	91.988156 
3922.314263  	92.706020 
3923.278687  	92.357531 
3924.243111  	91.429348 
3925.207536  	90.899766 
3926.171960  	91.788841 
3927.136385  	92.717325 
3928.100809  	92.724115 
3929.065234  	92.471973 
3930.029658  	92.118304 
3930.994083  	91.918118 
3931.958507  	91.449680 
3932.922932  	91.008816 
3933.887356  	91.898065 
3934.851780  	92.362409 
3935.816205  	92.697919 
3936.780629  	92.868795 
3937.745054  	92.799679 
3938.709478  	92.577061 
3939.673903  	92.736290 
3940.638327  	92.810601 
3941.602752  	92.625610 
3942.567176  	91.616154 
3943.531601  	91.154973 
3944.496025  	92.109477 
3945.460449  	92.579530 
3946.424874  	92.662193 
3947.389298  	92.001984 
3948.353723  	91.597507 
3949.318147  	91.953927 
3950.282572  	91.702252 
3951.246996  	92.114359 
3952.211421  	92.684754 
3953.175845  	92.588591 
3954.140270  	92.709869 
3955.104694  	92.797838 
3956.069119  	92.671923 
3957.033543  	92.506563 
3957.997967  	92.563192 
3958.962392  	92.708323 
3959.926816  	92.733881 
3960.891241  	92.659640 
3961.855665  	92.196065 
3962.820090  	92.171645 
3963.784514  	92.710943 
3964.748939  	92.745346 
3965.713363  	92.795071 
3966.677788  	92.914409 
3967.642212  	92.893417 
3968.606636  	92.701754 
3969.571061  	92.538417 
3970.535485  	92.703577 
3971.499910  	92.759582 
3972.464334  	92.529550 
3973.428759  	92.653054 
3974.393183  	92.732779 
3975.357608  	92.532652 
3976.322032  	92.409059 
3977.286457  	92.646397 
3978.250881  	92.899648 
3979.215305  	92.903035 
3980.179730  	92.817326 
3981.144154  	92.779364 
3982.108579  	92.753740 
3983.073003  	92.787089 
3984.037428  	92.926766 
3985.001852  	92.920802 
3985.966277  	92.867771 
3986.930701  	92.899268 
3987.895126  	92.905609 
3988.859550  	92.900984 
3989.823974  	92.774211 
3990.788399  	92.568316 
3991.752823  	92.684995 
3992.717248  	92.830131 
3993.681672  	92.824704 
3994.646097  	92.747100 
3995.610521  	92.621396 
3996.574946  	92.771982 
3997.539370  	92.890350 
3998.503795  	92.964868 
3999.468219  	92.949013 
4000.432643  	92.965262 
4001.397068  	92.963486 
4002.361492  	92.928663 
4003.325917  	92.886409 
4004.290341  	92.880849 
4005.254766  	92.885107 
4006.219190  	92.870938 
4007.183615  	92.865552 
4008.148039  	92.752468 
4009.112464  	92.641775 
4010.076888  	92.796017 
4011.041313  	92.859941 
4012.005737  	92.888790 
4012.970161  	92.850273 
4013.934586  	92.860530 
4014.899010  	92.871939 
4015.863435  	92.854038 
4016.827859  	92.846764 
4017.792284  	92.893445 
4018.756708  	92.915747 
4019.721133  	92.836764 
4020.685557  	92.843626 
4021.649982  	92.918062 
4022.614406  	92.943726 
4023.578830  	92.962844 
4024.543255  	92.876843 
4025.507679  	92.738767 
4026.472104  	92.776810 
4027.436528  	92.906181 
4028.400953  	92.872150 
4029.365377  	92.836059 
4030.329802  	92.863971 
4031.294226  	92.904993 
4032.258651  	92.902969 
4033.223075  	92.939167 
4034.187499  	92.960747 
4035.151924  	92.942529 
4036.116348  	92.905746 
4037.080773  	92.899516 
4038.045197  	92.937161 
4039.009622  	92.950546 
4039.974046  	92.922498 
4040.938471  	92.926634 
4041.902895  	92.933031 
4042.867320  	92.926954 
4043.831744  	92.840708 
4044.796168  	92.759425 
4045.760593  	92.746686 
4046.725017  	92.823582 
4047.689442  	92.883096 
4048.653866  	92.882737 
4049.618291  	92.927577 
4050.582715  	92.939298 
4051.547140  	92.897457 
4052.511564  	92.900486 
4053.475989  	92.916233 
4054.440413  	92.915506 
4055.404837  	92.903235 
4056.369262  	92.933772 
4057.333686  	92.964886 
4058.298111  	92.935118 
4059.262535  	92.921727 
4060.226960  	92.895429 
4061.191384  	92.836703 
4062.155809  	92.894389 
4063.120233  	92.942043 
4064.084658  	92.954992 
4065.049082  	92.933450 
4066.013506  	92.917905 
4066.977931  	92.886259 
4067.942355  	92.873153 
4068.906780  	92.856908 
4069.871204  	92.857740 
4070.835629  	92.841746 
4071.800053  	92.859593 
4072.764478  	92.859298 
4073.728902  	92.863193 
4074.693327  	92.892588 
4075.657751  	92.916378 
4076.622176  	92.833886 
4077.586600  	92.846508 
4078.551024  	92.852576 
4079.515449  	92.786087 
4080.479873  	92.831997 
4081.444298  	92.887271 
4082.408722  	92.858920 
4083.373147  	92.819137 
4084.337571  	92.790329 
4085.301996  	92.817967 
4086.266420  	92.821672 
4087.230845  	92.813122 
4088.195269  	92.786192 
4089.159693  	92.827890 
4090.124118  	92.878547 
4091.088542  	92.846464 
4092.052967  	92.866081 
4093.017391  	92.867470 
4093.981816  	92.833243 
4094.946240  	92.796224 
4095.910665  	92.815282 
4096.875089  	92.861156 
4097.839514  	92.860450 
4098.803938  	92.833672 
4099.768362  	92.888728 
4100.732787  	92.944583 
4101.697211  	92.892785 
4102.661636  	92.867539 
4103.626060  	92.866130 
4104.590485  	92.884135 
4105.554909  	92.845094 
4106.519334  	92.836263 
4107.483758  	92.837059 
4108.448183  	92.886060 
4109.412607  	92.898429 
4110.377031  	92.857860 
4111.341456  	92.888748 
4112.305880  	92.898974 
4113.270305  	92.855458 
4114.234729  	92.886412 
4115.199154  	92.937214 
4116.163578  	92.927171 
4117.128003  	92.919657 
4118.092427  	92.901687 
4119.056852  	92.887867 
4120.021276  	92.882711 
4120.985700  	92.895801 
4121.950125  	92.913095 
4122.914549  	92.869431 
4123.878974  	92.889736 
4124.843398  	92.901078 
4125.807823  	92.942069 
4126.772247  	92.953364 
4127.736672  	92.900167 
4128.701096  	92.844214 
4129.665521  	92.860351 
4130.629945  	92.882668 
4131.594370  	92.893606 
4132.558794  	92.881940 
4133.523218  	92.847274 
4134.487643  	92.876498 
4135.452067  	92.891212 
4136.416492  	92.934839 
4137.380916  	92.999023 
4138.345341  	92.946993 
4139.309765  	92.856793 
4140.274190  	92.855869 
4141.238614  	92.863690 
4142.203039  	92.885203 
4143.167463  	92.945443 
4144.131887  	92.902584 
4145.096312  	92.937351 
4146.060736  	92.944147 
4147.025161  	92.909174 
4147.989585  	92.922600 
4148.954010  	92.922440 
4149.918434  	92.891542 
4150.882859  	92.892492 
4151.847283  	92.884031 
4152.811708  	92.870227 
4153.776132  	92.887182 
4154.740556  	92.894855 
4155.704981  	92.859102 
4156.669405  	92.842537 
4157.633830  	92.891199 
4158.598254  	92.927942 
4159.562679  	92.875673 
4160.527103  	92.826166 
4161.491528  	92.838639 
4162.455952  	92.894232 
4163.420377  	92.932611 
4164.384801  	92.941380 
4165.349225  	92.914775 
4166.313650  	92.923214 
4167.278074  	92.955437 
4168.242499  	92.912088 
4169.206923  	92.914242 
4170.171348  	92.977625 
4171.135772  	92.965425 
4172.100197  	92.902231 
4173.064621  	92.876765 
4174.029046  	92.978434 
4174.993470  	93.041004 
4175.957894  	93.002758 
4176.922319  	92.942683 
4177.886743  	92.911374 
4178.851168  	92.895072 
4179.815592  	92.879399 
4180.780017  	92.881420 
4181.744441  	92.943408 
4182.708866  	92.932360 
4183.673290  	92.899163 
4184.637715  	92.912122 
4185.602139  	92.985347 
4186.566563  	92.946858 
4187.530988  	92.894158 
4188.495412  	92.915184 
4189.459837  	92.985304 
4190.424261  	93.003954 
4191.388686  	92.985315 
4192.353110  	92.965223 
4193.317535  	92.943820 
4194.281959  	92.917139 
4195.246384  	92.888700 
4196.210808  	92.867032 
4197.175233  	92.864404 
4198.139657  	92.894154 
4199.104081  	92.947157 
4200.068506  	92.944064 
4201.032930  	92.926226 
4201.997355  	92.973455 
4202.961779  	92.996397 
4203.926204  	92.926419 
4204.890628  	92.880622 
4205.855053  	92.896485 
4206.819477  	92.889318 
4207.783902  	92.911834 
4208.748326  	92.968136 
4209.712750  	92.977621 
4210.677175  	92.959552 
4211.641599  	92.894463 
4212.606024  	92.895937 
4213.570448  	92.938974 
4214.534873  	92.949892 
4215.499297  	92.907555 
4216.463722  	92.912334 
4217.428146  	92.915588 
4218.392571  	92.889515 
4219.356995  	92.910113 
4220.321419  	92.989611 
4221.285844  	93.025094 
4222.250268  	93.005959 
4223.214693  	92.927397 
4224.179117  	92.867032 
4225.143542  	92.893622 
4226.107966  	92.962184 
4227.072391  	93.003648 
4228.036815  	92.958433 
4229.001240  	92.921953 
4229.965664  	92.908238 
4230.930088  	92.879940 
4231.894513  	92.893754 
4232.858937  	92.927200 
4233.823362  	92.930836 
4234.787786  	92.933680 
4235.752211  	92.952690 
4236.716635  	92.953338 
4237.681060  	93.029284 
4238.645484  	93.042490 
4239.609909  	92.907067 
4240.574333  	92.840162 
4241.538757  	92.900033 
4242.503182  	92.947521 
4243.467606  	92.950201 
4244.432031  	92.932146 
4245.396455  	92.900394 
4246.360880  	92.947268 
4247.325304  	93.001132 
4248.289729  	93.007780 
4249.254153  	92.989582 
4250.218578  	92.976543 
4251.183002  	92.980852 
4252.147427  	93.002697 
4253.111851  	93.014036 
4254.076275  	92.956781 
4255.040700  	92.936310 
4256.005124  	92.923937 
4256.969549  	92.988244 
4257.933973  	93.015924 
4258.898398  	92.997528 
4259.862822  	92.948108 
4260.827247  	92.906777 
4261.791671  	92.885467 
4262.756096  	92.933320 
4263.720520  	92.908719 
4264.684944  	92.867273 
4265.649369  	92.886694 
4266.613793  	92.943337 
4267.578218  	92.911987 
4268.542642  	92.912328 
4269.507067  	92.902251 
4270.471491  	92.885514 
4271.435916  	92.912855 
4272.400340  	92.894951 
4273.364765  	92.901526 
4274.329189  	92.934591 
4275.293613  	92.907209 
4276.258038  	92.908289 
4277.222462  	92.900691 
4278.186887  	92.830668 
4279.151311  	92.748831 
4280.115736  	92.773715 
4281.080160  	92.860595 
4282.044585  	92.860651 
4283.009009  	92.830674 
4283.973434  	92.873831 
4284.937858  	92.908223 
4285.902282  	92.863485 
4286.866707  	92.828059 
4287.831131  	92.851793 
4288.795556  	92.896645 
4289.759980  	92.876334 
4290.724405  	92.825778 
4291.688829  	92.886500 
4292.653254  	92.926334 
4293.617678  	92.934909 
4294.582103  	92.934033 
4295.546527  	92.922171 
4296.510951  	92.932353 
4297.475376  	92.965260 
4298.439800  	92.919738 
4299.404225  	92.915578 
4300.368649  	92.976286 
4301.333074  	92.899259 
4302.297498  	92.793202 
4303.261923  	92.833997 
4304.226347  	92.934740 
4305.190772  	93.036831 
4306.155196  	93.008687 
4307.119620  	92.954556 
4308.084045  	92.900170 
4309.048469  	92.901431 
4310.012894  	92.918186 
4310.977318  	92.918649 
4311.941743  	92.923932 
4312.906167  	92.933742 
4313.870592  	92.896004 
4314.835016  	92.938609 
4315.799441  	92.926305 
4316.763865  	92.925339 
4317.728290  	92.940455 
4318.692714  	92.957141 
4319.657138  	92.928811 
4320.621563  	92.914795 
4321.585987  	92.940882 
4322.550412  	92.945667 
4323.514836  	92.919311 
4324.479261  	92.905000 
4325.443685  	92.872367 
4326.408110  	92.971280 
4327.372534  	93.013762 
4328.336959  	92.979169 
4329.301383  	92.956600 
4330.265807  	92.988151 
4331.230232  	92.986678 
4332.194656  	92.912345 
4333.159081  	92.962199 
4334.123505  	93.024487 
4335.087930  	92.965872 
4336.052354  	92.958189 
4337.016779  	93.036274 
4337.981203  	93.033769 
4338.945628  	92.972437 
4339.910052  	92.927390 
4340.874476  	92.923946 
4341.838901  	92.994488 
4342.803325  	92.949200 
4343.767750  	92.913193 
4344.732174  	92.923138 
4345.696599  	92.919804 
4346.661023  	92.904569 
4347.625448  	92.868917 
4348.589872  	92.861857 
4349.554297  	92.945301 
4350.518721  	92.988482 
4351.483145  	92.990230 
4352.447570  	92.929867 
4353.411994  	92.901195 
4354.376419  	92.874705 
4355.340843  	92.881830 
4356.305268  	92.936908 
4357.269692  	92.964944 
4358.234117  	92.974059 
4359.198541  	92.989005 
4360.162966  	92.973216 
4361.127390  	92.965852 
4362.091814  	92.951846 
4363.056239  	92.918413 
4364.020663  	92.918256 
4364.985088  	92.919364 
4365.949512  	92.903070 
4366.913937  	92.916523 
4367.878361  	92.905565 
4368.842786  	92.920369 
4369.807210  	92.992551 
4370.771635  	92.954220 
4371.736059  	92.882562 
4372.700484  	92.926649 
4373.664908  	92.966141 
4374.629332  	92.936674 
4375.593757  	92.908132 
4376.558181  	92.905827 
4377.522606  	92.917625 
4378.487030  	92.860938 
4379.451455  	92.864006 
4380.415879  	92.902731 
4381.380304  	92.934886 
4382.344728  	92.976299 
4383.309153  	92.999119 
4384.273577  	92.973660 
4385.238001  	92.961123 
4386.202426  	92.968089 
4387.166850  	92.962193 
4388.131275  	92.952271 
4389.095699  	92.897284 
4390.060124  	92.898328 
4391.024548  	92.966449 
4391.988973  	93.068150 
4392.953397  	93.058145 
4393.917822  	92.970504 
4394.882246  	92.922795 
4395.846670  	92.906965 
4396.811095  	92.886550 
4397.775519  	92.893412 
4398.739944  	92.922227 
4399.704368  	92.983707 
4400.668793  	93.010952 
4401.633217  	92.885216 
4402.597642  	92.825180 
4403.562066  	92.938001 
4404.526491  	93.029501 
4405.490915  	93.053326 
4406.455339  	92.911036 
4407.419764  	92.871006 
4408.384188  	93.013464 
4409.348613  	93.052896 
4410.313037  	92.965508 
4411.277462  	92.909675 
4412.241886  	92.897311 
4413.206311  	92.917522 
4414.170735  	92.942039 
4415.135160  	92.913733 
4416.099584  	92.885266 
4417.064008  	92.852238 
4418.028433  	92.824849 
4418.992857  	92.864405 
4419.957282  	92.898602 
4420.921706  	92.891912 
4421.886131  	92.838199 
4422.850555  	92.868372 
4423.814980  	92.881851 
4424.779404  	92.885402 
4425.743829  	92.888767 
4426.708253  	92.869184 
4427.672677  	92.820679 
4428.637102  	92.806927 
4429.601526  	92.865200 
4430.565951  	92.851031 
4431.530375  	92.877089 
4432.494800  	92.865613 
4433.459224  	92.784995 
4434.423649  	92.774885 
4435.388073  	92.839740 
4436.352498  	92.909483 
4437.316922  	92.942271 
4438.281347  	92.970452 
4439.245771  	92.934176 
4440.210195  	92.894316 
4441.174620  	92.870513 
4442.139044  	92.875414 
4443.103469  	92.968906 
4444.067893  	92.976587 
4445.032318  	92.950691 
4445.996742  	92.953314 
4446.961167  	92.866687 
4447.925591  	92.840839 
4448.890016  	92.819231 
4449.854440  	92.785785 
4450.818864  	92.837931 
4451.783289  	92.893867 
4452.747713  	92.867041 
4453.712138  	92.899840 
4454.676562  	92.903547 
4455.640987  	92.904010 
4456.605411  	92.889427 
4457.569836  	92.865202 
4458.534260  	92.808700 
4459.498685  	92.801512 
4460.463109  	92.859200 
4461.427533  	92.886536 
4462.391958  	92.920499 
4463.356382  	92.924783 
4464.320807  	92.862385 
4465.285231  	92.868585 
4466.249656  	92.887124 
4467.214080  	92.876100 
4468.178505  	92.905201 
4469.142929  	92.918979 
4470.107354  	92.912737 
4471.071778  	92.906348 
4472.036202  	92.943593 
4473.000627  	92.991236 
4473.965051  	92.963066 
4474.929476  	92.905243 
4475.893900  	92.896696 
4476.858325  	92.902336 
4477.822749  	92.908686 
4478.787174  	92.917774 
4479.751598  	92.942826 
4480.716023  	92.943694 
4481.680447  	92.963060 
4482.644871  	92.929430 
4483.609296  	92.878975 
4484.573720  	92.919925 
4485.538145  	92.959953 
4486.502569  	92.948982 
4487.466994  	92.951124 
4488.431418  	92.976658 
4489.395843  	92.902116 
4490.360267  	92.861260 
4491.324692  	92.883670 
4492.289116  	92.924607 
4493.253541  	92.921834 
4494.217965  	92.917744 
4495.182389  	92.917688 
4496.146814  	92.928617 
4497.111238  	92.891759 
4498.075663  	92.844771 
4499.040087  	92.841554 
4500.004512  	92.890126 
4500.968936  	92.919577 
4501.933361  	92.854467 
4502.897785  	92.851399 
4503.862210  	92.921791 
4504.826634  	92.929308 
4505.791058  	92.929346 
4506.755483  	92.957768 
4507.719907  	93.004296 
4508.684332  	93.014221 
4509.648756  	92.967686 
4510.613181  	92.954712 
4511.577605  	93.040836 
4512.542030  	93.021722 
4513.506454  	92.984259 
4514.470879  	92.946427 
4515.435303  	92.915811 
4516.399727  	92.923084 
4517.364152  	92.914858 
4518.328576  	92.960202 
4519.293001  	93.040011 
4520.257425  	93.045246 
4521.221850  	92.896736 
4522.186274  	92.856832 
4523.150699  	92.960388 
4524.115123  	92.949438 
4525.079548  	92.898485 
4526.043972  	92.907400 
4527.008396  	92.952741 
4527.972821  	92.920471 
4528.937245  	92.942210 
4529.901670  	92.910282 
4530.866094  	92.919352 
4531.830519  	93.021186 
4532.794943  	92.985951 
4533.759368  	92.926762 
4534.723792  	92.945089 
4535.688217  	92.915467 
4536.652641  	92.949521 
4537.617065  	92.970666 
4538.581490  	93.013068 
4539.545914  	93.013287 
4540.510339  	92.960336 
4541.474763  	92.885857 
4542.439188  	92.914126 
4543.403612  	92.958342 
4544.368037  	92.933586 
4545.332461  	92.932157 
4546.296886  	92.918982 
4547.261310  	92.872140 
4548.225734  	92.873579 
4549.190159  	92.915826 
4550.154583  	92.953459 
4551.119008  	92.870047 
4552.083432  	92.838197 
4553.047857  	92.891512 
4554.012281  	92.989790 
4554.976706  	92.962474 
4555.941130  	92.947311 
4556.905555  	92.941794 
4557.869979  	92.967965 
4558.834404  	92.970261 
4559.798828  	92.917515 
4560.763252  	92.880609 
4561.727677  	92.865058 
4562.692101  	92.872629 
4563.656526  	92.892911 
4564.620950  	92.934305 
4565.585375  	92.933098 
4566.549799  	92.926152 
4567.514224  	92.979319 
4568.478648  	92.894370 
4569.443073  	92.836597 
4570.407497  	92.864929 
4571.371921  	92.901586 
4572.336346  	92.862725 
4573.300770  	92.924104 
4574.265195  	92.892689 
4575.229619  	92.819457 
4576.194044  	92.840761 
4577.158468  	92.911764 
4578.122893  	92.902040 
4579.087317  	92.870669 
4580.051742  	92.904730 
4581.016166  	92.994208 
4581.980590  	93.000037 
4582.945015  	92.985032 
4583.909439  	92.972361 
4584.873864  	92.980704 
4585.838288  	92.900174 
4586.802713  	92.878470 
4587.767137  	92.873848 
4588.731562  	92.912073 
4589.695986  	92.972187 
4590.660411  	92.933364 
4591.624835  	92.904986 
4592.589259  	92.924880 
4593.553684  	92.952912 
4594.518108  	92.875767 
4595.482533  	92.773279 
4596.446957  	92.806845 
4597.411382  	92.795471 
4598.375806  	92.800430 
4599.340231  	92.888695 
4600.304655  	92.884734 
4601.269080  	92.872566 
4602.233504  	92.813082 
4603.197928  	92.801399 
4604.162353  	92.865818 
4605.126777  	92.892084 
4606.091202  	92.943584 
4607.055626  	93.003391 
4608.020051  	92.978923 
4608.984475  	92.927332 
4609.948900  	92.958482 
4610.913324  	92.986325 
4611.877749  	92.958329 
4612.842173  	92.902058 
4613.806598  	92.914745 
4614.771022  	92.913001 
4615.735446  	92.891225 
4616.699871  	92.879956 
4617.664295  	92.827087 
4618.628720  	92.825017 
4619.593144  	92.791798 
4620.557569  	92.821616 
4621.521993  	92.836033 
4622.486418  	92.763422 
4623.450842  	92.793223 
4624.415267  	92.848641 
4625.379691  	92.901578 
4626.344115  	92.903222 
4627.308540  	92.910165 
4628.272964  	92.892610 
4629.237389  	92.879901 
4630.201813  	92.816881 
4631.166238  	92.816153 
4632.130662  	92.848681 
4633.095087  	92.758557 
4634.059511  	92.707496 
4635.023936  	92.888667 
4635.988360  	92.960582 
4636.952784  	92.915668 
4637.917209  	92.945312 
4638.881633  	92.878502 
4639.846058  	92.817277 
4640.810482  	92.855716 
4641.774907  	92.869672 
4642.739331  	92.808789 
4643.703756  	92.732536 
4644.668180  	92.775806 
4645.632605  	92.806755 
4646.597029  	92.917269 
4647.561453  	92.934205 
4648.525878  	92.889735 
4649.490302  	92.862870 
4650.454727  	92.895956 
4651.419151  	92.864014 
4652.383576  	92.824695 
4653.348000  	92.860118 
4654.312425  	92.936216 
4655.276849  	92.969073 
4656.241274  	92.900064 
4657.205698  	92.835533 
4658.170122  	92.787045 
4659.134547  	92.799777 
4660.098971  	92.874952 
4661.063396  	92.960568 
4662.027820  	92.971303 
4662.992245  	92.949985 
4663.956669  	92.940457 
4664.921094  	92.940075 
4665.885518  	92.949436 
4666.849943  	92.933962 
4667.814367  	92.882134 
4668.778791  	92.891556 
4669.743216  	92.884106 
4670.707640  	92.836320 
4671.672065  	92.852903 
4672.636489  	92.850396 
4673.600914  	92.832391 
4674.565338  	92.864193 
4675.529763  	92.864685 
4676.494187  	92.922422 
4677.458612  	92.945373 
4678.423036  	92.925379 
4679.387461  	92.996121 
4680.351885  	92.984725 
4681.316309  	92.900748 
4682.280734  	92.825404 
4683.245158  	92.788737 
4684.209583  	92.806859 
4685.174007  	92.848499 
4686.138432  	92.857645 
4687.102856  	92.912585 
4688.067281  	92.881115 
4689.031705  	92.809821 
4689.996130  	92.872473 
4690.960554  	92.931597 
4691.924978  	92.888219 
4692.889403  	92.828336 
4693.853827  	92.800933 
4694.818252  	92.858499 
4695.782676  	92.973034 
4696.747101  	92.919077 
4697.711525  	92.959229 
4698.675950  	92.965413 
4699.640374  	92.895108 