##TITLE=No Description
##DATA TYPE=INFRARED SPECTRUM
##XUNITS=1/CM
##YUNITS=%T
400.236149  	114.683634 
401.200574  	107.481069 
402.164998  	96.769551 
403.129423  	87.028744 
404.093847  	92.176532 
405.058272  	92.343270 
406.022696  	91.284447 
406.987120  	87.798240 
407.951545  	90.200831 
408.915969  	91.214454 
409.880394  	91.644596 
410.844818  	100.570395 
411.809243  	108.531368 
412.773667  	103.448985 
413.738092  	91.363620 
414.702516  	80.364072 
415.666941  	80.694987 
416.631365  	89.458059 
417.595789  	98.064825 
418.560214  	95.003903 
419.524638  	88.042292 
420.489063  	91.067895 
421.453487  	88.983722 
422.417912  	87.732981 
423.382336  	87.947697 
424.346761  	84.213895 
425.311185  	80.960853 
426.275610  	82.064552 
427.240034  	82.649501 
428.204458  	83.220413 
429.168883  	84.160806 
430.133307  	83.951823 
431.097732  	82.874561 
432.062156  	82.590251 
433.026581  	81.054175 
433.991005  	80.056694 
434.955430  	80.484165 
435.919854  	79.923990 
436.884279  	79.275326 
437.848703  	81.544987 
438.813127  	82.854404 
439.777552  	82.452253 
440.741976  	82.397954 
441.706401  	84.721349 
442.670825  	86.283837 
443.635250  	85.266464 
444.599674  	86.056779 
445.564099  	86.564814 
446.528523  	87.126153 
447.492948  	88.297055 
448.457372  	88.556449 
449.421796  	86.987454 
450.386221  	85.141345 
451.350645  	84.921539 
452.315070  	85.407626 
453.279494  	85.699739 
454.243919  	87.343614 
455.208343  	87.586574 
456.172768  	86.366743 
457.137192  	86.315111 
458.101617  	86.668452 
459.066041  	85.897327 
460.030466  	85.435244 
460.994890  	85.434201 
461.959314  	85.558666 
462.923739  	85.600396 
463.888163  	85.645357 
464.852588  	85.459378 
465.817012  	85.877769 
466.781437  	86.207985 
467.745861  	86.189268 
468.710286  	85.864612 
469.674710  	84.007264 
470.639135  	82.853501 
471.603559  	83.794501 
472.567983  	85.237879 
473.532408  	85.202067 
474.496832  	83.814741 
475.461257  	84.089047 
476.425681  	84.512385 
477.390106  	84.763763 
478.354530  	84.948954 
479.318955  	83.787860 
480.283379  	83.525108 
481.247804  	83.752755 
482.212228  	83.483276 
483.176652  	83.689082 
484.141077  	84.336195 
485.105501  	83.651489 
486.069926  	83.165384 
487.034350  	83.805815 
487.998775  	83.621399 
488.963199  	83.466802 
489.927624  	84.278972 
490.892048  	83.858228 
491.856473  	82.833011 
492.820897  	82.871748 
493.785321  	83.001115 
494.749746  	82.035765 
495.714170  	81.524504 
496.678595  	81.234186 
497.643019  	80.932919 
498.607444  	80.995375 
499.571868  	80.717260 
500.536293  	80.663693 
501.500717  	80.523646 
502.465142  	80.179347 
503.429566  	80.310326 
504.393990  	80.157603 
505.358415  	80.145840 
506.322839  	80.000168 
507.287264  	80.185600 
508.251688  	81.465426 
509.216113  	82.636411 
510.180537  	83.067419 
511.144962  	83.476222 
512.109386  	84.180611 
513.073811  	84.307453 
514.038235  	84.289852 
515.002660  	83.877525 
515.967084  	83.461783 
516.931508  	83.424280 
517.895933  	83.922179 
518.860357  	83.974839 
519.824782  	83.566766 
520.789206  	83.864976 
521.753631  	84.653773 
522.718055  	84.742671 
523.682480  	84.210420 
524.646904  	83.927720 
525.611329  	84.032946 
526.575753  	84.262662 
527.540177  	84.661834 
528.504602  	84.543856 
529.469026  	84.130202 
530.433451  	84.174185 
531.397875  	84.488218 
532.362300  	84.775829 
533.326724  	85.176369 
534.291149  	84.781607 
535.255573  	84.549008 
536.219998  	85.061033 
537.184422  	85.499887 
538.148846  	85.455204 
539.113271  	85.361711 
540.077695  	85.162392 
541.042120  	85.107063 
542.006544  	85.288094 
542.970969  	85.247256 
543.935393  	85.644336 
544.899818  	85.927887 
545.864242  	85.953532 
546.828667  	85.792876 
547.793091  	85.469305 
548.757515  	85.491224 
549.721940  	86.021356 
550.686364  	86.039174 
551.650789  	85.939276 
552.615213  	85.537614 
553.579638  	85.766356 
554.544062  	85.918563 
555.508487  	85.857415 
556.472911  	85.544384 
557.437336  	85.176549 
558.401760  	85.249883 
559.366184  	85.538874 
560.330609  	85.362044 
561.295033  	85.290432 
562.259458  	85.291851 
563.223882  	85.113388 
564.188307  	85.168380 
565.152731  	85.514396 
566.117156  	85.438993 
567.081580  	85.085092 
568.046005  	85.124380 
569.010429  	85.292017 
569.974853  	85.245319 
570.939278  	85.163865 
571.903702  	85.012538 
572.868127  	84.843487 
573.832551  	84.954059 
574.796976  	85.058143 
575.761400  	84.899823 
576.725825  	85.048873 
577.690249  	85.013097 
578.654674  	85.059062 
579.619098  	85.204719 
580.583523  	85.064173 
581.547947  	85.150163 
582.512371  	85.209615 
583.476796  	84.942432 
584.441220  	84.849060 
585.405645  	84.972431 
586.370069  	85.186586 
587.334494  	85.186464 
588.298918  	85.193532 
589.263343  	85.205950 
590.227767  	85.263276 
591.192192  	84.870396 
592.156616  	84.594369 
593.121040  	84.899463 
594.085465  	85.152659 
595.049889  	85.066434 
596.014314  	84.887639 
596.978738  	84.834335 
597.943163  	84.735835 
598.907587  	84.544812 
599.872012  	84.398550 
600.836436  	84.428143 
601.800861  	84.491307 
602.765285  	84.402053 
603.729709  	84.464687 
604.694134  	84.606426 
605.658558  	84.738193 
606.622983  	84.719365 
607.587407  	84.321962 
608.551832  	84.283622 
609.516256  	84.450321 
610.480681  	84.300192 
611.445105  	84.196192 
612.409530  	84.524302 
613.373954  	84.609697 
614.338378  	84.113222 
615.302803  	83.802831 
616.267227  	83.769927 
617.231652  	84.021089 
618.196076  	83.872920 
619.160501  	83.688783 
620.124925  	83.525907 
621.089350  	83.468816 
622.053774  	83.568545 
623.018199  	83.726077 
623.982623  	83.431890 
624.947047  	83.299698 
625.911472  	83.465496 
626.875896  	83.446507 
627.840321  	83.249058 
628.804745  	83.102460 
629.769170  	82.793709 
630.733594  	82.345207 
631.698019  	82.305543 
632.662443  	82.549757 
633.626868  	82.853691 
634.591292  	83.075019 
635.555717  	83.147737 
636.520141  	83.429689 
637.484565  	83.388707 
638.448990  	83.260960 
639.413414  	83.276491 
640.377839  	83.193714 
641.342263  	83.114192 
642.306688  	82.906095 
643.271112  	82.923833 
644.235537  	82.934056 
645.199961  	82.837751 
646.164386  	82.844028 
647.128810  	82.786809 
648.093234  	82.709097 
649.057659  	82.602047 
650.022083  	82.468189 
650.986508  	82.529327 
651.950932  	82.474064 
652.915357  	82.242697 
653.879781  	82.173662 
654.844206  	82.171881 
655.808630  	82.089359 
656.773055  	81.958548 
657.737479  	81.994490 
658.701903  	81.831106 
659.666328  	81.579174 
660.630752  	81.448736 
661.595177  	81.403556 
662.559601  	81.291040 
663.524026  	81.230009 
664.488450  	81.260493 
665.452875  	81.209785 
666.417299  	81.228252 
667.381724  	81.557918 
668.346148  	81.621695 
669.310572  	80.650131 
670.274997  	80.334693 
671.239421  	80.322982 
672.203846  	80.346555 
673.168270  	80.144797 
674.132695  	79.847762 
675.097119  	79.609785 
676.061544  	79.466744 
677.025968  	79.251029 
677.990393  	78.906525 
678.954817  	78.594748 
679.919241  	78.531805 
680.883666  	78.495981 
681.848090  	78.473252 
682.812515  	78.474090 
683.776939  	78.304600 
684.741364  	78.145411 
685.705788  	78.025589 
686.670213  	78.002002 
687.634637  	77.773560 
688.599062  	77.401111 
689.563486  	77.033839 
690.527910  	76.730822 
691.492335  	76.377658 
692.456759  	76.064835 
693.421184  	75.609938 
694.385608  	75.200975 
695.350033  	74.794224 
696.314457  	74.232921 
697.278882  	73.512094 
698.243306  	72.736706 
699.207731  	71.875082 
700.172155  	71.060260 
701.136580  	70.285663 
702.101004  	69.619733 
703.065428  	69.050980 
704.029853  	68.438014 
704.994277  	67.735873 
705.958702  	67.057376 
706.923126  	66.220615 
707.887551  	65.371161 
708.851975  	64.644888 
709.816400  	63.679210 
710.780824  	62.511810 
711.745249  	61.335271 
712.709673  	60.179330 
713.674097  	58.796644 
714.638522  	57.370039 
715.602946  	55.939899 
716.567371  	54.204850 
717.531795  	52.483600 
718.496220  	50.888274 
719.460644  	49.447566 
720.425069  	48.176090 
721.389493  	47.127278 
722.353918  	46.442336 
723.318342  	46.421626 
724.282766  	47.221472 
725.247191  	48.923831 
726.211615  	51.326906 
727.176040  	54.084447 
728.140464  	56.753985 
729.104889  	59.455675 
730.069313  	62.171146 
731.033738  	64.947818 
731.998162  	67.644485 
732.962587  	70.320103 
733.927011  	73.061430 
734.891435  	75.887454 
735.855860  	78.603180 
736.820284  	81.090189 
737.784709  	83.284658 
738.749133  	85.153617 
739.713558  	86.618407 
740.677982  	87.855278 
741.642407  	88.768077 
742.606831  	89.428234 
743.571256  	89.832210 
744.535680  	90.049961 
745.500104  	90.224096 
746.464529  	90.224770 
747.428953  	90.134381 
748.393378  	90.127458 
749.357802  	90.009758 
750.322227  	89.929226 
751.286651  	89.753143 
752.251076  	89.593149 
753.215500  	89.557676 
754.179925  	89.419215 
755.144349  	89.265540 
756.108774  	89.228295 
757.073198  	89.109795 
758.037622  	88.958954 
759.002047  	88.822947 
759.966471  	88.675337 
760.930896  	88.563697 
761.895320  	88.456153 
762.859745  	88.363117 
763.824169  	88.271612 
764.788594  	88.080262 
765.753018  	87.804127 
766.717443  	87.650738 
767.681867  	87.455397 
768.646291  	87.246966 
769.610716  	87.063838 
770.575140  	87.019170 
771.539565  	86.918270 
772.503989  	86.679335 
773.468414  	86.497138 
774.432838  	86.454242 
775.397263  	86.301719 
776.361687  	86.147281 
777.326112  	86.049322 
778.290536  	85.981696 
779.254960  	85.885698 
780.219385  	85.737782 
781.183809  	85.615632 
782.148234  	85.768715 
783.112658  	85.764199 
784.077083  	85.047080 
785.041507  	84.498458 
786.005932  	84.183921 
786.970356  	83.915376 
787.934781  	83.466056 
788.899205  	83.229835 
789.863629  	83.044240 
790.828054  	82.759731 
791.792478  	82.404670 
792.756903  	82.248347 
793.721327  	82.460612 
794.685752  	82.908487 
795.650176  	83.538347 
796.614601  	84.145875 
797.579025  	84.560686 
798.543450  	84.627257 
799.507874  	84.580366 
800.472298  	84.603008 
801.436723  	84.591123 
802.401147  	84.511527 
803.365572  	84.439146 
804.329996  	84.422019 
805.294421  	84.316231 
806.258845  	84.243498 
807.223270  	84.264195 
808.187694  	84.219299 
809.152119  	84.208670 
810.116543  	84.183369 
811.080967  	84.112830 
812.045392  	84.069151 
813.009816  	84.060740 
813.974241  	84.124673 
814.938665  	84.160646 
815.903090  	84.025854 
816.867514  	83.872579 
817.831939  	83.853291 
818.796363  	83.886943 
819.760788  	83.816639 
820.725212  	83.733776 
821.689637  	83.668645 
822.654061  	83.548965 
823.618485  	83.417974 
824.582910  	83.254923 
825.547334  	83.043820 
826.511759  	82.889632 
827.476183  	82.755766 
828.440608  	82.596155 
829.405032  	82.409726 
830.369457  	82.236814 
831.333881  	82.064418 
832.298306  	81.828314 
833.262730  	81.629587 
834.227154  	81.429514 
835.191579  	81.189262 
836.156003  	80.920350 
837.120428  	80.578906 
838.084852  	80.177820 
839.049277  	79.906237 
840.013701  	79.662200 
840.978126  	79.327781 
841.942550  	79.012812 
842.906975  	78.707120 
843.871399  	78.297776 
844.835823  	77.946467 
845.800248  	77.821695 
846.764672  	77.803478 
847.729097  	77.925445 
848.693521  	78.182412 
849.657946  	78.586861 
850.622370  	79.016281 
851.586795  	79.361179 
852.551219  	79.518569 
853.515644  	79.640058 
854.480068  	79.833141 
855.444492  	79.970363 
856.408917  	80.046912 
857.373341  	80.129802 
858.337766  	80.294019 
859.302190  	80.455191 
860.266615  	80.443604 
861.231039  	80.345342 
862.195464  	80.208837 
863.159888  	79.935881 
864.124313  	79.649452 
865.088737  	79.245743 
866.053161  	78.627594 
867.017586  	77.750611 
867.982010  	76.598454 
868.946435  	75.204265 
869.910859  	73.468010 
870.875284  	71.637393 
871.839708  	70.696475 
872.804133  	71.478254 
873.768557  	73.499202 
874.732982  	75.634337 
875.697406  	77.237127 
876.661831  	78.455278 
877.626255  	79.487556 
878.590679  	80.315764 
879.555104  	80.996743 
880.519528  	81.605054 
881.483953  	82.142674 
882.448377  	82.640075 
883.412802  	83.119096 
884.377226  	83.521059 
885.341651  	83.704195 
886.306075  	83.787579 
887.270500  	83.863584 
888.234924  	83.939047 
889.199348  	83.939454 
890.163773  	83.875094 
891.128197  	83.816582 
892.092622  	83.791748 
893.057046  	83.702719 
894.021471  	83.601507 
894.985895  	83.542961 
895.950320  	83.447170 
896.914744  	83.368245 
897.879169  	83.347884 
898.843593  	83.362599 
899.808017  	83.419145 
900.772442  	83.457797 
901.736866  	83.450448 
902.701291  	83.572043 
903.665715  	83.725598 
904.630140  	83.790655 
905.594564  	83.868106 
906.558989  	84.032027 
907.523413  	84.192281 
908.487838  	84.260729 
909.452262  	84.332870 
910.416686  	84.421222 
911.381111  	84.469738 
912.345535  	84.453362 
913.309960  	84.427086 
914.274384  	84.431963 
915.238809  	84.419530 
916.203233  	84.328688 
917.167658  	84.270030 
918.132082  	84.243761 
919.096507  	84.232034 
920.060931  	84.230748 
921.025355  	84.192086 
921.989780  	84.116298 
922.954204  	84.003918 
923.918629  	83.867843 
924.883053  	83.802394 
925.847478  	83.770224 
926.811902  	83.652878 
927.776327  	83.547871 
928.740751  	83.476775 
929.705176  	83.435431 
930.669600  	83.355219 
931.634024  	83.251683 
932.598449  	83.166571 
933.562873  	83.115691 
934.527298  	83.064310 
935.491722  	82.900279 
936.456147  	82.783888 
937.420571  	82.745860 
938.384996  	82.617510 
939.349420  	82.481952 
940.313845  	82.405752 
941.278269  	82.287181 
942.242694  	82.175418 
943.207118  	82.059230 
944.171542  	81.952402 
945.135967  	81.846856 
946.100391  	81.701645 
947.064816  	81.524777 
948.029240  	81.341671 
948.993665  	81.204711 
949.958089  	81.060061 
950.922514  	80.889112 
951.886938  	80.759021 
952.851363  	80.563140 
953.815787  	80.320764 
954.780211  	80.163592 
955.744636  	80.054541 
956.709060  	79.873091 
957.673485  	79.595321 
958.637909  	79.307401 
959.602334  	79.050639 
960.566758  	78.775794 
961.531183  	78.496822 
962.495607  	78.248408 
963.460032  	77.987511 
964.424456  	77.720338 
965.388880  	77.429769 
966.353305  	77.193304 
967.317729  	77.041937 
968.282154  	76.863001 
969.246578  	76.713657 
970.211003  	76.721972 
971.175427  	76.803808 
972.139852  	76.965290 
973.104276  	77.207494 
974.068701  	77.553093 
975.033125  	77.924099 
975.997549  	78.261707 
976.961974  	78.584155 
977.926398  	78.880289 
978.890823  	79.132012 
979.855247  	79.331138 
980.819672  	79.468557 
981.784096  	79.530900 
982.748521  	79.562596 
983.712945  	79.567871 
984.677370  	79.512728 
985.641794  	79.429175 
986.606218  	79.347507 
987.570643  	79.274146 
988.535067  	79.209303 
989.499492  	79.183663 
990.463916  	79.130918 
991.428341  	79.033596 
992.392765  	78.905058 
993.357190  	78.731491 
994.321614  	78.583455 
995.286039  	78.440553 
996.250463  	78.238385 
997.214888  	78.013756 
998.179312  	77.789918 
999.143736  	77.531116 
1000.108161  	77.256015 
1001.072585  	76.982817 
1002.037010  	76.710696 
1003.001434  	76.364494 
1003.965859  	75.947661 
1004.930283  	75.516238 
1005.894708  	75.012961 
1006.859132  	74.419795 
1007.823557  	73.752387 
1008.787981  	72.959436 
1009.752405  	72.098900 
1010.716830  	71.103170 
1011.681254  	69.899524 
1012.645679  	68.553917 
1013.610103  	67.107072 
1014.574528  	65.650267 
1015.538952  	64.512817 
1016.503377  	64.043035 
1017.467801  	64.282020 
1018.432226  	65.150857 
1019.396650  	66.494248 
1020.361074  	68.030449 
1021.325499  	69.556185 
1022.289923  	70.986620 
1023.254348  	72.436303 
1024.218772  	74.121615 
1025.183197  	75.969777 
1026.147621  	77.616536 
1027.112046  	78.756546 
1028.076470  	79.337684 
1029.040895  	79.445106 
1030.005319  	79.272350 
1030.969743  	79.025487 
1031.934168  	78.748312 
1032.898592  	78.424726 
1033.863017  	78.076127 
1034.827441  	77.699561 
1035.791866  	77.347626 
1036.756290  	77.058490 
1037.720715  	76.781929 
1038.685139  	76.528752 
1039.649564  	76.326323 
1040.613988  	76.105185 
1041.578412  	75.867022 
1042.542837  	75.705757 
1043.507261  	75.637370 
1044.471686  	75.548646 
1045.436110  	75.455907 
1046.400535  	75.421761 
1047.364959  	75.368866 
1048.329384  	75.297698 
1049.293808  	75.310819 
1050.258233  	75.338595 
1051.222657  	75.290389 
1052.187081  	75.186748 
1053.151506  	75.064146 
1054.115930  	74.974798 
1055.080355  	74.817194 
1056.044779  	74.581044 
1057.009204  	74.342898 
1057.973628  	74.132295 
1058.938053  	73.851172 
1059.902477  	73.455010 
1060.866902  	73.043690 
1061.831326  	72.729713 
1062.795751  	72.392536 
1063.760175  	71.937861 
1064.724599  	71.420911 
1065.689024  	70.946442 
1066.653448  	70.469489 
1067.617873  	69.907179 
1068.582297  	69.362113 
1069.546722  	68.848777 
1070.511146  	68.245561 
1071.475571  	67.576569 
1072.439995  	66.923144 
1073.404420  	66.250654 
1074.368844  	65.496093 
1075.333268  	64.741199 
1076.297693  	63.969445 
1077.262117  	63.132990 
1078.226542  	62.317799 
1079.190966  	61.571165 
1080.155391  	60.860255 
1081.119815  	60.216718 
1082.084240  	59.608846 
1083.048664  	59.119053 
1084.013089  	58.735427 
1084.977513  	58.377206 
1085.941937  	58.023228 
1086.906362  	57.715858 
1087.870786  	57.438629 
1088.835211  	57.186843 
1089.799635  	56.920626 
1090.764060  	56.676942 
1091.728484  	56.528966 
1092.692909  	56.378576 
1093.657333  	56.263591 
1094.621758  	56.248374 
1095.586182  	56.308660 
1096.550606  	56.431487 
1097.515031  	56.670079 
1098.479455  	56.972695 
1099.443880  	57.336342 
1100.408304  	57.791969 
1101.372729  	58.337929 
1102.337153  	58.982704 
1103.301578  	59.670876 
1104.266002  	60.368871 
1105.230427  	61.091247 
1106.194851  	61.818438 
1107.159275  	62.526722 
1108.123700  	63.179306 
1109.088124  	63.799608 
1110.052549  	64.320893 
1111.016973  	64.686016 
1111.981398  	64.914543 
1112.945822  	65.085766 
1113.910247  	65.143197 
1114.874671  	65.051810 
1115.839096  	64.905825 
1116.803520  	64.798162 
1117.767945  	64.774062 
1118.732369  	64.871890 
1119.696793  	65.089165 
1120.661218  	65.406862 
1121.625642  	65.757046 
1122.590067  	66.233835 
1123.554491  	66.805334 
1124.518916  	67.392584 
1125.483340  	68.105157 
1126.447765  	68.902919 
1127.412189  	69.723379 
1128.376614  	70.611807 
1129.341038  	71.585362 
1130.305462  	72.623694 
1131.269887  	73.692138 
1132.234311  	74.697936 
1133.198736  	75.702996 
1134.163160  	76.768902 
1135.127585  	77.850348 
1136.092009  	78.823300 
1137.056434  	79.722460 
1138.020858  	80.634357 
1138.985283  	81.466139 
1139.949707  	82.162034 
1140.914131  	82.827539 
1141.878556  	83.471377 
1142.842980  	83.999095 
1143.807405  	84.484946 
1144.771829  	84.965768 
1145.736254  	85.399407 
1146.700678  	85.774933 
1147.665103  	86.095104 
1148.629527  	86.394976 
1149.593952  	86.681303 
1150.558376  	86.942563 
1151.522800  	87.111110 
1152.487225  	87.237496 
1153.451649  	87.356447 
1154.416074  	87.465224 
1155.380498  	87.526603 
1156.344923  	87.578897 
1157.309347  	87.650806 
1158.273772  	87.696107 
1159.238196  	87.644781 
1160.202621  	87.623535 
1161.167045  	87.610268 
1162.131469  	87.524236 
1163.095894  	87.427428 
1164.060318  	87.354517 
1165.024743  	87.239412 
1165.989167  	87.020908 
1166.953592  	86.819229 
1167.918016  	86.597070 
1168.882441  	86.259185 
1169.846865  	85.861144 
1170.811290  	85.492005 
1171.775714  	85.198431 
1172.740138  	84.973041 
1173.704563  	84.754551 
1174.668987  	84.593486 
1175.633412  	84.578906 
1176.597836  	84.610664 
1177.562261  	84.612146 
1178.526685  	84.610319 
1179.491110  	84.631362 
1180.455534  	84.648932 
1181.419959  	84.662969 
1182.384383  	84.636395 
1183.348808  	84.553411 
1184.313232  	84.467248 
1185.277656  	84.325067 
1186.242081  	84.143465 
1187.206505  	83.961286 
1188.170930  	83.721187 
1189.135354  	83.426784 
1190.099779  	83.132464 
1191.064203  	82.843492 
1192.028628  	82.495512 
1192.993052  	82.090407 
1193.957477  	81.675100 
1194.921901  	81.300227 
1195.886325  	80.891970 
1196.850750  	80.413574 
1197.815174  	79.975510 
1198.779599  	79.601415 
1199.744023  	79.196634 
1200.708448  	78.722694 
1201.672872  	78.236578 
1202.637297  	77.800615 
1203.601721  	77.386944 
1204.566146  	76.954112 
1205.530570  	76.482213 
1206.494994  	76.025336 
1207.459419  	75.582956 
1208.423843  	75.118579 
1209.388268  	74.632979 
1210.352692  	74.167418 
1211.317117  	73.657095 
1212.281541  	73.109060 
1213.245966  	72.561999 
1214.210390  	71.982972 
1215.174815  	71.391850 
1216.139239  	70.780148 
1217.103663  	70.108563 
1218.068088  	69.418151 
1219.032512  	68.737598 
1219.996937  	68.088762 
1220.961361  	67.496630 
1221.925786  	66.926735 
1222.890210  	66.357311 
1223.854635  	65.789017 
1224.819059  	65.177755 
1225.783484  	64.575678 
1226.747908  	63.965454 
1227.712332  	63.282767 
1228.676757  	62.540060 
1229.641181  	61.742847 
1230.605606  	60.923840 
1231.570030  	60.065737 
1232.534455  	59.207737 
1233.498879  	58.379050 
1234.463304  	57.592685 
1235.427728  	56.859305 
1236.392153  	56.191961 
1237.356577  	55.640718 
1238.321002  	55.221817 
1239.285426  	54.894198 
1240.249850  	54.700923 
1241.214275  	54.663276 
1242.178699  	54.720153 
1243.143124  	54.853525 
1244.107548  	55.111605 
1245.071973  	55.508723 
1246.036397  	55.924123 
1247.000822  	56.331719 
1247.965246  	56.818156 
1248.929671  	57.363908 
1249.894095  	57.872360 
1250.858519  	58.353822 
1251.822944  	58.839223 
1252.787368  	59.307620 
1253.751793  	59.719236 
1254.716217  	60.043959 
1255.680642  	60.367009 
1256.645066  	60.695302 
1257.609491  	60.956213 
1258.573915  	61.195061 
1259.538340  	61.462758 
1260.502764  	61.779709 
1261.467188  	62.231188 
1262.431613  	62.746333 
1263.396037  	63.319584 
1264.360462  	63.959970 
1265.324886  	64.633831 
1266.289311  	65.347338 
1267.253735  	66.130166 
1268.218160  	66.927742 
1269.182584  	67.740731 
1270.147009  	68.539910 
1271.111433  	69.353171 
1272.075857  	70.125222 
1273.040282  	70.855661 
1274.004706  	71.520698 
1274.969131  	72.171690 
1275.933555  	72.785762 
1276.897980  	73.355269 
1277.862404  	73.904420 
1278.826829  	74.455506 
1279.791253  	74.965453 
1280.755678  	75.457349 
1281.720102  	75.964260 
1282.684526  	76.473207 
1283.648951  	76.966861 
1284.613375  	77.452834 
1285.577800  	77.957650 
1286.542224  	78.418827 
1287.506649  	78.804965 
1288.471073  	79.298280 
1289.435498  	79.899291 
1290.399922  	80.466310 
1291.364347  	81.002216 
1292.328771  	81.597376 
1293.293195  	82.192178 
1294.257620  	82.754389 
1295.222044  	83.289332 
1296.186469  	83.820215 
1297.150893  	84.398213 
1298.115318  	85.042194 
1299.079742  	85.591534 
1300.044167  	86.119673 
1301.008591  	86.644394 
1301.973016  	87.100736 
1302.937440  	87.454141 
1303.901865  	87.776044 
1304.866289  	88.083630 
1305.830713  	88.316414 
1306.795138  	88.520306 
1307.759562  	88.735159 
1308.723987  	88.992855 
1309.688411  	89.276419 
1310.652836  	89.490537 
1311.617260  	89.636241 
1312.581685  	89.653494 
1313.546109  	89.838410 
1314.510534  	90.079856 
1315.474958  	90.292165 
1316.439382  	90.339762 
1317.403807  	90.368455 
1318.368231  	90.449539 
1319.332656  	90.448316 
1320.297080  	90.660489 
1321.261505  	90.836029 
1322.225929  	90.967192 
1323.190354  	91.000135 
1324.154778  	90.977495 
1325.119203  	90.916551 
1326.083627  	90.803400 
1327.048051  	90.625729 
1328.012476  	90.344306 
1328.976900  	89.910117 
1329.941325  	89.287742 
1330.905749  	88.537155 
1331.870174  	87.608114 
1332.834598  	86.444667 
1333.799023  	85.149286 
1334.763447  	83.799618 
1335.727872  	82.382964 
1336.692296  	80.979964 
1337.656720  	80.017949 
1338.621145  	79.223387 
1339.585569  	78.773417 
1340.549994  	79.263948 
1341.514418  	80.568201 
1342.478843  	81.868336 
1343.443267  	83.166590 
1344.407692  	84.557649 
1345.372116  	85.932073 
1346.336541  	87.164875 
1347.300965  	88.216108 
1348.265389  	89.032353 
1349.229814  	89.615380 
1350.194238  	90.159342 
1351.158663  	90.635032 
1352.123087  	90.928463 
1353.087512  	91.152487 
1354.051936  	91.260594 
1355.016361  	91.233347 
1355.980785  	91.397263 
1356.945210  	91.496863 
1357.909634  	91.420618 
1358.874059  	91.398926 
1359.838483  	91.309477 
1360.802907  	90.863942 
1361.767332  	90.496555 
1362.731756  	89.978593 
1363.696181  	89.788554 
1364.660605  	90.281557 
1365.625030  	90.253887 
1366.589454  	90.034722 
1367.553879  	89.718753 
1368.518303  	89.326050 
1369.482728  	89.235518 
1370.447152  	89.407086 
1371.411576  	89.403406 
1372.376001  	89.347567 
1373.340425  	88.985892 
1374.304850  	88.711497 
1375.269274  	88.989069 
1376.233699  	89.473631 
1377.198123  	89.582196 
1378.162548  	89.453215 
1379.126972  	89.473118 
1380.091397  	89.544852 
1381.055821  	89.640840 
1382.020245  	89.661682 
1382.984670  	89.639219 
1383.949094  	89.613858 
1384.913519  	89.580918 
1385.877943  	89.386245 
1386.842368  	88.846191 
1387.806792  	88.696760 
1388.771217  	89.280956 
1389.735641  	89.545635 
1390.700066  	89.480214 
1391.664490  	89.421646 
1392.628914  	89.351858 
1393.593339  	88.969177 
1394.557763  	88.111402 
1395.522188  	87.800444 
1396.486612  	88.004598 
1397.451037  	87.786096 
1398.415461  	87.133771 
1399.379886  	86.591027 
1400.344310  	86.513211 
1401.308735  	86.250394 
1402.273159  	85.539778 
1403.237583  	84.690957 
1404.202008  	83.533440 
1405.166432  	82.127980 
1406.130857  	81.416077 
1407.095281  	81.019146 
1408.059706  	80.563864 
1409.024130  	80.506956 
1409.988555  	80.849932 
1410.952979  	81.741521 
1411.917404  	82.986661 
1412.881828  	84.665602 
1413.846252  	86.249284 
1414.810677  	87.626154 
1415.775101  	88.578455 
1416.739526  	89.174591 
1417.703950  	89.577500 
1418.668375  	89.768002 
1419.632799  	89.942885 
1420.597224  	91.184219 
1421.561648  	91.744143 
1422.526073  	91.910177 
1423.490497  	91.502279 
1424.454922  	91.336396 
1425.419346  	91.930583 
1426.383770  	92.131778 
1427.348195  	92.042856 
1428.312619  	91.824659 
1429.277044  	91.492867 
1430.241468  	91.134084 
1431.205893  	91.299914 
1432.170317  	91.257715 
1433.134742  	91.031371 
1434.099166  	90.972410 
1435.063591  	90.740791 
1436.028015  	89.946400 
1436.992439  	89.204494 
1437.956864  	90.004568 
1438.921288  	90.411667 
1439.885713  	90.410913 
1440.850137  	90.345826 
1441.814562  	90.291588 
1442.778986  	90.265577 
1443.743411  	90.208047 
1444.707835  	90.127159 
1445.672260  	90.010211 
1446.636684  	89.858376 
1447.601108  	89.356514 
1448.565533  	89.190142 
1449.529957  	89.599959 
1450.494382  	89.684952 
1451.458806  	89.421270 
1452.423231  	89.175552 
1453.387655  	89.330096 
1454.352080  	89.102246 
1455.316504  	88.477308 
1456.280929  	87.963223 
1457.245353  	87.504951 
1458.209777  	87.681546 
1459.174202  	88.331349 
1460.138626  	89.262782 
1461.103051  	89.790929 
1462.067475  	89.917718 
1463.031900  	89.964307 
1463.996324  	89.728936 
1464.960749  	89.151916 
1465.925173  	89.446304 
1466.889598  	89.796312 
1467.854022  	89.757795 
1468.818446  	89.614968 
1469.782871  	89.278791 
1470.747295  	88.732882 
1471.711720  	87.737921 
1472.676144  	87.210808 
1473.640569  	87.839847 
1474.604993  	88.969171 
1475.569418  	89.221047 
1476.533842  	89.105505 
1477.498267  	89.921063 
1478.462691  	90.491122 
1479.427116  	90.707960 
1480.391540  	90.741046 
1481.355964  	90.593113 
1482.320389  	90.964536 
1483.284813  	91.336266 
1484.249238  	91.535686 
1485.213662  	91.553710 
1486.178087  	91.336760 
1487.142511  	90.987633 
1488.106936  	91.089716 
1489.071360  	90.752114 
1490.035785  	90.036392 
1491.000209  	90.675606 
1491.964633  	91.623768 
1492.929058  	91.985117 
1493.893482  	91.973905 
1494.857907  	91.732054 
1495.822331  	91.052922 
1496.786756  	90.496956 
1497.751180  	90.767665 
1498.715605  	90.320171 
1499.680029  	90.073399 
1500.644454  	90.044071 
1501.608878  	89.372952 
1502.573302  	88.667709 
1503.537727  	88.138257 
1504.502151  	87.432446 
1505.466576  	86.346014 
1506.431000  	84.744775 
1507.395425  	85.431056 
1508.359849  	87.399076 
1509.324274  	88.772558 
1510.288698  	89.909418 
1511.253123  	90.813010 
1512.217547  	90.848148 
1513.181971  	91.233691 
1514.146396  	91.504105 
1515.110820  	91.056426 
1516.075245  	90.480647 
1517.039669  	89.653123 
1518.004094  	90.462672 
1518.968518  	91.210643 
1519.932943  	90.717519 
1520.897367  	89.312622 
1521.861792  	89.299859 
1522.826216  	90.070018 
1523.790640  	90.745125 
1524.755065  	90.582015 
1525.719489  	90.265097 
1526.683914  	90.604672 
1527.648338  	90.463270 
1528.612763  	90.671533 
1529.577187  	91.269311 
1530.541612  	91.471749 
1531.506036  	91.069717 
1532.470461  	90.772117 
1533.434885  	90.181526 
1534.399309  	90.337816 
1535.363734  	91.007026 
1536.328158  	91.285828 
1537.292583  	91.286993 
1538.257007  	90.649828 
1539.221432  	88.972989 
1540.185856  	88.711789 
1541.150281  	89.610918 
1542.114705  	89.697994 
1543.079130  	89.839542 
1544.043554  	90.024712 
1545.007979  	89.901502 
1545.972403  	90.501771 
1546.936827  	91.283593 
1547.901252  	91.449972 
1548.865676  	91.179079 
1549.830101  	90.205967 
1550.794525  	90.372994 
1551.758950  	91.136502 
1552.723374  	91.196247 
1553.687799  	90.752808 
1554.652223  	90.081102 
1555.616648  	90.557661 
1556.581072  	90.664002 
1557.545496  	89.898870 
1558.509921  	87.548172 
1559.474345  	87.228549 
1560.438770  	88.932923 
1561.403194  	90.393846 
1562.367619  	90.899542 
1563.332043  	91.014882 
1564.296468  	90.778308 
1565.260892  	90.520811 
1566.225317  	90.798993 
1567.189741  	90.903721 
1568.154165  	90.632596 
1569.118590  	89.747527 
1570.083014  	89.420611 
1571.047439  	90.215764 
1572.011863  	90.413564 
1572.976288  	90.290320 
1573.940712  	90.077716 
1574.905137  	89.680696 
1575.869561  	88.897501 
1576.833986  	88.358289 
1577.798410  	88.957353 
1578.762834  	89.434819 
1579.727259  	89.702416 
1580.691683  	89.929238 
1581.656108  	90.122993 
1582.620532  	90.330359 
1583.584957  	90.528488 
1584.549381  	90.706356 
1585.513806  	90.792987 
1586.478230  	90.864087 
1587.442655  	90.930949 
1588.407079  	90.970254 
1589.371503  	90.897067 
1590.335928  	90.826088 
1591.300352  	90.814427 
1592.264777  	90.838147 
1593.229201  	90.829495 
1594.193626  	90.652365 
1595.158050  	90.586856 
1596.122475  	90.644279 
1597.086899  	90.641107 
1598.051324  	90.660920 
1599.015748  	90.625951 
1599.980173  	90.587945 
1600.944597  	90.437959 
1601.909021  	90.333186 
1602.873446  	90.182288 
1603.837870  	90.157316 
1604.802295  	90.225185 
1605.766719  	90.146770 
1606.731144  	89.905357 
1607.695568  	89.745632 
1608.659993  	89.675370 
1609.624417  	89.465391 
1610.588842  	89.575916 
1611.553266  	89.599674 
1612.517690  	89.484489 
1613.482115  	89.430583 
1614.446539  	89.346233 
1615.410964  	89.068785 
1616.375388  	88.437317 
1617.339813  	88.406854 
1618.304237  	89.113766 
1619.268662  	89.395500 
1620.233086  	89.396802 
1621.197511  	89.367409 
1622.161935  	89.117393 
1623.126359  	88.509185 
1624.090784  	88.542889 
1625.055208  	89.057961 
1626.019633  	89.159035 
1626.984057  	88.985951 
1627.948482  	88.615964 
1628.912906  	88.841173 
1629.877331  	89.044107 
1630.841755  	89.031418 
1631.806180  	88.966014 
1632.770604  	88.876353 
1633.735028  	88.625836 
1634.699453  	87.980507 
1635.663877  	86.875952 
1636.628302  	87.446467 
1637.592726  	87.637297 
1638.557151  	88.100121 
1639.521575  	88.341275 
1640.486000  	88.302766 
1641.450424  	88.269582 
1642.414849  	88.174936 
1643.379273  	88.128737 
1644.343697  	87.992453 
1645.308122  	87.420120 
1646.272546  	86.433308 
1647.236971  	86.113027 
1648.201395  	86.342780 
1649.165820  	87.057293 
1650.130244  	87.330242 
1651.094669  	87.100119 
1652.059093  	86.428281 
1653.023518  	84.428321 
1653.987942  	84.346783 
1654.952366  	85.796875 
1655.916791  	86.571569 
1656.881215  	86.651116 
1657.845640  	86.657644 
1658.810064  	86.616379 
1659.774489  	86.482074 
1660.738913  	86.146526 
1661.703338  	85.741270 
1662.667762  	85.180461 
1663.632187  	85.170719 
1664.596611  	85.303212 
1665.561036  	85.164452 
1666.525460  	84.930164 
1667.489884  	84.500364 
1668.454309  	83.601067 
1669.418733  	82.883236 
1670.383158  	83.150441 
1671.347582  	82.940526 
1672.312007  	82.929306 
1673.276431  	83.049589 
1674.240856  	82.629888 
1675.205280  	81.732021 
1676.169705  	81.662851 
1677.134129  	81.914021 
1678.098553  	81.715018 
1679.062978  	81.204400 
1680.027402  	80.222942 
1680.991827  	79.912613 
1681.956251  	79.919283 
1682.920676  	79.121694 
1683.885100  	76.984588 
1684.849525  	76.706947 
1685.813949  	78.433574 
1686.778374  	78.699601 
1687.742798  	78.181898 
1688.707222  	77.581273 
1689.671647  	77.281856 
1690.636071  	76.889539 
1691.600496  	76.578191 
1692.564920  	76.010218 
1693.529345  	75.197427 
1694.493769  	74.247012 
1695.458194  	72.832520 
1696.422618  	71.138887 
1697.387043  	70.743479 
1698.351467  	70.125984 
1699.315891  	69.016946 
1700.280316  	66.511321 
1701.244740  	65.422478 
1702.209165  	65.391232 
1703.173589  	64.501325 
1704.138014  	63.012401 
1705.102438  	61.445060 
1706.066863  	60.309728 
1707.031287  	59.042246 
1707.995712  	58.318218 
1708.960136  	57.577155 
1709.924560  	56.655146 
1710.888985  	56.007068 
1711.853409  	55.876932 
1712.817834  	55.755999 
1713.782258  	55.617934 
1714.746683  	55.639553 
1715.711107  	56.538631 
1716.675532  	57.251029 
1717.639956  	57.545585 
1718.604381  	59.061670 
1719.568805  	61.180237 
1720.533230  	62.606099 
1721.497654  	63.794196 
1722.462078  	64.876741 
1723.426503  	65.847163 
1724.390927  	67.135348 
1725.355352  	68.368170 
1726.319776  	69.492961 
1727.284201  	70.639571 
1728.248625  	71.772352 
1729.213050  	72.503955 
1730.177474  	73.277973 
1731.141899  	74.950806 
1732.106323  	76.002310 
1733.070747  	76.330965 
1734.035172  	76.502914 
1734.999596  	78.969716 
1735.964021  	80.943790 
1736.928445  	82.099907 
1737.892870  	83.236008 
1738.857294  	84.071710 
1739.821719  	84.760184 
1740.786143  	86.429578 
1741.750568  	87.669736 
1742.714992  	88.188089 
1743.679416  	88.677409 
1744.643841  	89.884077 
1745.608265  	90.868353 
1746.572690  	91.340708 
1747.537114  	91.578197 
1748.501539  	91.760922 
1749.465963  	92.293339 
1750.430388  	92.767087 
1751.394812  	92.580178 
1752.359237  	93.371767 
1753.323661  	94.118615 
1754.288085  	94.432828 
1755.252510  	94.538343 
1756.216934  	94.225558 
1757.181359  	93.890691 
1758.145783  	94.256880 
1759.110208  	94.573315 
1760.074632  	94.707270 
1761.039057  	94.390756 
1762.003481  	93.782060 
1762.967906  	94.338250 
1763.932330  	94.805213 
1764.896754  	94.908120 
1765.861179  	94.887019 
1766.825603  	94.797934 
1767.790028  	94.301541 
1768.754452  	94.073560 
1769.718877  	94.586238 
1770.683301  	94.452499 
1771.647726  	93.777111 
1772.612150  	93.364179 
1773.576575  	93.941548 
1774.540999  	94.463024 
1775.505423  	94.346767 
1776.469848  	94.497196 
1777.434272  	94.772824 
1778.398697  	94.673900 
1779.363121  	94.504642 
1780.327546  	94.259654 
1781.291970  	94.165877 
1782.256395  	94.533138 
1783.220819  	94.696447 
1784.185244  	94.526175 
1785.149668  	94.188913 
1786.114093  	94.463387 
1787.078517  	94.703626 
1788.042941  	94.688942 
1789.007366  	94.584700 
1789.971790  	94.411344 
1790.936215  	93.909507 
1791.900639  	93.587572 
1792.865064  	93.439564 
1793.829488  	93.963663 
1794.793913  	94.297313 
1795.758337  	93.991109 
1796.722762  	93.953474 
1797.687186  	94.315087 
1798.651610  	94.310302 
1799.616035  	93.938731 
1800.580459  	93.915651 
1801.544884  	93.864996 
1802.509308  	93.744459 
1803.473733  	94.153206 
1804.438157  	94.447065 
1805.402582  	94.401223 
1806.367006  	94.310167 
1807.331431  	94.170275 
1808.295855  	94.132965 
1809.260279  	94.280066 
1810.224704  	93.975712 
1811.189128  	93.721834 
1812.153553  	93.946180 
1813.117977  	94.171552 
1814.082402  	94.342256 
1815.046826  	94.392003 
1816.011251  	94.388760 
1816.975675  	94.221039 
1817.940100  	94.122127 
1818.904524  	94.286266 
1819.868948  	94.285120 
1820.833373  	94.184842 
1821.797797  	94.173459 
1822.762222  	94.105745 
1823.726646  	94.086279 
1824.691071  	93.741369 
1825.655495  	93.334104 
1826.619920  	93.920976 
1827.584344  	94.178747 
1828.548769  	93.930789 
1829.513193  	93.280295 
1830.477617  	93.282203 
1831.442042  	93.937205 
1832.406466  	94.203280 
1833.370891  	94.181786 
1834.335315  	94.273063 
1835.299740  	94.329026 
1836.264164  	94.237346 
1837.228589  	93.946069 
1838.193013  	94.054578 
1839.157438  	94.257790 
1840.121862  	94.365103 
1841.086287  	94.366039 
1842.050711  	94.157485 
1843.015135  	93.970842 
1843.979560  	93.558574 
1844.943984  	93.450830 
1845.908409  	94.001682 
1846.872833  	94.192152 
1847.837258  	93.960127 
1848.801682  	94.049945 
1849.766107  	94.330055 
1850.730531  	94.481215 
1851.694956  	94.519657 
1852.659380  	94.487891 
1853.623804  	94.535860 
1854.588229  	94.514870 
1855.552653  	94.509923 
1856.517078  	94.441448 
1857.481502  	94.385260 
1858.445927  	94.317838 
1859.410351  	94.301541 
1860.374776  	94.381375 
1861.339200  	94.368883 
1862.303625  	94.383178 
1863.268049  	94.432615 
1864.232473  	94.430986 
1865.196898  	94.410784 
1866.161322  	94.197260 
1867.125747  	94.076210 
1868.090171  	93.829591 
1869.054596  	93.499136 
1870.019020  	93.641229 
1870.983445  	94.064956 
1871.947869  	94.357749 
1872.912294  	94.518350 
1873.876718  	94.497208 
1874.841142  	94.488025 
1875.805567  	94.480609 
1876.769991  	94.454032 
1877.734416  	94.468644 
1878.698840  	94.471533 
1879.663265  	94.402801 
1880.627689  	94.415735 
1881.592114  	94.368314 
1882.556538  	94.336891 
1883.520963  	94.422635 
1884.485387  	94.385172 
1885.449811  	94.289451 
1886.414236  	94.431320 
1887.378660  	94.482668 
1888.343085  	94.324404 
1889.307509  	93.853413 
1890.271934  	93.783200 
1891.236358  	94.171678 
1892.200783  	94.369739 
1893.165207  	94.401114 
1894.129632  	94.353148 
1895.094056  	94.054084 
1896.058480  	94.035678 
1897.022905  	94.263603 
1897.987329  	94.256569 
1898.951754  	94.196782 
1899.916178  	94.255386 
1900.880603  	94.292698 
1901.845027  	94.211834 
1902.809452  	94.217522 
1903.773876  	94.238294 
1904.738301  	94.191939 
1905.702725  	94.205657 
1906.667150  	94.236720 
1907.631574  	94.132176 
1908.595998  	94.063967 
1909.560423  	93.977506 
1910.524847  	93.967128 
1911.489272  	94.229317 
1912.453696  	94.216454 
1913.418121  	94.164935 
1914.382545  	94.140830 
1915.346970  	94.159438 
1916.311394  	94.176550 
1917.275819  	93.930911 
1918.240243  	93.566495 
1919.204667  	93.986678 
1920.169092  	94.235109 
1921.133516  	94.176172 
1922.097941  	93.846224 
1923.062365  	93.597960 
1924.026790  	94.021958 
1924.991214  	94.215958 
1925.955639  	94.084454 
1926.920063  	94.089435 
1927.884488  	94.067065 
1928.848912  	94.124012 
1929.813336  	94.156072 
1930.777761  	94.209093 
1931.742185  	94.132186 
1932.706610  	94.129488 
1933.671034  	94.148529 
1934.635459  	94.120683 
1935.599883  	94.069489 
1936.564308  	94.118015 
1937.528732  	94.003674 
1938.493157  	94.049221 
1939.457581  	94.232034 
1940.422005  	94.127105 
1941.386430  	93.856785 
1942.350854  	93.269397 
1943.315279  	93.156780 
1944.279703  	93.700427 
1945.244128  	93.763713 
1946.208552  	93.745325 
1947.172977  	93.800626 
1948.137401  	93.932483 
1949.101826  	93.957839 
1950.066250  	93.998005 
1951.030674  	93.932351 
1951.995099  	93.952601 
1952.959523  	93.963010 
1953.923948  	93.777107 
1954.888372  	93.768145 
1955.852797  	93.887045 
1956.817221  	94.052614 
1957.781646  	94.239085 
1958.746070  	94.190341 
1959.710495  	94.095220 
1960.674919  	93.984670 
1961.639344  	93.919220 
1962.603768  	93.685666 
1963.568192  	93.791113 
1964.532617  	94.197299 
1965.497041  	94.312635 
1966.461466  	94.115255 
1967.425890  	93.987586 
1968.390315  	94.361031 
1969.354739  	94.592296 
1970.319164  	94.185298 
1971.283588  	94.030576 
1972.248013  	94.131845 
1973.212437  	94.323229 
1974.176861  	94.449554 
1975.141286  	94.215355 
1976.105710  	94.226180 
1977.070135  	94.594182 
1978.034559  	94.544750 
1978.998984  	93.875798 
1979.963408  	93.599346 
1980.927833  	93.716941 
1981.892257  	93.598042 
1982.856682  	93.726088 
1983.821106  	93.967053 
1984.785530  	94.055723 
1985.749955  	93.996558 
1986.714379  	94.092092 
1987.678804  	94.125236 
1988.643228  	94.077639 
1989.607653  	94.131719 
1990.572077  	94.008719 
1991.536502  	93.674461 
1992.500926  	93.643290 
1993.465351  	93.969888 
1994.429775  	94.031310 
1995.394199  	93.831467 
1996.358624  	93.804346 
1997.323048  	93.866737 
1998.287473  	94.034078 
1999.251897  	94.248986 
2000.216322  	94.493292 
2001.180746  	94.588790 
2002.145171  	94.737280 
2003.109595  	95.014413 
2004.074020  	94.965276 
2005.038444  	94.965832 
2006.002868  	94.778877 
2006.967293  	94.492845 
2007.931717  	94.418468 
2008.896142  	94.364260 
2009.860566  	94.479078 
2010.824991  	94.452182 
2011.789415  	94.356555 
2012.753840  	94.213665 
2013.718264  	94.146881 
2014.682689  	94.313048 
2015.647113  	94.741261 
2016.611537  	94.643718 
2017.575962  	94.320030 
2018.540386  	94.210029 
2019.504811  	94.391473 
2020.469235  	94.547307 
2021.433660  	94.380103 
2022.398084  	94.062424 
2023.362509  	94.330410 
2024.326933  	94.647664 
2025.291358  	94.509968 
2026.255782  	94.420912 
2027.220207  	94.392042 
2028.184631  	94.398348 
2029.149055  	94.864094 
2030.113480  	94.824903 
2031.077904  	94.777302 
2032.042329  	94.577604 
2033.006753  	94.494605 
2033.971178  	94.621433 
2034.935602  	94.632426 
2035.900027  	94.816623 
2036.864451  	94.836200 
2037.828876  	94.510062 
2038.793300  	94.397819 
2039.757724  	94.275705 
2040.722149  	94.129064 
2041.686573  	94.127433 
2042.650998  	94.025263 
2043.615422  	93.760574 
2044.579847  	93.885830 
2045.544271  	94.219555 
2046.508696  	94.470894 
2047.473120  	94.301370 
2048.437545  	94.206901 
2049.401969  	94.332836 
2050.366393  	93.984738 
2051.330818  	93.638343 
2052.295242  	93.972656 
2053.259667  	94.199580 
2054.224091  	94.014697 
2055.188516  	93.737373 
2056.152940  	93.828399 
2057.117365  	93.832751 
2058.081789  	93.825016 
2059.046214  	93.818814 
2060.010638  	93.824612 
2060.975062  	93.695291 
2061.939487  	93.791745 
2062.903911  	93.856162 
2063.868336  	93.766113 
2064.832760  	93.630255 
2065.797185  	93.724718 
2066.761609  	93.880894 
2067.726034  	93.948048 
2068.690458  	93.860897 
2069.654883  	93.913307 
2070.619307  	93.930177 
2071.583731  	93.855641 
2072.548156  	93.892580 
2073.512580  	93.789882 
2074.477005  	93.647291 
2075.441429  	93.751109 
2076.405854  	93.724748 
2077.370278  	93.610829 
2078.334703  	93.718822 
2079.299127  	93.880555 
2080.263552  	93.821408 
2081.227976  	93.773104 
2082.192401  	93.766473 
2083.156825  	93.739539 
2084.121249  	93.780800 
2085.085674  	93.886689 
2086.050098  	93.888722 
2087.014523  	93.826522 
2087.978947  	93.821665 
2088.943372  	93.771628 
2089.907796  	93.728883 
2090.872221  	93.760392 
2091.836645  	93.985766 
2092.801070  	94.054514 
2093.765494  	94.080633 
2094.729918  	94.014090 
2095.694343  	93.858410 
2096.658767  	93.758121 
2097.623192  	93.693218 
2098.587616  	93.661798 
2099.552041  	93.809137 
2100.516465  	93.902440 
2101.480890  	93.883688 
2102.445314  	93.837037 
2103.409739  	93.820021 
2104.374163  	93.783662 
2105.338587  	93.711377 
2106.303012  	93.634770 
2107.267436  	93.587856 
2108.231861  	93.572762 
2109.196285  	93.649270 
2110.160710  	93.798077 
2111.125134  	93.830797 
2112.089559  	93.789852 
2113.053983  	93.806797 
2114.018408  	93.802683 
2114.982832  	93.779507 
2115.947256  	93.759559 
2116.911681  	93.829934 
2117.876105  	94.027834 
2118.840530  	94.046833 
2119.804954  	94.021192 
2120.769379  	93.967002 
2121.733803  	94.017027 
2122.698228  	94.060489 
2123.662652  	94.066516 
2124.627077  	94.006474 
2125.591501  	94.044623 
2126.555925  	94.175624 
2127.520350  	94.250570 
2128.484774  	94.404211 
2129.449199  	94.585420 
2130.413623  	94.589589 
2131.378048  	94.531145 
2132.342472  	94.622109 
2133.306897  	94.797241 
2134.271321  	94.610503 
2135.235746  	94.252729 
2136.200170  	94.096975 
2137.164594  	94.348438 
2138.129019  	94.492729 
2139.093443  	94.567166 
2140.057868  	94.657871 
2141.022292  	94.586020 
2141.986717  	94.566806 
2142.951141  	94.517261 
2143.915566  	94.549768 
2144.879990  	94.416122 
2145.844415  	94.507066 
2146.808839  	94.855543 
2147.773264  	94.761746 
2148.737688  	94.759269 
2149.702112  	94.889740 
2150.666537  	94.862508 
2151.630961  	94.961065 
2152.595386  	95.343148 
2153.559810  	95.148203 
2154.524235  	94.928505 
2155.488659  	95.332552 
2156.453084  	95.723404 
2157.417508  	95.718668 
2158.381933  	95.380587 
2159.346357  	94.577737 
2160.310781  	94.122505 
2161.275206  	93.910519 
2162.239630  	94.184905 
2163.204055  	94.571148 
2164.168479  	94.421275 
2165.132904  	93.831658 
2166.097328  	93.859616 
2167.061753  	94.405326 
2168.026177  	94.536026 
2168.990602  	94.307600 
2169.955026  	94.302020 
2170.919450  	94.600671 
2171.883875  	94.431637 
2172.848299  	94.293635 
2173.812724  	94.465098 
2174.777148  	94.696045 
2175.741573  	94.724261 
2176.705997  	94.334210 
2177.670422  	94.270084 
2178.634846  	94.550176 
2179.599271  	94.651958 
2180.563695  	94.543312 
2181.528119  	94.562989 
2182.492544  	94.429844 
2183.456968  	93.995514 
2184.421393  	93.691160 
2185.385817  	94.113191 
2186.350242  	94.295040 
2187.314666  	93.896636 
2188.279091  	93.724617 
2189.243515  	93.902495 
2190.207940  	94.070327 
2191.172364  	94.439797 
2192.136788  	94.522613 
2193.101213  	94.498533 
2194.065637  	94.346883 
2195.030062  	94.056093 
2195.994486  	93.803189 
2196.958911  	94.027496 
2197.923335  	94.257382 
2198.887760  	94.148168 
2199.852184  	94.132102 
2200.816609  	94.166028 
2201.781033  	94.208835 
2202.745458  	94.356216 
2203.709882  	94.337096 
2204.674306  	94.101973 
2205.638731  	94.028061 
2206.603155  	93.961383 
2207.567580  	93.974145 
2208.532004  	94.080025 
2209.496429  	94.113395 
2210.460853  	94.087845 
2211.425278  	94.120811 
2212.389702  	94.131220 
2213.354127  	93.876974 
2214.318551  	93.791442 
2215.282975  	93.885504 
2216.247400  	94.037794 
2217.211824  	94.201234 
2218.176249  	94.366800 
2219.140673  	94.406358 
2220.105098  	94.187673 
2221.069522  	93.941140 
2222.033947  	93.942664 
2222.998371  	94.052503 
2223.962796  	94.057414 
2224.927220  	94.121432 
2225.891644  	94.019874 
2226.856069  	93.896089 
2227.820493  	93.980240 
2228.784918  	94.055286 
2229.749342  	94.007097 
2230.713767  	93.916691 
2231.678191  	93.756438 
2232.642616  	93.771605 
2233.607040  	93.982011 
2234.571465  	93.945130 
2235.535889  	93.835476 
2236.500313  	93.903398 
2237.464738  	93.925017 
2238.429162  	93.892774 
2239.393587  	93.903697 
2240.358011  	93.881502 
2241.322436  	93.923144 
2242.286860  	93.999946 
2243.251285  	94.074887 
2244.215709  	94.115575 
2245.180134  	94.015839 
2246.144558  	93.920327 
2247.108982  	93.884052 
2248.073407  	93.933834 
2249.037831  	93.949242 
2250.002256  	93.870420 
2250.966680  	93.867648 
2251.931105  	93.918700 
2252.895529  	93.943863 
2253.859954  	93.886633 
2254.824378  	93.807685 
2255.788803  	93.759897 
2256.753227  	93.741305 
2257.717651  	93.848901 
2258.682076  	93.788248 
2259.646500  	93.621904 
2260.610925  	93.608229 
2261.575349  	93.684712 
2262.539774  	93.720230 
2263.504198  	93.716732 
2264.468623  	93.683890 
2265.433047  	93.730281 
2266.397472  	93.748000 
2267.361896  	93.710324 
2268.326321  	93.726535 
2269.290745  	93.654817 
2270.255169  	93.696134 
2271.219594  	93.839412 
2272.184018  	93.782512 
2273.148443  	93.584145 
2274.112867  	93.533419 
2275.077292  	93.570325 
2276.041716  	93.577615 
2277.006141  	93.642222 
2277.970565  	93.686200 
2278.934990  	93.619334 
2279.899414  	93.531734 
2280.863838  	93.556855 
2281.828263  	93.571418 
2282.792687  	93.495833 
2283.757112  	93.456262 
2284.721536  	93.405819 
2285.685961  	93.403051 
2286.650385  	93.381762 
2287.614810  	93.367051 
2288.579234  	93.341301 
2289.543659  	93.340359 
2290.508083  	93.408320 
2291.472507  	93.459055 
2292.436932  	93.510071 
2293.401356  	93.554478 
2294.365781  	93.509674 
2295.330205  	93.504753 
2296.294630  	93.526825 
2297.259054  	93.521021 
2298.223479  	93.499166 
2299.187903  	93.514418 
2300.152328  	93.574795 
2301.116752  	93.623964 
2302.081176  	93.658251 
2303.045601  	93.621154 
2304.010025  	93.612874 
2304.974450  	93.574883 
2305.938874  	93.497247 
2306.903299  	93.514820 
2307.867723  	93.597019 
2308.832148  	93.630996 
2309.796572  	93.588303 
2310.760997  	93.579240 
2311.725421  	93.612741 
2312.689845  	93.683900 
2313.654270  	93.752658 
2314.618694  	93.720082 
2315.583119  	93.705789 
2316.547543  	93.792508 
2317.511968  	93.837581 
2318.476392  	93.784868 
2319.440817  	93.743647 
2320.405241  	93.740674 
2321.369666  	93.862151 
2322.334090  	93.884725 
2323.298515  	93.794504 
2324.262939  	93.689178 
2325.227363  	94.010712 
2326.191788  	94.351926 
2327.156212  	94.579326 
2328.120637  	94.559611 
2329.085061  	94.567777 
2330.049486  	94.606528 
2331.013910  	94.578889 
2331.978335  	94.563810 
2332.942759  	94.668685 
2333.907184  	94.725582 
2334.871608  	94.756563 
2335.836032  	94.814520 
2336.800457  	94.937412 
2337.764881  	94.890340 
2338.729306  	94.848432 
2339.693730  	94.885862 
2340.658155  	94.977814 
2341.622579  	94.974889 
2342.587004  	94.942263 
2343.551428  	94.823992 
2344.515853  	94.705374 
2345.480277  	94.625972 
2346.444701  	94.537392 
2347.409126  	94.374702 
2348.373550  	94.169806 
2349.337975  	94.122972 
2350.302399  	94.307305 
2351.266824  	94.563268 
2352.231248  	94.808512 
2353.195673  	94.867361 
2354.160097  	94.910661 
2355.124522  	95.006346 
2356.088946  	95.165434 
2357.053370  	95.231591 
2358.017795  	95.277283 
2358.982219  	95.234057 
2359.946644  	95.374117 
2360.911068  	95.401236 
2361.875493  	95.365383 
2362.839917  	95.368425 
2363.804342  	95.377315 
2364.768766  	95.331641 
2365.733191  	95.382138 
2366.697615  	95.342734 
2367.662039  	95.190973 
2368.626464  	94.924818 
2369.590888  	94.737964 
2370.555313  	94.563913 
2371.519737  	94.411218 
2372.484162  	94.329787 
2373.448586  	94.350785 
2374.413011  	94.256358 
2375.377435  	94.035216 
2376.341860  	93.873075 
2377.306284  	93.896959 
2378.270708  	93.890623 
2379.235133  	93.786126 
2380.199557  	93.715175 
2381.163982  	93.716546 
2382.128406  	93.733952 
2383.092831  	93.763926 
2384.057255  	93.735171 
2385.021680  	93.743361 
2385.986104  	93.749785 
2386.950529  	93.775540 
2387.914953  	93.835192 
2388.879378  	93.830028 
2389.843802  	93.853408 
2390.808226  	93.844547 
2391.772651  	93.810871 
2392.737075  	93.828811 
2393.701500  	93.839189 
2394.665924  	93.848156 
2395.630349  	93.848792 
2396.594773  	93.810196 
2397.559198  	93.785432 
2398.523622  	93.853659 
2399.488047  	93.925292 
2400.452471  	93.883449 
2401.416895  	93.845685 
2402.381320  	93.906431 
2403.345744  	93.963419 
2404.310169  	93.935434 
2405.274593  	93.855876 
2406.239018  	93.832320 
2407.203442  	93.847996 
2408.167867  	93.825610 
2409.132291  	93.826973 
2410.096716  	93.825831 
2411.061140  	93.768811 
2412.025564  	93.758689 
2412.989989  	93.786334 
2413.954413  	93.806347 
2414.918838  	93.885851 
2415.883262  	93.898355 
2416.847687  	93.848320 
2417.812111  	93.884886 
2418.776536  	93.875722 
2419.740960  	93.874289 
2420.705385  	93.898047 
2421.669809  	93.853177 
2422.634233  	93.865666 
2423.598658  	93.876965 
2424.563082  	93.887220 
2425.527507  	93.950176 
2426.491931  	93.938551 
2427.456356  	93.884833 
2428.420780  	93.902127 
2429.385205  	93.914175 
2430.349629  	93.892693 
2431.314054  	93.844879 
2432.278478  	93.877431 
2433.242902  	93.916604 
2434.207327  	93.831521 
2435.171751  	93.809524 
2436.136176  	93.877661 
2437.100600  	93.952856 
2438.065025  	93.933036 
2439.029449  	93.943465 
2439.993874  	93.929254 
2440.958298  	93.938992 
2441.922723  	93.897876 
2442.887147  	93.877935 
2443.851572  	93.918584 
2444.815996  	93.963339 
2445.780420  	93.922224 
2446.744845  	93.826869 
2447.709269  	93.820393 
2448.673694  	93.883847 
2449.638118  	93.909371 
2450.602543  	93.865577 
2451.566967  	93.783980 
2452.531392  	93.760633 
2453.495816  	93.778729 
2454.460241  	93.805326 
2455.424665  	93.862093 
2456.389089  	93.886749 
2457.353514  	93.893305 
2458.317938  	93.928838 
2459.282363  	93.915243 
2460.246787  	93.946129 
2461.211212  	93.959312 
2462.175636  	93.929511 
2463.140061  	93.925813 
2464.104485  	93.915192 
2465.068910  	93.883489 
2466.033334  	93.879815 
2466.997758  	93.944453 
2467.962183  	93.980080 
2468.926607  	93.967220 
2469.891032  	93.927783 
2470.855456  	93.916339 
2471.819881  	93.938489 
2472.784305  	93.965458 
2473.748730  	93.965365 
2474.713154  	93.992351 
2475.677579  	94.007487 
2476.642003  	93.986430 
2477.606427  	93.930407 
2478.570852  	93.914563 
2479.535276  	93.855746 
2480.499701  	93.824571 
2481.464125  	93.875516 
2482.428550  	93.929681 
2483.392974  	93.961347 
2484.357399  	93.981493 
2485.321823  	93.940940 
2486.286248  	93.828497 
2487.250672  	93.801306 
2488.215096  	93.874744 
2489.179521  	93.895746 
2490.143945  	93.861502 
2491.108370  	93.864795 
2492.072794  	93.895425 
2493.037219  	93.894162 
2494.001643  	93.874108 
2494.966068  	93.871560 
2495.930492  	93.952632 
2496.894917  	93.972247 
2497.859341  	93.928957 
2498.823765  	93.889063 
2499.788190  	93.855914 
2500.752614  	93.825749 
2501.717039  	93.816717 
2502.681463  	93.842661 
2503.645888  	93.851318 
2504.610312  	93.810778 
2505.574737  	93.800445 
2506.539161  	93.866724 
2507.503586  	93.910862 
2508.468010  	93.882675 
2509.432435  	93.846612 
2510.396859  	93.809308 
2511.361283  	93.790311 
2512.325708  	93.766227 
2513.290132  	93.812772 
2514.254557  	93.910125 
2515.218981  	93.919166 
2516.183406  	93.853500 
2517.147830  	93.870548 
2518.112255  	93.812904 
2519.076679  	93.801235 
2520.041104  	93.850400 
2521.005528  	93.833508 
2521.969952  	93.722917 
2522.934377  	93.709998 
2523.898801  	93.812271 
2524.863226  	93.910701 
2525.827650  	93.887401 
2526.792075  	93.830849 
2527.756499  	93.814865 
2528.720924  	93.798013 
2529.685348  	93.774373 
2530.649773  	93.832927 
2531.614197  	93.904600 
2532.578621  	93.885121 
2533.543046  	93.843888 
2534.507470  	93.854530 
2535.471895  	93.796825 
2536.436319  	93.750154 
2537.400744  	93.813088 
2538.365168  	93.846922 
2539.329593  	93.856331 
2540.294017  	93.834373 
2541.258442  	93.833690 
2542.222866  	93.875206 
2543.187290  	93.844663 
2544.151715  	93.831899 
2545.116139  	93.854160 
2546.080564  	93.868849 
2547.044988  	93.821348 
2548.009413  	93.745576 
2548.973837  	93.770079 
2549.938262  	93.808544 
2550.902686  	93.792568 
2551.867111  	93.789427 
2552.831535  	93.770150 
2553.795959  	93.778081 
2554.760384  	93.791339 
2555.724808  	93.763999 
2556.689233  	93.721267 
2557.653657  	93.705409 
2558.618082  	93.702712 
2559.582506  	93.779203 
2560.546931  	93.791658 
2561.511355  	93.723266 
2562.475780  	93.737857 
2563.440204  	93.751734 
2564.404629  	93.782765 
2565.369053  	93.831091 
2566.333477  	93.819756 
2567.297902  	93.828179 
2568.262326  	93.810084 
2569.226751  	93.726123 
2570.191175  	93.696294 
2571.155600  	93.751066 
2572.120024  	93.802771 
2573.084449  	93.838059 
2574.048873  	93.782069 
2575.013298  	93.691336 
2575.977722  	93.662726 
2576.942146  	93.744624 
2577.906571  	93.806384 
2578.870995  	93.804297 
2579.835420  	93.774831 
2580.799844  	93.752399 
2581.764269  	93.696266 
2582.728693  	93.739308 
2583.693118  	93.757106 
2584.657542  	93.732352 
2585.621967  	93.766062 
2586.586391  	93.746030 
2587.550815  	93.746483 
2588.515240  	93.753966 
2589.479664  	93.736652 
2590.444089  	93.722536 
2591.408513  	93.757182 
2592.372938  	93.807598 
2593.337362  	93.793601 
2594.301787  	93.764509 
2595.266211  	93.722626 
2596.230636  	93.752616 
2597.195060  	93.821987 
2598.159484  	93.822643 
2599.123909  	93.835030 
2600.088333  	93.858600 
2601.052758  	93.772704 
2602.017182  	93.730135 
2602.981607  	93.746803 
2603.946031  	93.751510 
2604.910456  	93.754333 
2605.874880  	93.753836 
2606.839305  	93.727087 
2607.803729  	93.728313 
2608.768153  	93.747982 
2609.732578  	93.720525 
2610.697002  	93.720880 
2611.661427  	93.746997 
2612.625851  	93.761895 
2613.590276  	93.774218 
2614.554700  	93.761257 
2615.519125  	93.731827 
2616.483549  	93.735961 
2617.447974  	93.666559 
2618.412398  	93.666352 
2619.376822  	93.692150 
2620.341247  	93.696813 
2621.305671  	93.688289 
2622.270096  	93.668394 
2623.234520  	93.671406 
2624.198945  	93.666152 
2625.163369  	93.688358 
2626.127794  	93.679228 
2627.092218  	93.633364 
2628.056643  	93.636114 
2629.021067  	93.643838 
2629.985492  	93.648782 
2630.949916  	93.730428 
2631.914340  	93.743585 
2632.878765  	93.674163 
2633.843189  	93.693434 
2634.807614  	93.716537 
2635.772038  	93.719348 
2636.736463  	93.690669 
2637.700887  	93.661795 
2638.665312  	93.678827 
2639.629736  	93.701702 
2640.594161  	93.719832 
2641.558585  	93.732814 
2642.523009  	93.717600 
2643.487434  	93.731996 
2644.451858  	93.753570 
2645.416283  	93.730317 
2646.380707  	93.743507 
2647.345132  	93.762371 
2648.309556  	93.768743 
2649.273981  	93.756767 
2650.238405  	93.752848 
2651.202830  	93.751506 
2652.167254  	93.758901 
2653.131678  	93.755910 
2654.096103  	93.735833 
2655.060527  	93.740961 
2656.024952  	93.744577 
2656.989376  	93.742250 
2657.953801  	93.745600 
2658.918225  	93.766070 
2659.882650  	93.766005 
2660.847074  	93.759280 
2661.811499  	93.788373 
2662.775923  	93.809441 
2663.740347  	93.831948 
2664.704772  	93.836849 
2665.669196  	93.879395 
2666.633621  	93.882832 
2667.598045  	93.866982 
2668.562470  	93.858299 
2669.526894  	93.853138 
2670.491319  	93.842909 
2671.455743  	93.881046 
2672.420168  	93.903036 
2673.384592  	93.887690 
2674.349016  	93.876812 
2675.313441  	93.872477 
2676.277865  	93.873064 
2677.242290  	93.870252 
2678.206714  	93.876079 
2679.171139  	93.878810 
2680.135563  	93.860209 
2681.099988  	93.861677 
2682.064412  	93.883126 
2683.028837  	93.890827 
2683.993261  	93.872756 
2684.957686  	93.867466 
2685.922110  	93.869692 
2686.886534  	93.859878 
2687.850959  	93.861597 
2688.815383  	93.887601 
2689.779808  	93.892473 
2690.744232  	93.884311 
2691.708657  	93.906382 
2692.673081  	93.899558 
2693.637506  	93.869784 
2694.601930  	93.896185 
2695.566355  	93.920987 
2696.530779  	93.906485 
2697.495203  	93.899723 
2698.459628  	93.906115 
2699.424052  	93.906704 
2700.388477  	93.877571 
2701.352901  	93.850679 
2702.317326  	93.851240 
2703.281750  	93.867874 
2704.246175  	93.894336 
2705.210599  	93.898775 
2706.175024  	93.879894 
2707.139448  	93.856991 
2708.103872  	93.858287 
2709.068297  	93.885026 
2710.032721  	93.868847 
2710.997146  	93.823868 
2711.961570  	93.829518 
2712.925995  	93.877178 
2713.890419  	93.878621 
2714.854844  	93.866113 
2715.819268  	93.870788 
2716.783693  	93.890607 
2717.748117  	93.900544 
2718.712541  	93.884090 
2719.676966  	93.883264 
2720.641390  	93.884286 
2721.605815  	93.893848 
2722.570239  	93.876576 
2723.534664  	93.867658 
2724.499088  	93.862174 
2725.463513  	93.865455 
2726.427937  	93.873966 
2727.392362  	93.872979 
2728.356786  	93.862993 
2729.321210  	93.851625 
2730.285635  	93.856231 
2731.250059  	93.831589 
2732.214484  	93.837280 
2733.178908  	93.844346 
2734.143333  	93.833204 
2735.107757  	93.822251 
2736.072182  	93.868031 
2737.036606  	93.897837 
2738.001031  	93.862456 
2738.965455  	93.804401 
2739.929879  	93.794345 
2740.894304  	93.830952 
2741.858728  	93.840658 
2742.823153  	93.825209 
2743.787577  	93.827576 
2744.752002  	93.841481 
2745.716426  	93.804115 
2746.680851  	93.773770 
2747.645275  	93.787902 
2748.609700  	93.803206 
2749.574124  	93.830164 
2750.538549  	93.833398 
2751.502973  	93.791233 
2752.467397  	93.789473 
2753.431822  	93.814667 
2754.396246  	93.813380 
2755.360671  	93.815811 
2756.325095  	93.822850 
2757.289520  	93.805051 
2758.253944  	93.807747 
2759.218369  	93.825070 
2760.182793  	93.813923 
2761.147218  	93.802458 
2762.111642  	93.795953 
2763.076066  	93.805160 
2764.040491  	93.838275 
2765.004915  	93.832216 
2765.969340  	93.817167 
2766.933764  	93.795572 
2767.898189  	93.770956 
2768.862613  	93.764661 
2769.827038  	93.776408 
2770.791462  	93.801248 
2771.755887  	93.782567 
2772.720311  	93.773842 
2773.684735  	93.782098 
2774.649160  	93.777176 
2775.613584  	93.786666 
2776.578009  	93.781297 
2777.542433  	93.779409 
2778.506858  	93.788973 
2779.471282  	93.787534 
2780.435707  	93.772238 
2781.400131  	93.762933 
2782.364556  	93.764999 
2783.328980  	93.786363 
2784.293404  	93.784628 
2785.257829  	93.798551 
2786.222253  	93.792497 
2787.186678  	93.759533 
2788.151102  	93.739706 
2789.115527  	93.791886 
2790.079951  	93.803436 
2791.044376  	93.789666 
2792.008800  	93.779692 
2792.973225  	93.761345 
2793.937649  	93.753182 
2794.902073  	93.748842 
2795.866498  	93.751227 
2796.830922  	93.771392 
2797.795347  	93.782134 
2798.759771  	93.753652 
2799.724196  	93.697574 
2800.688620  	93.683206 
2801.653045  	93.706477 
2802.617469  	93.700676 
2803.581894  	93.708352 
2804.546318  	93.708225 
2805.510743  	93.719092 
2806.475167  	93.718371 
2807.439591  	93.690224 
2808.404016  	93.676236 
2809.368440  	93.697156 
2810.332865  	93.710271 
2811.297289  	93.679513 
2812.261714  	93.657919 
2813.226138  	93.667567 
2814.190563  	93.686510 
2815.154987  	93.722651 
2816.119412  	93.718317 
2817.083836  	93.698165 
2818.048260  	93.676750 
2819.012685  	93.662357 
2819.977109  	93.690113 
2820.941534  	93.690727 
2821.905958  	93.682384 
2822.870383  	93.649502 
2823.834807  	93.659524 
2824.799232  	93.659170 
2825.763656  	93.677636 
2826.728081  	93.686656 
2827.692505  	93.654651 
2828.656929  	93.658578 
2829.621354  	93.680864 
2830.585778  	93.668268 
2831.550203  	93.651488 
2832.514627  	93.604367 
2833.479052  	93.580667 
2834.443476  	93.579673 
2835.407901  	93.582258 
2836.372325  	93.580477 
2837.336750  	93.576518 
2838.301174  	93.530212 
2839.265598  	93.470768 
2840.230023  	93.468056 
2841.194447  	93.457963 
2842.158872  	93.419794 
2843.123296  	93.388571 
2844.087721  	93.343565 
2845.052145  	93.300403 
2846.016570  	93.250927 
2846.980994  	93.205433 
2847.945419  	93.174692 
2848.909843  	93.127279 
2849.874267  	93.051269 
2850.838692  	92.994822 
2851.803116  	92.988965 
2852.767541  	93.004517 
2853.731965  	93.001231 
2854.696390  	93.012170 
2855.660814  	93.043473 
2856.625239  	93.068205 
2857.589663  	93.086609 
2858.554088  	93.130595 
2859.518512  	93.155224 
2860.482936  	93.162610 
2861.447361  	93.144870 
2862.411785  	93.150940 
2863.376210  	93.176644 
2864.340634  	93.186920 
2865.305059  	93.195088 
2866.269483  	93.212411 
2867.233908  	93.211184 
2868.198332  	93.199994 
2869.162757  	93.165311 
2870.127181  	93.159566 
2871.091606  	93.142936 
2872.056030  	93.134519 
2873.020454  	93.164185 
2873.984879  	93.173758 
2874.949303  	93.135201 
2875.913728  	93.147589 
2876.878152  	93.184124 
2877.842577  	93.167368 
2878.807001  	93.169200 
2879.771426  	93.186387 
2880.735850  	93.118856 
2881.700275  	93.068113 
2882.664699  	93.090567 
2883.629123  	93.113530 
2884.593548  	93.119687 
2885.557972  	93.087971 
2886.522397  	93.041394 
2887.486821  	93.026702 
2888.451246  	93.018997 
2889.415670  	93.020125 
2890.380095  	92.995922 
2891.344519  	92.977956 
2892.308944  	92.973856 
2893.273368  	92.970586 
2894.237792  	92.970724 
2895.202217  	92.903805 
2896.166641  	92.874549 
2897.131066  	92.862428 
2898.095490  	92.826824 
2899.059915  	92.817719 
2900.024339  	92.776131 
2900.988764  	92.739707 
2901.953188  	92.716232 
2902.917613  	92.647408 
2903.882037  	92.599733 
2904.846461  	92.595688 
2905.810886  	92.549549 
2906.775310  	92.502663 
2907.739735  	92.442429 
2908.704159  	92.397428 
2909.668584  	92.409706 
2910.633008  	92.415359 
2911.597433  	92.436057 
2912.561857  	92.468789 
2913.526282  	92.501309 
2914.490706  	92.477106 
2915.455130  	92.452886 
2916.419555  	92.501034 
2917.383979  	92.527235 
2918.348404  	92.503476 
2919.312828  	92.519744 
2920.277253  	92.537895 
2921.241677  	92.530472 
2922.206102  	92.536755 
2923.170526  	92.514109 
2924.134951  	92.554113 
2925.099375  	92.609937 
2926.063800  	92.637558 
2927.028224  	92.665497 
2927.992648  	92.709845 
2928.957073  	92.773102 
2929.921497  	92.794058 
2930.885922  	92.787051 
2931.850346  	92.801806 
2932.814771  	92.873036 
2933.779195  	92.913226 
2934.743620  	92.926170 
2935.708044  	92.923578 
2936.672469  	92.915708 
2937.636893  	92.924240 
2938.601317  	92.924502 
2939.565742  	92.945448 
2940.530166  	92.962060 
2941.494591  	92.917104 
2942.459015  	92.863449 
2943.423440  	92.870113 
2944.387864  	92.810848 
2945.352289  	92.742438 
2946.316713  	92.769008 
2947.281138  	92.758979 
2948.245562  	92.700793 
2949.209986  	92.619714 
2950.174411  	92.552050 
2951.138835  	92.554108 
2952.103260  	92.528214 
2953.067684  	92.437331 
2954.032109  	92.372564 
2954.996533  	92.344258 
2955.960958  	92.299059 
2956.925382  	92.251948 
2957.889807  	92.219284 
2958.854231  	92.178298 
2959.818655  	92.172990 
2960.783080  	92.176301 
2961.747504  	92.138169 
2962.711929  	92.121699 
2963.676353  	92.109430 
2964.640778  	92.041226 
2965.605202  	91.996597 
2966.569627  	91.998230 
2967.534051  	92.047964 
2968.498476  	92.134502 
2969.462900  	92.124823 
2970.427324  	92.121053 
2971.391749  	92.171618 
2972.356173  	92.218474 
2973.320598  	92.300416 
2974.285022  	92.348700 
2975.249447  	92.377270 
2976.213871  	92.440582 
2977.178296  	92.517217 
2978.142720  	92.567844 
2979.107145  	92.650850 
2980.071569  	92.775158 
2981.035993  	92.810167 
2982.000418  	92.867170 
2982.964842  	92.957964 
2983.929267  	92.992015 
2984.893691  	93.005535 
2985.858116  	93.022567 
2986.822540  	93.099059 
2987.786965  	93.156547 
2988.751389  	93.162012 
2989.715814  	93.182978 
2990.680238  	93.228102 
2991.644663  	93.259701 
2992.609087  	93.252596 
2993.573511  	93.231120 
2994.537936  	93.274528 
2995.502360  	93.359809 
2996.466785  	93.347187 
2997.431209  	93.317032 
2998.395634  	93.355094 
2999.360058  	93.386926 
3000.324483  	93.402685 
3001.288907  	93.385583 
3002.253332  	93.349170 
3003.217756  	93.339400 
3004.182180  	93.329939 
3005.146605  	93.311086 
3006.111029  	93.381353 
3007.075454  	93.450800 
3008.039878  	93.486818 
3009.004303  	93.572057 
3009.968727  	93.568373 
3010.933152  	93.487817 
3011.897576  	93.442409 
3012.862001  	93.427165 
3013.826425  	93.526759 
3014.790849  	93.616056 
3015.755274  	93.601167 
3016.719698  	93.624474 
3017.684123  	93.666150 
3018.648547  	93.667166 
3019.612972  	93.672592 
3020.577396  	93.733983 
3021.541821  	93.770654 
3022.506245  	93.781028 
3023.470670  	93.782113 
3024.435094  	93.802805 
3025.399518  	93.799613 
3026.363943  	93.803023 
3027.328367  	93.843840 
3028.292792  	93.905353 
3029.257216  	93.937150 
3030.221641  	93.898573 
3031.186065  	93.851680 
3032.150490  	93.811448 
3033.114914  	93.821101 
3034.079339  	93.828893 
3035.043763  	93.833993 
3036.008187  	93.827855 
3036.972612  	93.825737 
3037.937036  	93.821220 
3038.901461  	93.840070 
3039.865885  	93.863021 
3040.830310  	93.871638 
3041.794734  	93.846009 
3042.759159  	93.825085 
3043.723583  	93.864665 
3044.688008  	93.874153 
3045.652432  	93.842179 
3046.616857  	93.794731 
3047.581281  	93.766796 
3048.545705  	93.723980 
3049.510130  	93.693603 
3050.474554  	93.651759 
3051.438979  	93.639448 
3052.403403  	93.660306 
3053.367828  	93.630793 
3054.332252  	93.580865 
3055.296677  	93.576028 
3056.261101  	93.524345 
3057.225526  	93.548667 
3058.189950  	93.662840 
3059.154374  	93.751088 
3060.118799  	93.764425 
3061.083223  	93.758013 
3062.047648  	93.749874 
3063.012072  	93.696315 
3063.976497  	93.634363 
3064.940921  	93.640907 
3065.905346  	93.641369 
3066.869770  	93.623940 
3067.834195  	93.633389 
3068.798619  	93.679363 
3069.763043  	93.688287 
3070.727468  	93.717813 
3071.691892  	93.759420 
3072.656317  	93.718075 
3073.620741  	93.685357 
3074.585166  	93.697443 
3075.549590  	93.730048 
3076.514015  	93.743120 
3077.478439  	93.701763 
3078.442864  	93.705076 
3079.407288  	93.705862 
3080.371712  	93.687286 
3081.336137  	93.683069 
3082.300561  	93.702770 
3083.264986  	93.741249 
3084.229410  	93.756405 
3085.193835  	93.710901 
3086.158259  	93.713832 
3087.122684  	93.759508 
3088.087108  	93.762237 
3089.051533  	93.757828 
3090.015957  	93.770537 
3090.980381  	93.790398 
3091.944806  	93.828569 
3092.909230  	93.839081 
3093.873655  	93.845112 
3094.838079  	93.836506 
3095.802504  	93.826399 
3096.766928  	93.837251 
3097.731353  	93.838978 
3098.695777  	93.839031 
3099.660202  	93.822693 
3100.624626  	93.741649 
3101.589050  	93.687755 
3102.553475  	93.699611 
3103.517899  	93.719894 
3104.482324  	93.763267 
3105.446748  	93.801322 
3106.411173  	93.801363 
3107.375597  	93.805850 
3108.340022  	93.859583 
3109.304446  	93.877975 
3110.268871  	93.826313 
3111.233295  	93.813955 
3112.197720  	93.821732 
3113.162144  	93.848656 
3114.126568  	93.833752 
3115.090993  	93.845826 
3116.055417  	93.883686 
3117.019842  	93.918790 
3117.984266  	93.938132 
3118.948691  	93.870423 
3119.913115  	93.886476 
3120.877540  	93.919061 
3121.841964  	93.882649 
3122.806389  	93.850328 
3123.770813  	93.853458 
3124.735237  	93.894792 
3125.699662  	93.885398 
3126.664086  	93.863913 
3127.628511  	93.900888 
3128.592935  	93.905539 
3129.557360  	93.864317 
3130.521784  	93.882006 
3131.486209  	93.919557 
3132.450633  	93.931508 
3133.415058  	93.878800 
3134.379482  	93.915778 
3135.343906  	93.977339 
3136.308331  	93.984629 
3137.272755  	93.901322 
3138.237180  	93.890441 
3139.201604  	93.975996 
3140.166029  	94.010480 
3141.130453  	94.024361 
3142.094878  	93.963014 
3143.059302  	93.939592 
3144.023727  	93.990361 
3144.988151  	94.014874 
3145.952575  	93.941547 
3146.917000  	93.902788 
3147.881424  	94.001532 
3148.845849  	94.066965 
3149.810273  	94.055231 
3150.774698  	94.050017 
3151.739122  	93.990897 
3152.703547  	93.969772 
3153.667971  	93.996045 
3154.632396  	94.019851 
3155.596820  	94.019134 
3156.561244  	93.965690 
3157.525669  	93.965903 
3158.490093  	93.964561 
3159.454518  	93.951440 
3160.418942  	93.960142 
3161.383367  	93.946770 
3162.347791  	93.938982 
3163.312216  	93.944063 
3164.276640  	93.954420 
3165.241065  	93.987321 
3166.205489  	94.001849 
3167.169914  	94.025942 
3168.134338  	94.019498 
3169.098762  	93.976363 
3170.063187  	93.941437 
3171.027611  	93.930656 
3171.992036  	93.946917 
3172.956460  	93.928929 
3173.920885  	93.900201 
3174.885309  	93.950840 
3175.849734  	93.992529 
3176.814158  	93.941966 
3177.778583  	93.863357 
3178.743007  	93.859017 
3179.707431  	93.891332 
3180.671856  	93.931761 
3181.636280  	93.978051 
3182.600705  	93.998724 
3183.565129  	93.935975 
3184.529554  	93.894471 
3185.493978  	93.909340 
3186.458403  	93.948082 
3187.422827  	93.929400 
3188.387252  	93.879172 
3189.351676  	93.943566 
3190.316100  	93.979527 
3191.280525  	93.951709 
3192.244949  	93.980914 
3193.209374  	94.012304 
3194.173798  	93.937108 
3195.138223  	93.898211 
3196.102647  	93.865106 
3197.067072  	93.834641 
3198.031496  	93.872370 
3198.995921  	93.938583 
3199.960345  	93.952318 
3200.924769  	93.981292 
3201.889194  	94.014938 
3202.853618  	93.998121 
3203.818043  	93.980662 
3204.782467  	93.943293 
3205.746892  	93.910407 
3206.711316  	93.889628 
3207.675741  	93.921259 
3208.640165  	93.954151 
3209.604590  	93.969487 
3210.569014  	93.907094 
3211.533438  	93.906596 
3212.497863  	93.914415 
3213.462287  	93.884162 
3214.426712  	93.833112 
3215.391136  	93.854704 
3216.355561  	93.873855 
3217.319985  	93.860879 
3218.284410  	93.816275 
3219.248834  	93.784833 
3220.213259  	93.868791 
3221.177683  	93.964491 
3222.142107  	93.956397 
3223.106532  	93.929341 
3224.070956  	93.936483 
3225.035381  	93.905584 
3225.999805  	93.878875 
3226.964230  	93.847590 
3227.928654  	93.816731 
3228.893079  	93.889060 
3229.857503  	93.947193 
3230.821928  	93.948747 
3231.786352  	93.949112 
3232.750777  	93.991321 
3233.715201  	93.942298 
3234.679625  	93.867358 
3235.644050  	93.883585 
3236.608474  	93.917825 
3237.572899  	93.920638 
3238.537323  	93.898039 
3239.501748  	93.890179 
3240.466172  	93.856547 
3241.430597  	93.932927 
3242.395021  	93.950037 
3243.359446  	93.930449 
3244.323870  	93.915619 
3245.288294  	93.850703 
3246.252719  	93.846873 
3247.217143  	93.880817 
3248.181568  	93.911837 
3249.145992  	93.903655 
3250.110417  	93.944361 
3251.074841  	93.933337 
3252.039266  	93.877893 
3253.003690  	93.872022 
3253.968115  	93.849038 
3254.932539  	93.844619 
3255.896963  	93.803439 
3256.861388  	93.759465 
3257.825812  	93.864331 
3258.790237  	93.874277 
3259.754661  	93.833004 
3260.719086  	93.838995 
3261.683510  	93.848103 
3262.647935  	93.842245 
3263.612359  	93.892866 
3264.576784  	93.908209 
3265.541208  	93.882448 
3266.505632  	93.866228 
3267.470057  	93.859364 
3268.434481  	93.868013 
3269.398906  	93.868120 
3270.363330  	93.825590 
3271.327755  	93.791582 
3272.292179  	93.773013 
3273.256604  	93.731779 
3274.221028  	93.732005 
3275.185453  	93.786692 
3276.149877  	93.842178 
3277.114301  	93.872601 
3278.078726  	93.830322 
3279.043150  	93.767341 
3280.007575  	93.772043 
3280.971999  	93.792563 
3281.936424  	93.823484 
3282.900848  	93.821177 
3283.865273  	93.785452 
3284.829697  	93.771931 
3285.794122  	93.801560 
3286.758546  	93.777290 
3287.722971  	93.725597 
3288.687395  	93.714177 
3289.651819  	93.796430 
3290.616244  	93.826755 
3291.580668  	93.815659 
3292.545093  	93.840781 
3293.509517  	93.860837 
3294.473942  	93.839974 
3295.438366  	93.786504 
3296.402791  	93.792899 
3297.367215  	93.799938 
3298.331640  	93.765096 
3299.296064  	93.766995 
3300.260488  	93.820567 
3301.224913  	93.856459 
3302.189337  	93.868978 
3303.153762  	93.867507 
3304.118186  	93.843125 
3305.082611  	93.844670 
3306.047035  	93.889609 
3307.011460  	93.955612 
3307.975884  	93.902311 
3308.940309  	93.835555 
3309.904733  	93.882840 
3310.869157  	93.902966 
3311.833582  	93.840597 
3312.798006  	93.797011 
3313.762431  	93.772092 
3314.726855  	93.808660 
3315.691280  	93.888320 
3316.655704  	93.906550 
3317.620129  	93.881050 
3318.584553  	93.837329 
3319.548978  	93.792002 
3320.513402  	93.832161 
3321.477826  	93.831058 
3322.442251  	93.877161 
3323.406675  	93.956778 
3324.371100  	93.918088 
3325.335524  	93.855197 
3326.299949  	93.872209 
3327.264373  	93.874761 
3328.228798  	93.854780 
3329.193222  	93.807336 
3330.157647  	93.789637 
3331.122071  	93.815143 
3332.086495  	93.878572 
3333.050920  	93.870676 
3334.015344  	93.799916 
3334.979769  	93.790310 
3335.944193  	93.821568 
3336.908618  	93.755666 
3337.873042  	93.723781 
3338.837467  	93.795233 
3339.801891  	93.869199 
3340.766316  	93.878336 
3341.730740  	93.816795 
3342.695164  	93.770133 
3343.659589  	93.804449 
3344.624013  	93.908152 
3345.588438  	93.921918 
3346.552862  	93.894611 
3347.517287  	93.875252 
3348.481711  	93.866148 
3349.446136  	93.876358 
3350.410560  	93.912792 
3351.374985  	93.964562 
3352.339409  	94.014079 
3353.303834  	93.989211 
3354.268258  	93.919501 
3355.232682  	93.874015 
3356.197107  	93.822104 
3357.161531  	93.882363 
3358.125956  	93.963819 
3359.090380  	93.945974 
3360.054805  	93.854275 
3361.019229  	93.791167 
3361.983654  	93.808951 
3362.948078  	93.907952 
3363.912503  	93.932925 
3364.876927  	93.880023 
3365.841351  	93.870912 
3366.805776  	93.888900 
3367.770200  	93.831683 
3368.734625  	93.820921 
3369.699049  	93.869954 
3370.663474  	93.953095 
3371.627898  	93.999248 
3372.592323  	93.937707 
3373.556747  	93.866745 
3374.521172  	93.886998 
3375.485596  	93.910078 
3376.450020  	93.880234 
3377.414445  	93.903413 
3378.378869  	93.958701 
3379.343294  	93.990123 
3380.307718  	93.920734 
3381.272143  	93.915760 
3382.236567  	93.921225 
3383.200992  	93.888967 
3384.165416  	93.886008 
3385.129841  	93.878441 
3386.094265  	93.878941 
3387.058689  	93.915960 
3388.023114  	93.960106 
3388.987538  	93.950191 
3389.951963  	93.879657 
3390.916387  	93.836722 
3391.880812  	93.812578 
3392.845236  	93.771333 
3393.809661  	93.796780 
3394.774085  	93.890964 
3395.738510  	93.907427 
3396.702934  	93.903457 
3397.667358  	93.843402 
3398.631783  	93.899199 
3399.596207  	94.023184 
3400.560632  	93.965507 
3401.525056  	93.919217 
3402.489481  	93.939219 
3403.453905  	93.819671 
3404.418330  	93.789946 
3405.382754  	93.821133 
3406.347179  	93.848772 
3407.311603  	93.870906 
3408.276028  	93.883623 
3409.240452  	93.818142 
3410.204876  	93.710311 
3411.169301  	93.752555 
3412.133725  	93.878392 
3413.098150  	93.894782 
3414.062574  	93.816053 
3415.026999  	93.735356 
3415.991423  	93.697082 
3416.955848  	93.708284 
3417.920272  	93.674988 
3418.884697  	93.651042 
3419.849121  	93.588407 
3420.813545  	93.446407 
3421.777970  	93.367034 
3422.742394  	93.369082 
3423.706819  	93.496409 
3424.671243  	93.595348 
3425.635668  	93.624604 
3426.600092  	93.588150 
3427.564517  	93.620841 
3428.528941  	93.649719 
3429.493366  	93.637086 
3430.457790  	93.600298 
3431.422214  	93.585863 
3432.386639  	93.621439 
3433.351063  	93.709140 
3434.315488  	93.808219 
3435.279912  	93.743955 
3436.244337  	93.734667 
3437.208761  	93.778993 
3438.173186  	93.777046 
3439.137610  	93.747756 
3440.102035  	93.750831 
3441.066459  	93.845287 
3442.030883  	93.814191 
3442.995308  	93.659595 
3443.959732  	93.728538 
3444.924157  	93.805241 
3445.888581  	93.826785 
3446.853006  	93.623595 
3447.817430  	93.420981 
3448.781855  	93.699787 
3449.746279  	93.919889 
3450.710704  	93.951751 
3451.675128  	93.965282 
3452.639552  	94.014636 
3453.603977  	94.032198 
3454.568401  	93.993444 
3455.532826  	93.951976 
3456.497250  	93.926656 
3457.461675  	93.899283 
3458.426099  	93.924830 
3459.390524  	93.973483 
3460.354948  	93.993499 
3461.319373  	93.915900 
3462.283797  	93.834617 
3463.248221  	93.821960 
3464.212646  	93.945222 
3465.177070  	94.002417 
3466.141495  	93.950436 
3467.105919  	93.832062 
3468.070344  	93.961539 
3469.034768  	94.111669 
3469.999193  	94.004706 
3470.963617  	93.976884 
3471.928042  	94.022123 
3472.892466  	94.035353 
3473.856891  	94.026893 
3474.821315  	93.971683 
3475.785739  	94.021973 
3476.750164  	94.085287 
3477.714588  	94.078319 
3478.679013  	94.082913 
3479.643437  	94.026595 
3480.607862  	93.868168 
3481.572286  	93.846046 
3482.536711  	93.797450 
3483.501135  	93.915420 
3484.465560  	94.110396 
3485.429984  	94.080530 
3486.394408  	94.102777 
3487.358833  	94.096059 
3488.323257  	93.886048 
3489.287682  	93.836597 
3490.252106  	94.047276 
3491.216531  	94.105958 
3492.180955  	94.136745 
3493.145380  	94.152217 
3494.109804  	94.203356 
3495.074229  	94.126793 
3496.038653  	93.930242 
3497.003077  	93.850588 
3497.967502  	93.980445 
3498.931926  	94.058940 
3499.896351  	94.028619 
3500.860775  	94.043873 
3501.825200  	93.908001 
3502.789624  	93.640522 
3503.754049  	93.554220 
3504.718473  	93.699621 
3505.682898  	93.876157 
3506.647322  	94.033038 
3507.611746  	94.089707 
3508.576171  	93.915678 
3509.540595  	93.597939 
3510.505020  	93.715611 
3511.469444  	93.960010 
3512.433869  	93.977402 
3513.398293  	94.024872 
3514.362718  	94.105568 
3515.327142  	94.152176 
3516.291567  	94.120240 
3517.255991  	94.037055 
3518.220415  	93.961954 
3519.184840  	93.962609 
3520.149264  	94.049058 
3521.113689  	94.151953 
3522.078113  	94.063651 
3523.042538  	93.631808 
3524.006962  	93.385073 
3524.971387  	93.627024 
3525.935811  	93.703886 
3526.900236  	93.657088 
3527.864660  	93.529835 
3528.829085  	93.543580 
3529.793509  	93.693744 
3530.757933  	93.916188 
3531.722358  	93.895022 
3532.686782  	93.975294 
3533.651207  	94.105900 
3534.615631  	94.101818 
3535.580056  	93.966800 
3536.544480  	93.675433 
3537.508905  	93.742514 
3538.473329  	94.004949 
3539.437754  	94.026142 
3540.402178  	94.017565 
3541.366602  	94.017107 
3542.331027  	94.055467 
3543.295451  	93.962251 
3544.259876  	93.759735 
3545.224300  	93.288696 
3546.188725  	93.113333 
3547.153149  	93.195351 
3548.117574  	93.410070 
3549.081998  	93.827321 
3550.046423  	93.970206 
3551.010847  	93.957566 
3551.975271  	93.659286 
3552.939696  	93.451278 
3553.904120  	93.701814 
3554.868545  	93.968014 
3555.832969  	94.109837 
3556.797394  	94.018868 
3557.761818  	94.003179 
3558.726243  	94.103861 
3559.690667  	93.928061 
3560.655092  	93.681384 
3561.619516  	93.879273 
3562.583940  	93.856169 
3563.548365  	93.728054 
3564.512789  	93.681927 
3565.477214  	93.310473 
3566.441638  	92.173615 
3567.406063  	92.101247 
3568.370487  	92.401562 
3569.334912  	93.142962 
3570.299336  	93.810305 
3571.263761  	93.893395 
3572.228185  	94.069053 
3573.192609  	94.078871 
3574.157034  	94.030418 
3575.121458  	93.988333 
3576.085883  	94.067071 
3577.050307  	93.999619 
3578.014732  	93.950969 
3578.979156  	94.035667 
3579.943581  	93.856248 
3580.908005  	93.719325 
3581.872430  	93.973837 
3582.836854  	94.106605 
3583.801278  	94.047334 
3584.765703  	94.008747 
3585.730127  	93.799847 
3586.694552  	92.957920 
3587.658976  	92.356891 
3588.623401  	92.577927 
3589.587825  	93.144560 
3590.552250  	93.873144 
3591.516674  	94.125921 
3592.481099  	94.176582 
3593.445523  	93.821872 
3594.409948  	93.729836 
3595.374372  	93.563074 
3596.338796  	93.454964 
3597.303221  	93.918236 
3598.267645  	93.962350 
3599.232070  	93.744442 
3600.196494  	93.742647 
3601.160919  	93.572391 
3602.125343  	93.692871 
3603.089768  	93.906713 
3604.054192  	94.113252 
3605.018617  	94.226092 
3605.983041  	94.078509 
3606.947465  	93.491167 
3607.911890  	93.156508 
3608.876314  	93.369817 
3609.840739  	93.108377 
3610.805163  	93.585032 
3611.769588  	93.722322 
3612.734012  	93.041598 
3613.698437  	93.023877 
3614.662861  	93.236760 
3615.627286  	93.261904 
3616.591710  	93.779567 
3617.556134  	93.538542 
3618.520559  	92.900666 
3619.484983  	92.757138 
3620.449408  	92.774908 
3621.413832  	93.321144 
3622.378257  	93.827745 
3623.342681  	94.051768 
3624.307106  	94.168502 
3625.271530  	94.142783 
3626.235955  	93.823886 
3627.200379  	93.643307 
3628.164803  	93.216981 
3629.129228  	91.728140 
3630.093652  	91.850991 
3631.058077  	93.235296 
3632.022501  	93.847352 
3632.986926  	93.920443 
3633.951350  	93.493855 
3634.915775  	93.567412 
3635.880199  	93.990024 
3636.844624  	94.150877 
3637.809048  	94.067119 
3638.773472  	93.976673 
3639.737897  	94.110471 
3640.702321  	94.132876 
3641.666746  	94.007301 
3642.631170  	93.836686 
3643.595595  	93.916450 
3644.560019  	94.093015 
3645.524444  	93.960341 
3646.488868  	93.426649 
3647.453293  	92.374940 
3648.417717  	92.226681 
3649.382142  	92.276692 
3650.346566  	91.879207 
3651.310990  	91.928048 
3652.275415  	93.068134 
3653.239839  	93.962855 
3654.204264  	94.191023 
3655.168688  	94.103175 
3656.133113  	93.637043 
3657.097537  	93.307626 
3658.061962  	93.915551 
3659.026386  	94.234015 
3659.990811  	94.215439 
3660.955235  	94.232382 
3661.919659  	94.353668 
3662.884084  	94.390179 
3663.848508  	94.423633 
3664.812933  	94.413940 
3665.777357  	94.425952 
3666.741782  	94.422586 
3667.706206  	94.326235 
3668.670631  	93.807951 
3669.635055  	93.128495 
3670.599480  	92.927675 
3671.563904  	93.029000 
3672.528328  	93.804113 
3673.492753  	94.049464 
3674.457177  	93.502458 
3675.421602  	91.912869 
3676.386026  	91.808115 
3677.350451  	93.028703 
3678.314875  	93.678786 
3679.279300  	93.759355 
3680.243724  	93.677446 
3681.208149  	94.117911 
3682.172573  	94.467665 
3683.136997  	94.527506 
3684.101422  	94.450603 
3685.065846  	94.357143 
3686.030271  	94.374493 
3686.994695  	94.297588 
3687.959120  	93.879852 
3688.923544  	93.097159 
3689.887969  	93.346133 
3690.852393  	93.294168 
3691.816818  	93.116914 
3692.781242  	93.925515 
3693.745666  	94.306012 
3694.710091  	94.358859 
3695.674515  	94.409736 
3696.638940  	94.406927 
3697.603364  	94.473425 
3698.567789  	94.545906 
3699.532213  	94.470020 
3700.496638  	94.478344 
3701.461062  	94.155934 
3702.425487  	93.670835 
3703.389911  	94.112496 
3704.354335  	94.478726 
3705.318760  	94.511643 
3706.283184  	94.514136 
3707.247609  	94.576698 
3708.212033  	94.569763 
3709.176458  	94.198230 
3710.140882  	93.624767 
3711.105307  	93.515894 
3712.069731  	93.044364 
3713.034156  	92.957707 
3713.998580  	93.811767 
3714.963005  	93.986062 
3715.927429  	94.154971 
3716.891853  	94.534062 
3717.856278  	94.607853 
3718.820702  	94.177125 
3719.785127  	93.862741 
3720.749551  	94.250314 
3721.713976  	94.213418 
3722.678400  	93.458001 
3723.642825  	93.645386 
3724.607249  	93.962724 
3725.571674  	93.651877 
3726.536098  	93.542958 
3727.500522  	93.617994 
3728.464947  	94.126996 
3729.429371  	94.477551 
3730.393796  	94.475088 
3731.358220  	94.267276 
3732.322645  	93.635301 
3733.287069  	93.558762 
3734.251494  	93.523867 
3735.215918  	91.998157 
3736.180343  	91.921395 
3737.144767  	92.747069 
3738.109191  	93.250874 
3739.073616  	93.582625 
3740.038040  	93.997248 
3741.002465  	93.866762 
3741.966889  	93.738905 
3742.931314  	94.060068 
3743.895738  	93.681260 
3744.860163  	91.850253 
3745.824587  	92.734385 
3746.789012  	93.534161 
3747.753436  	93.694985 
3748.717860  	93.619649 
3749.682285  	93.001458 
3750.646709  	92.572306 
3751.611134  	92.744086 
3752.575558  	92.359548 
3753.539983  	93.134803 
3754.504407  	93.813868 
3755.468832  	94.201102 
3756.433256  	94.079819 
3757.397681  	93.922639 
3758.362105  	94.098563 
3759.326529  	93.712546 
3760.290954  	93.254263 
3761.255378  	93.970546 
3762.219803  	94.338639 
3763.184227  	94.400065 
3764.148652  	94.434452 
3765.113076  	94.233725 
3766.077501  	93.694197 
3767.041925  	93.965403 
3768.006350  	94.401838 
3768.970774  	94.338291 
3769.935199  	93.709162 
3770.899623  	93.540817 
3771.864047  	94.152875 
3772.828472  	94.504984 
3773.792896  	94.596862 
3774.757321  	94.585340 
3775.721745  	94.633169 
3776.686170  	94.674508 
3777.650594  	94.645676 
3778.615019  	94.418567 
3779.579443  	93.936730 
3780.543868  	93.888533 
3781.508292  	94.437347 
3782.472716  	94.555500 
3783.437141  	94.547181 
3784.401565  	94.350154 
3785.365990  	94.042815 
3786.330414  	94.253890 
3787.294839  	94.496874 
3788.259263  	94.617928 
3789.223688  	94.678486 
3790.188112  	94.657130 
3791.152537  	94.655859 
3792.116961  	94.658904 
3793.081385  	94.690498 
3794.045810  	94.720620 
3795.010234  	94.649329 
3795.974659  	94.358976 
3796.939083  	93.817522 
3797.903508  	93.894889 
3798.867932  	94.255928 
3799.832357  	94.369465 
3800.796781  	93.910956 
3801.761206  	92.903447 
3802.725630  	92.985813 
3803.690054  	93.722753 
3804.654479  	94.342440 
3805.618903  	94.467431 
3806.583328  	94.101685 
3807.547752  	93.378974 
3808.512177  	93.953092 
3809.476601  	94.486257 
3810.441026  	94.620984 
3811.405450  	94.692686 
3812.369875  	94.663136 
3813.334299  	94.580858 
3814.298723  	94.544172 
3815.263148  	94.359042 
3816.227572  	93.608356 
3817.191997  	93.477957 
3818.156421  	94.117039 
3819.120846  	94.227331 
3820.085270  	93.872111 
3821.049695  	92.833850 
3822.014119  	92.595165 
3822.978544  	93.685052 
3823.942968  	94.167211 
3824.907392  	94.358375 
3825.871817  	94.329034 
3826.836241  	93.961692 
3827.800666  	93.878487 
3828.765090  	94.262471 
3829.729515  	94.569035 
3830.693939  	94.587177 
3831.658364  	94.082723 
3832.622788  	93.890886 
3833.587213  	94.312258 
3834.551637  	94.155516 
3835.516062  	93.692044 
3836.480486  	94.051363 
3837.444910  	93.979819 
3838.409335  	93.049866 
3839.373759  	93.329437 
3840.338184  	93.362821 
3841.302608  	93.365135 
3842.267033  	94.020469 
3843.231457  	94.157474 
3844.195882  	93.715365 
3845.160306  	94.061979 
3846.124731  	94.465760 
3847.089155  	94.602509 
3848.053579  	94.654206 
3849.018004  	94.487022 
3849.982428  	94.121963 
3850.946853  	94.083760 
3851.911277  	93.725882 
3852.875702  	92.709264 
3853.840126  	92.428628 
3854.804551  	92.451030 
3855.768975  	93.554899 
3856.733400  	93.898427 
3857.697824  	93.747950 
3858.662248  	94.200842 
3859.626673  	94.595050 
3860.591097  	94.606861 
3861.555522  	94.242295 
3862.519946  	93.785429 
3863.484371  	94.010548 
3864.448795  	93.793218 
3865.413220  	93.095593 
3866.377644  	93.665956 
3867.342069  	94.367105 
3868.306493  	94.491567 
3869.270917  	93.887728 
3870.235342  	92.645647 
3871.199766  	93.116022 
3872.164191  	93.981162 
3873.128615  	94.346211 
3874.093040  	93.754215 
3875.057464  	93.507487 
3876.021889  	94.368644 
3876.986313  	94.684325 
3877.950738  	94.754452 
3878.915162  	94.728863 
3879.879586  	94.279942 
3880.844011  	93.167667 
3881.808435  	93.629479 
3882.772860  	94.255228 
3883.737284  	94.204019 
3884.701709  	94.214826 
3885.666133  	93.845303 
3886.630558  	93.388932 
3887.594982  	94.237125 
3888.559407  	94.676115 
3889.523831  	94.665167 
3890.488256  	94.391002 
3891.452680  	93.679531 
3892.417104  	93.531060 
3893.381529  	94.167393 
3894.345953  	94.317505 
3895.310378  	94.457948 
3896.274802  	94.616023 
3897.239227  	94.652107 
3898.203651  	94.386779 
3899.168076  	93.764271 
3900.132500  	93.547052 
3901.096925  	94.063081 
3902.061349  	93.514667 
3903.025773  	93.276186 
3903.990198  	93.584397 
3904.954622  	93.338103 
3905.919047  	93.550292 
3906.883471  	94.062678 
3907.847896  	94.615335 
3908.812320  	94.782698 
3909.776745  	94.802716 
3910.741169  	94.782157 
3911.705594  	94.746418 
3912.670018  	94.721895 
3913.634442  	94.737437 
3914.598867  	94.744015 
3915.563291  	94.683839 
3916.527716  	94.213248 
3917.492140  	93.720847 
3918.456565  	94.125207 
3919.420989  	94.427631 
3920.385414  	94.121242 
3921.349838  	94.303810 
3922.314263  	94.681767 
3923.278687  	94.562621 
3924.243111  	94.157441 
3925.207536  	93.865786 
3926.171960  	94.165668 
3927.136385  	94.677509 
3928.100809  	94.794818 
3929.065234  	94.659497 
3930.029658  	94.447672 
3930.994083  	94.337503 
3931.958507  	94.138466 
3932.922932  	93.890511 
3933.887356  	94.242013 
3934.851780  	94.548617 
3935.816205  	94.735015 
3936.780629  	94.793384 
3937.745054  	94.728054 
3938.709478  	94.634392 
3939.673903  	94.687456 
3940.638327  	94.738642 
3941.602752  	94.710305 
3942.567176  	94.301077 
3943.531601  	94.022117 
3944.496025  	94.416183 
3945.460449  	94.636146 
3946.424874  	94.682283 
3947.389298  	94.428948 
3948.353723  	94.241687 
3949.318147  	94.354224 
3950.282572  	94.222254 
3951.246996  	94.386213 
3952.211421  	94.694831 
3953.175845  	94.634727 
3954.140270  	94.652893 
3955.104694  	94.743795 
3956.069119  	94.740736 
3957.033543  	94.648837 
3957.997967  	94.642010 
3958.962392  	94.697581 
3959.926816  	94.731358 
3960.891241  	94.685354 
3961.855665  	94.470971 
3962.820090  	94.468421 
3963.784514  	94.751943 
3964.748939  	94.782121 
3965.713363  	94.789106 
3966.677788  	94.798061 
3967.642212  	94.773085 
3968.606636  	94.697549 
3969.571061  	94.652080 
3970.535485  	94.726339 
3971.499910  	94.763906 
3972.464334  	94.627827 
3973.428759  	94.684013 
3974.393183  	94.765848 
3975.357608  	94.677537 
3976.322032  	94.592969 
3977.286457  	94.681519 
3978.250881  	94.811577 
3979.215305  	94.851683 
3980.179730  	94.826021 
3981.144154  	94.797727 
3982.108579  	94.750692 
3983.073003  	94.761176 
3984.037428  	94.848324 
3985.001852  	94.870353 
3985.966277  	94.857617 
3986.930701  	94.867897 
3987.895126  	94.832792 
3988.859550  	94.824640 
3989.823974  	94.815463 
3990.788399  	94.706686 
3991.752823  	94.742905 
3992.717248  	94.816811 
3993.681672  	94.765459 
3994.646097  	94.695208 
3995.610521  	94.679955 
3996.574946  	94.791894 
3997.539370  	94.866388 
3998.503795  	94.881501 
3999.468219  	94.870564 
4000.432643  	94.907961 
4001.397068  	94.877030 
4002.361492  	94.834885 
4003.325917  	94.832132 
4004.290341  	94.867393 
4005.254766  	94.866048 
4006.219190  	94.837375 
4007.183615  	94.824939 
4008.148039  	94.816172 
4009.112464  	94.744600 
4010.076888  	94.760003 
4011.041313  	94.806176 
4012.005737  	94.843899 
4012.970161  	94.822877 
4013.934586  	94.862911 
4014.899010  	94.874686 
4015.863435  	94.830191 
4016.827859  	94.848939 
4017.792284  	94.871712 
4018.756708  	94.868194 
4019.721133  	94.820654 
4020.685557  	94.809268 
4021.649982  	94.845441 
4022.614406  	94.893510 
4023.578830  	94.917378 
4024.543255  	94.864092 
4025.507679  	94.801004 
4026.472104  	94.802805 
4027.436528  	94.855693 
4028.400953  	94.845654 
4029.365377  	94.830596 
4030.329802  	94.828777 
4031.294226  	94.853196 
4032.258651  	94.870557 
4033.223075  	94.907146 
4034.187499  	94.918141 
4035.151924  	94.878443 
4036.116348  	94.841324 
4037.080773  	94.911971 
4038.045197  	94.939877 
4039.009622  	94.924241 
4039.974046  	94.896877 
4040.938471  	94.889944 
4041.902895  	94.876037 
4042.867320  	94.913733 
4043.831744  	94.872827 
4044.796168  	94.825642 
4045.760593  	94.819332 
4046.725017  	94.871718 
4047.689442  	94.904460 
4048.653866  	94.881730 
4049.618291  	94.870991 
4050.582715  	94.832595 
4051.547140  	94.787758 
4052.511564  	94.803706 
4053.475989  	94.860410 
4054.440413  	94.864350 
4055.404837  	94.820721 
4056.369262  	94.851272 
4057.333686  	94.910578 
4058.298111  	94.896909 
4059.262535  	94.881012 
4060.226960  	94.891370 
4061.191384  	94.882045 
4062.155809  	94.890425 
4063.120233  	94.885485 
4064.084658  	94.832962 
4065.049082  	94.800091 
4066.013506  	94.838383 
4066.977931  	94.878099 
4067.942355  	94.869603 
4068.906780  	94.852163 
4069.871204  	94.868554 
4070.835629  	94.855886 
4071.800053  	94.852228 
4072.764478  	94.838690 
4073.728902  	94.806011 
4074.693327  	94.805076 
4075.657751  	94.850274 
4076.622176  	94.836090 
4077.586600  	94.871956 
4078.551024  	94.919148 
4079.515449  	94.860906 
4080.479873  	94.830448 
4081.444298  	94.863815 
4082.408722  	94.843729 
4083.373147  	94.801717 
4084.337571  	94.788174 
4085.301996  	94.804773 
4086.266420  	94.782443 
4087.230845  	94.785860 
4088.195269  	94.800965 
4089.159693  	94.780375 
4090.124118  	94.781753 
4091.088542  	94.824532 
4092.052967  	94.862001 
4093.017391  	94.860439 
4093.981816  	94.827814 
4094.946240  	94.852721 
4095.910665  	94.912203 
4096.875089  	94.933982 
4097.839514  	94.893606 
4098.803938  	94.826881 
4099.768362  	94.854255 
4100.732787  	94.888913 
4101.697211  	94.883087 
4102.661636  	94.881153 
4103.626060  	94.888734 
4104.590485  	94.905515 
4105.554909  	94.866042 
4106.519334  	94.874757 
4107.483758  	94.855175 
4108.448183  	94.842706 
4109.412607  	94.861510 
4110.377031  	94.832805 
4111.341456  	94.878808 
4112.305880  	94.937178 
4113.270305  	94.955154 
4114.234729  	94.955424 
4115.199154  	94.976509 
4116.163578  	94.910324 
4117.128003  	94.873187 
4118.092427  	94.870521 
4119.056852  	94.829561 
4120.021276  	94.851475 
4120.985700  	94.851898 
4121.950125  	94.904295 
4122.914549  	94.923838 
4123.878974  	94.892468 
4124.843398  	94.878425 
4125.807823  	94.912881 
4126.772247  	94.894233 
4127.736672  	94.849454 
4128.701096  	94.844302 
4129.665521  	94.892715 
4130.629945  	94.919520 
4131.594370  	94.935325 
4132.558794  	94.916402 
4133.523218  	94.899683 
4134.487643  	94.903708 
4135.452067  	94.887401 
4136.416492  	94.889458 
4137.380916  	94.929914 
4138.345341  	94.954276 
4139.309765  	94.917437 
4140.274190  	94.926288 
4141.238614  	94.916689 
4142.203039  	94.930595 
4143.167463  	95.012976 
4144.131887  	94.955771 
4145.096312  	94.905412 
4146.060736  	94.947632 
4147.025161  	94.989108 
4147.989585  	94.980729 
4148.954010  	94.953095 
4149.918434  	94.918145 
4150.882859  	94.911065 
4151.847283  	94.919066 
4152.811708  	94.917753 
4153.776132  	94.929052 
4154.740556  	94.934978 
4155.704981  	94.918501 
4156.669405  	94.900177 
4157.633830  	94.915399 
4158.598254  	94.946705 
4159.562679  	94.943286 
4160.527103  	94.911540 
4161.491528  	94.927043 
4162.455952  	94.968547 
4163.420377  	94.971258 
4164.384801  	94.982579 
4165.349225  	94.952033 
4166.313650  	94.910522 
4167.278074  	94.902187 
4168.242499  	94.934553 
4169.206923  	94.985093 
4170.171348  	94.991228 
4171.135772  	94.970648 
4172.100197  	94.917446 
4173.064621  	94.900505 
4174.029046  	94.936244 
4174.993470  	94.940480 
4175.957894  	94.956750 
4176.922319  	94.992112 
4177.886743  	94.986748 
4178.851168  	94.968797 
4179.815592  	94.941455 
4180.780017  	94.925908 
4181.744441  	94.986159 
4182.708866  	95.006177 
4183.673290  	94.971140 
4184.637715  	94.918127 
4185.602139  	94.950086 
4186.566563  	94.952859 
4187.530988  	94.933200 
4188.495412  	94.963806 
4189.459837  	95.004809 
4190.424261  	94.985568 
4191.388686  	94.985675 
4192.353110  	95.068177 
4193.317535  	95.033063 
4194.281959  	94.958031 
4195.246384  	94.959282 
4196.210808  	94.920423 
4197.175233  	94.923672 
4198.139657  	94.980919 
4199.104081  	95.007318 
4200.068506  	94.979472 
4201.032930  	94.971084 
4201.997355  	95.040617 
4202.961779  	95.091231 
4203.926204  	95.006378 
4204.890628  	94.939357 
4205.855053  	94.970318 
4206.819477  	94.950360 
4207.783902  	94.953134 
4208.748326  	94.983012 
4209.712750  	95.026475 
4210.677175  	95.075929 
4211.641599  	95.055463 
4212.606024  	95.014757 
4213.570448  	95.005167 
4214.534873  	95.037359 
4215.499297  	94.979057 
4216.463722  	94.931630 
4217.428146  	94.905043 
4218.392571  	94.941983 
4219.356995  	94.986669 
4220.321419  	94.998242 
4221.285844  	95.065724 
4222.250268  	95.075842 
4223.214693  	94.958390 
4224.179117  	94.934897 
4225.143542  	95.016921 
4226.107966  	95.066460 
4227.072391  	95.093285 
4228.036815  	95.028063 
4229.001240  	94.969170 
4229.965664  	94.927202 
4230.930088  	94.950947 
4231.894513  	95.029456 
4232.858937  	95.054188 
4233.823362  	95.065395 
4234.787786  	95.048880 
4235.752211  	95.016682 
4236.716635  	95.004243 
4237.681060  	95.029573 
4238.645484  	95.007602 
4239.609909  	94.974716 
4240.574333  	95.017324 
4241.538757  	95.078959 
4242.503182  	95.074133 
4243.467606  	95.050163 
4244.432031  	95.005788 
4245.396455  	95.036169 
4246.360880  	95.043057 
4247.325304  	94.999220 
4248.289729  	95.019389 
4249.254153  	95.078939 
4250.218578  	95.097116 
4251.183002  	95.090197 
4252.147427  	95.053204 
4253.111851  	94.996002 
4254.076275  	94.952627 
4255.040700  	94.968792 
4256.005124  	94.993965 
4256.969549  	95.083292 
4257.933973  	95.108926 
4258.898398  	95.037446 
4259.862822  	94.971532 
4260.827247  	94.942948 
4261.791671  	94.945566 
4262.756096  	95.014110 
4263.720520  	95.051251 
4264.684944  	95.005428 
4265.649369  	94.986395 
4266.613793  	95.016955 
4267.578218  	94.978400 
4268.542642  	94.977795 
4269.507067  	95.000579 
4270.471491  	94.958544 
4271.435916  	94.942881 
4272.400340  	94.954059 
4273.364765  	95.011760 
4274.329189  	95.062119 
4275.293613  	95.065217 
4276.258038  	95.020387 
4277.222462  	94.987386 
4278.186887  	94.942191 
4279.151311  	94.905888 
4280.115736  	94.944338 
4281.080160  	95.010008 
4282.044585  	94.983000 
4283.009009  	94.908547 
4283.973434  	94.953933 
4284.937858  	95.028069 
4285.902282  	94.986247 
4286.866707  	94.975350 
4287.831131  	95.003654 
4288.795556  	95.042111 
4289.759980  	95.030865 
4290.724405  	94.955883 
4291.688829  	94.928216 
4292.653254  	94.950476 
4293.617678  	95.046459 
4294.582103  	95.094608 
4295.546527  	95.059803 
4296.510951  	95.021248 
4297.475376  	95.039331 
4298.439800  	95.056826 
4299.404225  	95.076260 
4300.368649  	95.065257 
4301.333074  	94.975355 
4302.297498  	94.880531 
4303.261923  	94.899246 
4304.226347  	95.010504 
4305.190772  	95.117467 
4306.155196  	95.082792 
4307.119620  	95.048832 
4308.084045  	95.070035 
4309.048469  	95.123715 
4310.012894  	95.117861 
4310.977318  	95.102726 
4311.941743  	95.084390 
4312.906167  	95.059208 
4313.870592  	95.011269 
4314.835016  	95.054025 
4315.799441  	95.079846 
4316.763865  	95.062441 
4317.728290  	95.080258 
4318.692714  	95.126594 
4319.657138  	95.069753 
4320.621563  	95.036575 
4321.585987  	95.011709 
4322.550412  	95.055256 
4323.514836  	95.092634 
4324.479261  	95.048027 
4325.443685  	95.008004 
4326.408110  	95.043524 
4327.372534  	95.109327 
4328.336959  	95.164657 
4329.301383  	95.103929 
4330.265807  	95.081948 
4331.230232  	95.073623 
4332.194656  	95.045516 
4333.159081  	95.115741 
4334.123505  	95.120865 
4335.087930  	95.065637 
4336.052354  	95.049037 
4337.016779  	95.089463 
4337.981203  	95.111297 
4338.945628  	95.091636 
4339.910052  	95.066787 
4340.874476  	95.100238 
4341.838901  	95.147264 
4342.803325  	95.066848 
4343.767750  	95.027585 
4344.732174  	95.090583 
4345.696599  	95.044670 
4346.661023  	94.963089 
4347.625448  	94.963748 
4348.589872  	94.998711 
4349.554297  	95.090972 
4350.518721  	95.144876 
4351.483145  	95.119902 
4352.447570  	95.048425 
4353.411994  	95.072439 
4354.376419  	95.041929 
4355.340843  	95.051412 
4356.305268  	95.111319 
4357.269692  	95.146788 
4358.234117  	95.148236 
4359.198541  	95.135844 
4360.162966  	95.127591 
4361.127390  	95.134198 
4362.091814  	95.070605 
4363.056239  	95.062278 
4364.020663  	95.110662 
4364.985088  	95.047236 
4365.949512  	95.014802 
4366.913937  	95.062879 
4367.878361  	95.095619 
4368.842786  	95.135450 
4369.807210  	95.191146 
4370.771635  	95.118293 
4371.736059  	95.054661 
4372.700484  	95.083179 
4373.664908  	95.113479 
4374.629332  	95.115159 
4375.593757  	95.141757 
4376.558181  	95.155260 
4377.522606  	95.130780 
4378.487030  	95.097198 
4379.451455  	95.063950 
4380.415879  	95.043467 
4381.380304  	95.059355 
4382.344728  	95.125971 
4383.309153  	95.102314 
4384.273577  	95.140327 
4385.238001  	95.177626 
4386.202426  	95.173872 
4387.166850  	95.151615 
4388.131275  	95.086167 
4389.095699  	95.027536 
4390.060124  	95.034657 
4391.024548  	95.074041 
4391.988973  	95.101153 
4392.953397  	95.108104 
4393.917822  	95.093847 
4394.882246  	95.082624 
4395.846670  	95.072414 
4396.811095  	95.062858 
4397.775519  	95.082744 
4398.739944  	95.160838 
4399.704368  	95.202695 
4400.668793  	95.218810 
4401.633217  	95.076632 
4402.597642  	94.992439 
4403.562066  	95.130990 
4404.526491  	95.176330 
4405.490915  	95.141975 
4406.455339  	95.152290 
4407.419764  	95.084924 
4408.384188  	95.108576 
4409.348613  	95.197157 
4410.313037  	95.220643 
4411.277462  	95.174222 
4412.241886  	95.107522 
4413.206311  	95.066005 
4414.170735  	95.053057 
4415.135160  	95.082173 
4416.099584  	95.064263 
4417.064008  	95.034424 
4418.028433  	94.999566 
4418.992857  	95.055255 
4419.957282  	95.071347 
4420.921706  	95.118613 
4421.886131  	95.176911 
4422.850555  	95.102086 
4423.814980  	95.035664 
4424.779404  	95.033235 
4425.743829  	95.035199 
4426.708253  	95.073065 
4427.672677  	95.066647 
4428.637102  	95.080059 
4429.601526  	95.127085 
4430.565951  	95.121947 
4431.530375  	95.056822 
4432.494800  	95.013677 
4433.459224  	95.018783 
4434.423649  	95.033175 
4435.388073  	95.059905 
4436.352498  	95.136150 
4437.316922  	95.153818 
4438.281347  	95.139463 
4439.245771  	95.056220 
4440.210195  	95.024762 
4441.174620  	95.091323 
4442.139044  	95.054728 
4443.103469  	95.044543 
4444.067893  	95.052849 
4445.032318  	95.090046 
4445.996742  	95.108150 
4446.961167  	95.065684 
4447.925591  	95.039318 
4448.890016  	95.048821 
4449.854440  	95.039020 
4450.818864  	95.033097 
4451.783289  	95.042158 
4452.747713  	95.009393 
4453.712138  	95.078205 
4454.676562  	95.104889 
4455.640987  	95.041762 
4456.605411  	95.065825 
4457.569836  	95.143311 
4458.534260  	95.122229 
4459.498685  	95.104791 
4460.463109  	95.117451 
4461.427533  	95.164171 
4462.391958  	95.119886 
4463.356382  	95.062892 
4464.320807  	95.130998 
4465.285231  	95.177358 
4466.249656  	95.169703 
4467.214080  	95.157830 
4468.178505  	95.132241 
4469.142929  	95.104527 
4470.107354  	95.160002 
4471.071778  	95.207051 
4472.036202  	95.203997 
4473.000627  	95.232159 
4473.965051  	95.219156 
4474.929476  	95.134675 
4475.893900  	95.134293 
4476.858325  	95.178719 
4477.822749  	95.133416 
4478.787174  	95.141973 
4479.751598  	95.168978 
4480.716023  	95.192958 
4481.680447  	95.195321 
4482.644871  	95.132468 
4483.609296  	95.064802 
4484.573720  	95.093308 
4485.538145  	95.152416 
4486.502569  	95.157913 
4487.466994  	95.129795 
4488.431418  	95.169413 
4489.395843  	95.136941 
4490.360267  	95.081357 
4491.324692  	95.087904 
4492.289116  	95.127868 
4493.253541  	95.112330 
4494.217965  	95.145613 
4495.182389  	95.177611 
4496.146814  	95.180000 
4497.111238  	95.199947 
4498.075663  	95.259005 
4499.040087  	95.226630 
4500.004512  	95.150854 
4500.968936  	95.109852 
4501.933361  	95.166170 
4502.897785  	95.235010 
4503.862210  	95.232015 
4504.826634  	95.191005 
4505.791058  	95.185779 
4506.755483  	95.147992 
4507.719907  	95.157204 
4508.684332  	95.215186 
4509.648756  	95.230332 
4510.613181  	95.209012 
4511.577605  	95.244324 
4512.542030  	95.282307 
4513.506454  	95.287961 
4514.470879  	95.185545 
4515.435303  	95.091291 
4516.399727  	95.133196 
4517.364152  	95.176991 
4518.328576  	95.176034 
4519.293001  	95.131104 
4520.257425  	95.114885 
4521.221850  	95.087492 
4522.186274  	95.132659 
4523.150699  	95.177666 
4524.115123  	95.160811 
4525.079548  	95.137172 
4526.043972  	95.120215 
4527.008396  	95.179209 
4527.972821  	95.159845 
4528.937245  	95.164241 
4529.901670  	95.174338 
4530.866094  	95.222587 
4531.830519  	95.265869 
4532.794943  	95.208784 
4533.759368  	95.167089 
4534.723792  	95.190275 
4535.688217  	95.180681 
4536.652641  	95.178576 
4537.617065  	95.218635 
4538.581490  	95.299249 
4539.545914  	95.270895 
4540.510339  	95.283513 
4541.474763  	95.185122 
4542.439188  	95.080458 
4543.403612  	95.119976 
4544.368037  	95.120672 
4545.332461  	95.157509 
4546.296886  	95.230892 
4547.261310  	95.165481 
4548.225734  	95.179995 
4549.190159  	95.229289 
4550.154583  	95.214097 
4551.119008  	95.129633 
4552.083432  	95.087859 
4553.047857  	95.083772 
4554.012281  	95.134588 
4554.976706  	95.191933 
4555.941130  	95.208166 
4556.905555  	95.225837 
4557.869979  	95.292347 
4558.834404  	95.361811 
4559.798828  	95.255112 
4560.763252  	95.090413 
4561.727677  	95.066335 
4562.692101  	95.174280 
4563.656526  	95.258467 
4564.620950  	95.252674 
4565.585375  	95.150322 
4566.549799  	95.151400 
4567.514224  	95.215875 
4568.478648  	95.244111 
4569.443073  	95.245567 
4570.407497  	95.246626 
4571.371921  	95.237978 
4572.336346  	95.210848 
4573.300770  	95.204238 
4574.265195  	95.197551 
4575.229619  	95.178653 
4576.194044  	95.180702 
4577.158468  	95.209019 
4578.122893  	95.276198 
4579.087317  	95.308306 
4580.051742  	95.267690 
4581.016166  	95.315436 
4581.980590  	95.348008 
4582.945015  	95.329589 
4583.909439  	95.278421 
4584.873864  	95.243845 
4585.838288  	95.227245 
4586.802713  	95.203504 
4587.767137  	95.152750 
4588.731562  	95.150790 
4589.695986  	95.163052 
4590.660411  	95.183517 
4591.624835  	95.183819 
4592.589259  	95.182768 
4593.553684  	95.204624 
4594.518108  	95.193299 
4595.482533  	95.186652 
4596.446957  	95.229409 
4597.411382  	95.126643 
4598.375806  	95.110197 
4599.340231  	95.207012 
4600.304655  	95.202897 
4601.269080  	95.211757 
4602.233504  	95.182517 
4603.197928  	95.207261 
4604.162353  	95.260103 
4605.126777  	95.234802 
4606.091202  	95.227138 
4607.055626  	95.225888 
4608.020051  	95.223023 
4608.984475  	95.208250 
4609.948900  	95.266004 
4610.913324  	95.306620 
4611.877749  	95.281021 
4612.842173  	95.220365 
4613.806598  	95.265593 
4614.771022  	95.249973 
4615.735446  	95.204525 
4616.699871  	95.142307 
4617.664295  	95.056262 
4618.628720  	95.062582 
4619.593144  	95.160120 
4620.557569  	95.271402 
4621.521993  	95.199989 
4622.486418  	95.074280 
4623.450842  	95.119265 
4624.415267  	95.228749 
4625.379691  	95.323528 
4626.344115  	95.290023 
4627.308540  	95.224824 
4628.272964  	95.228901 
4629.237389  	95.239121 
4630.201813  	95.176281 
4631.166238  	95.172423 
4632.130662  	95.209233 
4633.095087  	95.182661 
4634.059511  	95.143225 
4635.023936  	95.257941 
4635.988360  	95.323650 
4636.952784  	95.300193 
4637.917209  	95.238699 
4638.881633  	95.149065 
4639.846058  	95.123896 
4640.810482  	95.202181 
4641.774907  	95.303562 
4642.739331  	95.237267 
4643.703756  	95.148617 
4644.668180  	95.200507 
4645.632605  	95.168396 
4646.597029  	95.182526 
4647.561453  	95.205284 
4648.525878  	95.208805 
4649.490302  	95.243160 
4650.454727  	95.294289 
4651.419151  	95.270050 
4652.383576  	95.210090 
4653.348000  	95.249263 
4654.312425  	95.296057 
4655.276849  	95.304781 
4656.241274  	95.245670 
4657.205698  	95.235810 
4658.170122  	95.212726 
4659.134547  	95.176616 
4660.098971  	95.156108 
4661.063396  	95.224158 
4662.027820  	95.256589 
4662.992245  	95.148075 
4663.956669  	95.132823 
4664.921094  	95.160416 
4665.885518  	95.203403 
4666.849943  	95.237678 
4667.814367  	95.216935 
4668.778791  	95.268727 
4669.743216  	95.364845 
4670.707640  	95.332880 
4671.672065  	95.245945 
4672.636489  	95.135553 
4673.600914  	95.159191 
4674.565338  	95.240081 
4675.529763  	95.267206 
4676.494187  	95.367613 
4677.458612  	95.415257 
4678.423036  	95.398836 
4679.387461  	95.358946 
4680.351885  	95.278718 
4681.316309  	95.245101 
4682.280734  	95.241495 
4683.245158  	95.254696 
4684.209583  	95.297310 
4685.174007  	95.288177 
4686.138432  	95.236745 
4687.102856  	95.227726 
4688.067281  	95.262466 
4689.031705  	95.259630 
4689.996130  	95.258412 
4690.960554  	95.301721 
4691.924978  	95.245941 
4692.889403  	95.152678 
4693.853827  	95.130475 
4694.818252  	95.169806 
4695.782676  	95.213513 
4696.747101  	95.173459 
4697.711525  	95.194433 
4698.675950  	95.277454 
4699.640374  	95.248695 