##TITLE=No Description
##DATA TYPE=INFRARED SPECTRUM
##XUNITS=1/CM
##YUNITS=%T
400.236149  	107.171881 
401.200574  	105.561106 
402.164998  	92.759193 
403.129423  	82.906314 
404.093847  	84.414578 
405.058272  	91.601765 
406.022696  	90.311664 
406.987120  	96.087424 
407.951545  	97.819527 
408.915969  	87.424805 
409.880394  	86.773082 
410.844818  	95.328921 
411.809243  	99.597731 
412.773667  	93.047730 
413.738092  	80.841588 
414.702516  	75.696573 
415.666941  	78.701180 
416.631365  	83.535194 
417.595789  	90.268270 
418.560214  	91.244441 
419.524638  	85.837998 
420.489063  	85.931028 
421.453487  	86.111388 
422.417912  	86.583910 
423.382336  	86.141146 
424.346761  	84.172053 
425.311185  	80.007008 
426.275610  	80.579576 
427.240034  	80.318639 
428.204458  	81.272032 
429.168883  	80.843707 
430.133307  	82.018609 
431.097732  	82.917378 
432.062156  	80.670754 
433.026581  	79.535404 
433.991005  	81.826218 
434.955430  	81.726062 
435.919854  	78.980352 
436.884279  	78.081424 
437.848703  	81.470564 
438.813127  	82.285710 
439.777552  	80.091781 
440.741976  	78.892062 
441.706401  	79.809546 
442.670825  	79.854604 
443.635250  	78.931397 
444.599674  	78.770870 
445.564099  	79.596116 
446.528523  	78.803728 
447.492948  	78.593566 
448.457372  	79.925629 
449.421796  	78.470122 
450.386221  	76.840831 
451.350645  	76.653967 
452.315070  	76.007372 
453.279494  	76.440369 
454.243919  	77.319972 
455.208343  	77.450463 
456.172768  	76.666160 
457.137192  	76.069926 
458.101617  	76.290311 
459.066041  	77.211356 
460.030466  	76.996494 
460.994890  	76.583121 
461.959314  	76.848917 
462.923739  	77.362820 
463.888163  	76.590575 
464.852588  	75.775150 
465.817012  	75.953830 
466.781437  	75.776256 
467.745861  	74.642229 
468.710286  	74.411870 
469.674710  	74.015620 
470.639135  	74.024403 
471.603559  	73.434473 
472.567983  	73.493139 
473.532408  	75.296257 
474.496832  	75.325524 
475.461257  	74.430203 
476.425681  	73.945513 
477.390106  	74.481489 
478.354530  	75.057128 
479.318955  	74.538608 
480.283379  	74.132895 
481.247804  	74.775096 
482.212228  	74.574029 
483.176652  	74.993689 
484.141077  	74.836925 
485.105501  	73.771152 
486.069926  	73.196278 
487.034350  	73.259220 
487.998775  	73.382557 
488.963199  	73.645263 
489.927624  	73.650137 
490.892048  	73.123144 
491.856473  	72.789433 
492.820897  	73.475106 
493.785321  	73.480366 
494.749746  	72.785222 
495.714170  	72.724128 
496.678595  	72.586054 
497.643019  	72.740015 
498.607444  	73.008970 
499.571868  	72.900365 
500.536293  	72.736531 
501.500717  	71.927944 
502.465142  	71.152275 
503.429566  	71.463924 
504.393990  	71.727169 
505.358415  	71.940926 
506.322839  	71.411969 
507.287264  	71.057115 
508.251688  	71.434338 
509.216113  	71.601109 
510.180537  	70.876827 
511.144962  	70.728848 
512.109386  	71.017123 
513.073811  	71.025379 
514.038235  	70.745230 
515.002660  	70.131563 
515.967084  	69.780117 
516.931508  	69.705924 
517.895933  	70.099128 
518.860357  	70.107852 
519.824782  	69.366699 
520.789206  	69.383019 
521.753631  	69.832664 
522.718055  	69.874427 
523.682480  	69.615107 
524.646904  	69.158100 
525.611329  	68.282884 
526.575753  	67.926477 
527.540177  	68.259461 
528.504602  	68.433186 
529.469026  	68.196499 
530.433451  	68.106829 
531.397875  	68.078023 
532.362300  	67.845043 
533.326724  	67.932692 
534.291149  	67.955805 
535.255573  	67.818244 
536.219998  	67.998916 
537.184422  	68.745006 
538.148846  	68.922234 
539.113271  	69.215307 
540.077695  	69.520424 
541.042120  	70.033576 
542.006544  	70.165445 
542.970969  	70.129797 
543.935393  	70.001552 
544.899818  	69.890462 
545.864242  	70.139592 
546.828667  	70.104009 
547.793091  	69.736819 
548.757515  	69.888126 
549.721940  	69.801834 
550.686364  	69.327590 
551.650789  	69.378362 
552.615213  	69.038314 
553.579638  	68.917258 
554.544062  	68.761733 
555.508487  	68.636403 
556.472911  	68.133698 
557.437336  	67.472754 
558.401760  	67.439686 
559.366184  	67.456792 
560.330609  	66.909327 
561.295033  	66.507634 
562.259458  	66.278796 
563.223882  	65.861217 
564.188307  	65.298665 
565.152731  	64.970638 
566.117156  	64.471347 
567.081580  	63.722941 
568.046005  	63.128910 
569.010429  	62.517468 
569.974853  	61.999153 
570.939278  	61.493578 
571.903702  	60.992760 
572.868127  	60.530302 
573.832551  	60.041193 
574.796976  	59.657182 
575.761400  	59.092878 
576.725825  	59.299126 
577.690249  	59.682622 
578.654674  	59.934471 
579.619098  	60.208928 
580.583523  	60.489045 
581.547947  	61.452825 
582.512371  	62.624988 
583.476796  	63.425780 
584.441220  	64.251285 
585.405645  	65.250129 
586.370069  	66.260245 
587.334494  	67.028621 
588.298918  	67.777963 
589.263343  	68.172282 
590.227767  	68.568193 
591.192192  	68.739522 
592.156616  	68.885501 
593.121040  	69.474523 
594.085465  	69.818993 
595.049889  	70.010828 
596.014314  	70.383227 
596.978738  	70.653011 
597.943163  	70.868471 
598.907587  	70.978410 
599.872012  	70.881560 
600.836436  	71.066837 
601.800861  	71.332472 
602.765285  	71.364817 
603.729709  	71.418904 
604.694134  	71.560978 
605.658558  	71.811876 
606.622983  	72.018197 
607.587407  	71.922390 
608.551832  	71.879145 
609.516256  	72.012341 
610.480681  	71.972535 
611.445105  	71.992501 
612.409530  	72.078408 
613.373954  	72.153996 
614.338378  	72.110308 
615.302803  	71.978722 
616.267227  	71.939551 
617.231652  	72.165517 
618.196076  	71.955825 
619.160501  	71.547615 
620.124925  	71.555770 
621.089350  	71.975673 
622.053774  	71.893749 
623.018199  	72.013537 
623.982623  	72.020222 
624.947047  	72.035166 
625.911472  	71.981168 
626.875896  	72.246883 
627.840321  	72.254124 
628.804745  	72.266640 
629.769170  	72.147734 
630.733594  	72.049959 
631.698019  	72.094773 
632.662443  	72.173807 
633.626868  	72.060017 
634.591292  	71.824954 
635.555717  	71.469900 
636.520141  	71.726382 
637.484565  	71.744707 
638.448990  	71.598421 
639.413414  	71.437265 
640.377839  	71.462172 
641.342263  	71.356132 
642.306688  	71.140193 
643.271112  	71.082831 
644.235537  	70.966866 
645.199961  	70.863170 
646.164386  	70.842911 
647.128810  	70.644283 
648.093234  	70.409866 
649.057659  	70.145756 
650.022083  	70.090732 
650.986508  	70.043395 
651.950932  	69.759146 
652.915357  	69.455147 
653.879781  	69.273582 
654.844206  	69.139412 
655.808630  	68.923030 
656.773055  	68.559118 
657.737479  	68.357785 
658.701903  	67.977439 
659.666328  	67.590850 
660.630752  	67.342840 
661.595177  	67.197300 
662.559601  	66.860739 
663.524026  	66.482054 
664.488450  	66.176175 
665.452875  	65.972776 
666.417299  	65.857292 
667.381724  	65.928510 
668.346148  	65.197855 
669.310572  	64.745738 
670.274997  	64.751165 
671.239421  	64.567212 
672.203846  	64.322585 
673.168270  	64.088438 
674.132695  	63.634262 
675.097119  	63.362903 
676.061544  	63.194346 
677.025968  	63.094827 
677.990393  	62.830383 
678.954817  	62.703674 
679.919241  	62.664260 
680.883666  	62.700618 
681.848090  	62.608777 
682.812515  	62.484842 
683.776939  	62.480089 
684.741364  	62.623520 
685.705788  	62.643474 
686.670213  	62.771125 
687.634637  	62.911638 
688.599062  	63.079335 
689.563486  	63.427165 
690.527910  	63.858385 
691.492335  	64.201487 
692.456759  	64.683462 
693.421184  	65.109015 
694.385608  	65.608513 
695.350033  	66.055779 
696.314457  	66.505826 
697.278882  	66.835578 
698.243306  	67.178758 
699.207731  	67.585173 
700.172155  	68.078901 
701.136580  	68.440141 
702.101004  	68.766987 
703.065428  	69.077130 
704.029853  	69.391614 
704.994277  	69.714728 
705.958702  	70.084991 
706.923126  	70.360410 
707.887551  	70.494187 
708.851975  	70.773850 
709.816400  	70.971874 
710.780824  	71.118885 
711.745249  	71.250293 
712.709673  	71.327123 
713.674097  	71.411791 
714.638522  	71.609236 
715.602946  	71.772258 
716.567371  	71.740419 
717.531795  	71.771689 
718.496220  	71.823278 
719.460644  	71.680729 
720.425069  	71.660743 
721.389493  	71.854424 
722.353918  	71.942934 
723.318342  	71.932115 
724.282766  	71.865157 
725.247191  	71.779467 
726.211615  	71.690122 
727.176040  	71.633233 
728.140464  	71.568399 
729.104889  	71.687004 
730.069313  	71.953428 
731.033738  	72.459129 
731.998162  	73.079827 
732.962587  	73.809444 
733.927011  	74.529213 
734.891435  	75.282558 
735.855860  	76.067489 
736.820284  	76.921534 
737.784709  	77.696956 
738.749133  	78.305074 
739.713558  	78.748307 
740.677982  	79.140722 
741.642407  	79.447029 
742.606831  	79.843762 
743.571256  	80.069230 
744.535680  	80.168372 
745.500104  	80.415609 
746.464529  	80.560815 
747.428953  	80.551668 
748.393378  	80.767005 
749.357802  	80.978264 
750.322227  	81.056448 
751.286651  	80.993594 
752.251076  	81.089886 
753.215500  	81.261712 
754.179925  	81.377761 
755.144349  	81.531901 
756.108774  	81.724692 
757.073198  	81.764706 
758.037622  	81.803734 
759.002047  	81.787792 
759.966471  	81.845542 
760.930896  	81.982171 
761.895320  	82.088791 
762.859745  	82.358700 
763.824169  	82.581846 
764.788594  	82.687389 
765.753018  	82.795013 
766.717443  	82.924268 
767.681867  	83.028226 
768.646291  	83.034435 
769.610716  	83.168805 
770.575140  	83.396271 
771.539565  	83.615276 
772.503989  	83.591268 
773.468414  	83.663865 
774.432838  	83.859274 
775.397263  	84.025594 
776.361687  	84.132741 
777.326112  	84.265312 
778.290536  	84.267921 
779.254960  	84.278200 
780.219385  	84.358721 
781.183809  	84.832328 
782.148234  	84.763220 
783.112658  	84.930427 
784.077083  	85.092084 
785.041507  	85.148483 
786.005932  	85.283015 
786.970356  	85.110061 
787.934781  	84.955595 
788.899205  	85.061462 
789.863629  	85.245674 
790.828054  	85.362253 
791.792478  	85.299252 
792.756903  	85.203401 
793.721327  	85.233791 
794.685752  	85.209166 
795.650176  	85.298707 
796.614601  	85.506008 
797.579025  	85.704327 
798.543450  	85.638055 
799.507874  	85.641804 
800.472298  	85.928328 
801.436723  	86.232678 
802.401147  	86.306516 
803.365572  	86.385224 
804.329996  	86.552425 
805.294421  	86.677879 
806.258845  	86.736378 
807.223270  	86.819430 
808.187694  	86.891810 
809.152119  	86.971650 
810.116543  	86.982881 
811.080967  	87.007029 
812.045392  	87.116886 
813.009816  	87.227220 
813.974241  	87.312758 
814.938665  	87.414431 
815.903090  	87.453173 
816.867514  	87.442777 
817.831939  	87.540136 
818.796363  	87.713957 
819.760788  	87.828788 
820.725212  	87.891877 
821.689637  	87.918588 
822.654061  	88.042991 
823.618485  	88.176884 
824.582910  	88.238190 
825.547334  	88.187164 
826.511759  	88.197418 
827.476183  	88.281377 
828.440608  	88.373294 
829.405032  	88.388038 
830.369457  	88.368812 
831.333881  	88.429270 
832.298306  	88.584200 
833.262730  	88.619539 
834.227154  	88.609012 
835.191579  	88.689953 
836.156003  	88.819334 
837.120428  	88.850783 
838.084852  	88.710714 
839.049277  	88.695618 
840.013701  	88.792309 
840.978126  	88.784612 
841.942550  	88.825098 
842.906975  	88.882876 
843.871399  	88.881764 
844.835823  	88.830029 
845.800248  	88.893342 
846.764672  	88.995180 
847.729097  	89.079417 
848.693521  	89.049607 
849.657946  	89.089195 
850.622370  	89.159589 
851.586795  	89.162826 
852.551219  	89.045431 
853.515644  	89.063432 
854.480068  	89.220722 
855.444492  	89.228756 
856.408917  	89.239287 
857.373341  	89.303815 
858.337766  	89.342845 
859.302190  	89.351398 
860.266615  	89.382675 
861.231039  	89.396268 
862.195464  	89.422934 
863.159888  	89.410873 
864.124313  	89.391168 
865.088737  	89.374838 
866.053161  	89.384975 
867.017586  	89.383689 
867.982010  	89.400350 
868.946435  	89.441497 
869.910859  	89.427079 
870.875284  	89.289965 
871.839708  	89.269163 
872.804133  	89.370646 
873.768557  	89.386394 
874.732982  	89.286793 
875.697406  	89.221008 
876.661831  	89.186769 
877.626255  	89.186561 
878.590679  	89.255835 
879.555104  	89.320744 
880.519528  	89.305107 
881.483953  	89.260439 
882.448377  	89.195290 
883.412802  	89.177073 
884.377226  	89.195778 
885.341651  	89.218778 
886.306075  	89.140891 
887.270500  	89.098285 
888.234924  	89.151970 
889.199348  	89.126164 
890.163773  	89.060410 
891.128197  	89.064278 
892.092622  	89.063352 
893.057046  	88.948004 
894.021471  	88.868184 
894.985895  	88.851817 
895.950320  	88.702876 
896.914744  	88.500482 
897.879169  	88.375248 
898.843593  	88.286299 
899.808017  	88.116039 
900.772442  	87.828643 
901.736866  	87.456503 
902.701291  	87.092265 
903.665715  	86.754818 
904.630140  	86.465281 
905.594564  	86.273881 
906.558989  	86.346899 
907.523413  	86.601991 
908.487838  	86.844032 
909.452262  	87.127301 
910.416686  	87.414172 
911.381111  	87.582080 
912.345535  	87.609723 
913.309960  	87.587216 
914.274384  	87.526631 
915.238809  	87.402540 
916.203233  	87.279700 
917.167658  	87.195632 
918.132082  	87.083240 
919.096507  	86.970992 
920.060931  	86.855736 
921.025355  	86.682747 
921.989780  	86.458360 
922.954204  	86.165583 
923.918629  	85.830317 
924.883053  	85.552458 
925.847478  	85.236090 
926.811902  	84.817541 
927.776327  	84.321346 
928.740751  	83.744329 
929.705176  	83.130980 
930.669600  	82.418873 
931.634024  	81.649125 
932.598449  	80.937801 
933.562873  	80.423843 
934.527298  	80.215138 
935.491722  	80.414142 
936.456147  	81.028258 
937.420571  	81.963408 
938.384996  	82.947812 
939.349420  	83.876399 
940.313845  	84.705375 
941.278269  	85.417689 
942.242694  	85.990015 
943.207118  	86.379734 
944.171542  	86.710336 
945.135967  	87.012965 
946.100391  	87.205481 
947.064816  	87.365706 
948.029240  	87.555461 
948.993665  	87.687652 
949.958089  	87.795137 
950.922514  	87.902140 
951.886938  	88.039763 
952.851363  	88.090187 
953.815787  	88.069770 
954.780211  	88.135474 
955.744636  	88.258131 
956.709060  	88.307395 
957.673485  	88.318669 
958.637909  	88.330096 
959.602334  	88.344576 
960.566758  	88.372493 
961.531183  	88.367248 
962.495607  	88.354285 
963.460032  	88.417050 
964.424456  	88.447570 
965.388880  	88.380432 
966.353305  	88.357465 
967.317729  	88.422443 
968.282154  	88.447576 
969.246578  	88.398319 
970.211003  	88.395446 
971.175427  	88.388778 
972.139852  	88.323453 
973.104276  	88.265079 
974.068701  	88.274608 
975.033125  	88.246753 
975.997549  	88.174902 
976.961974  	88.086800 
977.926398  	88.049956 
978.890823  	88.013558 
979.855247  	87.921876 
980.819672  	87.810995 
981.784096  	87.720016 
982.748521  	87.661682 
983.712945  	87.524889 
984.677370  	87.354952 
985.641794  	87.258869 
986.606218  	87.180497 
987.570643  	87.107551 
988.535067  	87.081289 
989.499492  	87.101538 
990.463916  	87.081052 
991.428341  	87.018682 
992.392765  	86.928775 
993.357190  	86.820675 
994.321614  	86.737392 
995.286039  	86.668445 
996.250463  	86.625686 
997.214888  	86.559540 
998.179312  	86.495728 
999.143736  	86.423047 
1000.108161  	86.337212 
1001.072585  	86.266907 
1002.037010  	86.255212 
1003.001434  	86.182933 
1003.965859  	86.066146 
1004.930283  	86.006856 
1005.894708  	85.927363 
1006.859132  	85.789970 
1007.823557  	85.648676 
1008.787981  	85.568386 
1009.752405  	85.488610 
1010.716830  	85.368613 
1011.681254  	85.256477 
1012.645679  	85.204728 
1013.610103  	85.118485 
1014.574528  	84.984281 
1015.538952  	84.895726 
1016.503377  	84.887803 
1017.467801  	84.873894 
1018.432226  	84.842423 
1019.396650  	84.810680 
1020.361074  	84.815135 
1021.325499  	84.834872 
1022.289923  	84.795734 
1023.254348  	84.717159 
1024.218772  	84.615826 
1025.183197  	84.557470 
1026.147621  	84.531059 
1027.112046  	84.471628 
1028.076470  	84.378016 
1029.040895  	84.272166 
1030.005319  	84.181928 
1030.969743  	84.100084 
1031.934168  	84.057167 
1032.898592  	84.015651 
1033.863017  	83.968064 
1034.827441  	83.881774 
1035.791866  	83.816425 
1036.756290  	83.768284 
1037.720715  	83.709882 
1038.685139  	83.686386 
1039.649564  	83.725395 
1040.613988  	83.722165 
1041.578412  	83.694019 
1042.542837  	83.707221 
1043.507261  	83.831442 
1044.471686  	83.908709 
1045.436110  	83.919878 
1046.400535  	84.018905 
1047.364959  	84.145245 
1048.329384  	84.147461 
1049.293808  	84.156478 
1050.258233  	84.292812 
1051.222657  	84.375917 
1052.187081  	84.322454 
1053.151506  	84.292502 
1054.115930  	84.297379 
1055.080355  	84.272434 
1056.044779  	84.212280 
1057.009204  	84.149739 
1057.973628  	84.152735 
1058.938053  	84.134894 
1059.902477  	84.007912 
1060.866902  	83.914600 
1061.831326  	83.938676 
1062.795751  	83.938108 
1063.760175  	83.902516 
1064.724599  	83.894389 
1065.689024  	83.954316 
1066.653448  	84.095218 
1067.617873  	84.235377 
1068.582297  	84.355902 
1069.546722  	84.529472 
1070.511146  	84.704783 
1071.475571  	84.857157 
1072.439995  	84.988004 
1073.404420  	85.074639 
1074.368844  	85.130094 
1075.333268  	85.134399 
1076.297693  	85.120464 
1077.262117  	85.126379 
1078.226542  	85.153553 
1079.190966  	85.139357 
1080.155391  	85.080996 
1081.119815  	85.012721 
1082.084240  	84.953796 
1083.048664  	84.890078 
1084.013089  	84.889959 
1084.977513  	84.878940 
1085.941937  	84.782893 
1086.906362  	84.645221 
1087.870786  	84.566195 
1088.835211  	84.508685 
1089.799635  	84.414555 
1090.764060  	84.314724 
1091.728484  	84.305373 
1092.692909  	84.316816 
1093.657333  	84.224125 
1094.621758  	84.124873 
1095.586182  	84.148486 
1096.550606  	84.173526 
1097.515031  	84.153239 
1098.479455  	84.124420 
1099.443880  	84.129602 
1100.408304  	84.122787 
1101.372729  	84.113851 
1102.337153  	84.140602 
1103.301578  	84.168054 
1104.266002  	84.177056 
1105.230427  	84.175279 
1106.194851  	84.205127 
1107.159275  	84.259851 
1108.123700  	84.271967 
1109.088124  	84.267433 
1110.052549  	84.288471 
1111.016973  	84.298242 
1111.981398  	84.314327 
1112.945822  	84.346216 
1113.910247  	84.337206 
1114.874671  	84.332345 
1115.839096  	84.348054 
1116.803520  	84.347185 
1117.767945  	84.337329 
1118.732369  	84.330788 
1119.696793  	84.354857 
1120.661218  	84.321911 
1121.625642  	84.214916 
1122.590067  	84.164367 
1123.554491  	84.118256 
1124.518916  	84.037681 
1125.483340  	83.988910 
1126.447765  	83.946849 
1127.412189  	83.839635 
1128.376614  	83.724571 
1129.341038  	83.580072 
1130.305462  	83.411510 
1131.269887  	83.205572 
1132.234311  	82.902443 
1133.198736  	82.517907 
1134.163160  	82.088311 
1135.127585  	81.605731 
1136.092009  	81.109490 
1137.056434  	80.672109 
1138.020858  	80.389458 
1138.985283  	80.268300 
1139.949707  	80.237880 
1140.914131  	80.283076 
1141.878556  	80.369577 
1142.842980  	80.373738 
1143.807405  	80.384551 
1144.771829  	80.415364 
1145.736254  	80.399825 
1146.700678  	80.398623 
1147.665103  	80.425115 
1148.629527  	80.499626 
1149.593952  	80.647193 
1150.558376  	80.834909 
1151.522800  	81.010825 
1152.487225  	81.197642 
1153.451649  	81.403021 
1154.416074  	81.625811 
1155.380498  	81.799111 
1156.344923  	81.931190 
1157.309347  	82.056408 
1158.273772  	82.133771 
1159.238196  	82.140429 
1160.202621  	82.165370 
1161.167045  	82.160397 
1162.131469  	82.054036 
1163.095894  	81.924206 
1164.060318  	81.821802 
1165.024743  	81.688666 
1165.989167  	81.518338 
1166.953592  	81.337497 
1167.918016  	81.131352 
1168.882441  	80.866781 
1169.846865  	80.535290 
1170.811290  	80.128306 
1171.775714  	79.672816 
1172.740138  	79.189850 
1173.704563  	78.612656 
1174.668987  	77.979124 
1175.633412  	77.462016 
1176.597836  	76.995696 
1177.562261  	76.551565 
1178.526685  	76.241952 
1179.491110  	76.123378 
1180.455534  	76.176331 
1181.419959  	76.365590 
1182.384383  	76.574750 
1183.348808  	76.794757 
1184.313232  	77.035726 
1185.277656  	77.211323 
1186.242081  	77.280349 
1187.206505  	77.256226 
1188.170930  	77.149922 
1189.135354  	76.898842 
1190.099779  	76.509824 
1191.064203  	75.997437 
1192.028628  	75.330639 
1192.993052  	74.515759 
1193.957477  	73.685740 
1194.921901  	72.906766 
1195.886325  	72.264574 
1196.850750  	71.878067 
1197.815174  	71.883100 
1198.779599  	72.377181 
1199.744023  	73.251119 
1200.708448  	74.277757 
1201.672872  	75.344349 
1202.637297  	76.383595 
1203.601721  	77.329162 
1204.566146  	78.132983 
1205.530570  	78.805759 
1206.494994  	79.351312 
1207.459419  	79.768335 
1208.423843  	80.090603 
1209.388268  	80.324374 
1210.352692  	80.481280 
1211.317117  	80.549236 
1212.281541  	80.549603 
1213.245966  	80.593864 
1214.210390  	80.633651 
1215.174815  	80.591690 
1216.139239  	80.506030 
1217.103663  	80.421098 
1218.068088  	80.322455 
1219.032512  	80.123505 
1219.996937  	79.835150 
1220.961361  	79.480604 
1221.925786  	79.078388 
1222.890210  	78.651510 
1223.854635  	78.298913 
1224.819059  	78.147778 
1225.783484  	78.285973 
1226.747908  	78.550205 
1227.712332  	78.721693 
1228.676757  	78.776254 
1229.641181  	78.705148 
1230.605606  	78.524708 
1231.570030  	78.289399 
1232.534455  	78.072260 
1233.498879  	77.879295 
1234.463304  	77.697713 
1235.427728  	77.513227 
1236.392153  	77.368558 
1237.356577  	77.254690 
1238.321002  	77.112748 
1239.285426  	77.010111 
1240.249850  	76.926927 
1241.214275  	76.825255 
1242.178699  	76.692964 
1243.143124  	76.535530 
1244.107548  	76.401889 
1245.071973  	76.333539 
1246.036397  	76.227531 
1247.000822  	76.091558 
1247.965246  	75.959262 
1248.929671  	75.806885 
1249.894095  	75.636484 
1250.858519  	75.517111 
1251.822944  	75.371137 
1252.787368  	75.171061 
1253.751793  	74.984393 
1254.716217  	74.786427 
1255.680642  	74.606309 
1256.645066  	74.450132 
1257.609491  	74.223942 
1258.573915  	73.926575 
1259.538340  	73.592101 
1260.502764  	73.242792 
1261.467188  	73.033185 
1262.431613  	72.815306 
1263.396037  	72.535840 
1264.360462  	72.244578 
1265.324886  	71.940302 
1266.289311  	71.647534 
1267.253735  	71.420687 
1268.218160  	71.184062 
1269.182584  	70.901392 
1270.147009  	70.626085 
1271.111433  	70.451500 
1272.075857  	70.288617 
1273.040282  	70.293530 
1274.004706  	70.343157 
1274.969131  	70.448267 
1275.933555  	70.669801 
1276.897980  	71.042727 
1277.862404  	71.555093 
1278.826829  	72.155157 
1279.791253  	72.783152 
1280.755678  	73.461042 
1281.720102  	74.170466 
1282.684526  	74.864947 
1283.648951  	75.487878 
1284.613375  	76.025569 
1285.577800  	76.549769 
1286.542224  	76.939117 
1287.506649  	77.134963 
1288.471073  	77.433174 
1289.435498  	77.872702 
1290.399922  	78.166311 
1291.364347  	78.399169 
1292.328771  	78.625310 
1293.293195  	78.788209 
1294.257620  	78.898724 
1295.222044  	78.952415 
1296.186469  	78.933847 
1297.150893  	78.980648 
1298.115318  	79.144250 
1299.079742  	79.162325 
1300.044167  	79.159281 
1301.008591  	79.161618 
1301.973016  	79.174937 
1302.937440  	79.200982 
1303.901865  	79.285304 
1304.866289  	79.414385 
1305.830713  	79.528767 
1306.795138  	79.608273 
1307.759562  	79.652052 
1308.723987  	79.794634 
1309.688411  	80.070476 
1310.652836  	80.186446 
1311.617260  	80.122202 
1312.581685  	79.829880 
1313.546109  	79.946641 
1314.510534  	80.179316 
1315.474958  	80.385400 
1316.439382  	80.299034 
1317.403807  	80.160598 
1318.368231  	80.157076 
1319.332656  	80.034346 
1320.297080  	80.293270 
1321.261505  	80.472821 
1322.225929  	80.574470 
1323.190354  	80.514124 
1324.154778  	80.477630 
1325.119203  	80.418294 
1326.083627  	80.327451 
1327.048051  	80.220730 
1328.012476  	80.153584 
1328.976900  	80.088095 
1329.941325  	80.009949 
1330.905749  	80.048216 
1331.870174  	80.107097 
1332.834598  	80.038775 
1333.799023  	79.966614 
1334.763447  	79.858860 
1335.727872  	79.502248 
1336.692296  	78.887615 
1337.656720  	78.675312 
1338.621145  	77.944132 
1339.585569  	77.156372 
1340.549994  	77.331601 
1341.514418  	78.432013 
1342.478843  	78.911673 
1343.443267  	78.829761 
1344.407692  	78.732256 
1345.372116  	78.633762 
1346.336541  	78.517003 
1347.300965  	78.362674 
1348.265389  	78.158680 
1349.229814  	77.863519 
1350.194238  	77.733428 
1351.158663  	77.613752 
1352.123087  	77.400341 
1353.087512  	77.223940 
1354.051936  	76.886659 
1355.016361  	76.412143 
1355.980785  	76.383699 
1356.945210  	76.248293 
1357.909634  	75.924926 
1358.874059  	75.757490 
1359.838483  	75.559482 
1360.802907  	74.798189 
1361.767332  	74.174944 
1362.731756  	73.235696 
1363.696181  	73.153383 
1364.660605  	74.142740 
1365.625030  	74.213114 
1366.589454  	74.014574 
1367.553879  	73.629050 
1368.518303  	73.006438 
1369.482728  	72.911687 
1370.447152  	73.238117 
1371.411576  	73.284538 
1372.376001  	73.243550 
1373.340425  	72.810212 
1374.304850  	72.635740 
1375.269274  	73.442472 
1376.233699  	74.623171 
1377.198123  	75.146931 
1378.162548  	75.273766 
1379.126972  	75.720270 
1380.091397  	76.206978 
1381.055821  	76.680856 
1382.020245  	76.948934 
1382.984670  	77.196756 
1383.949094  	77.444430 
1384.913519  	77.633337 
1385.877943  	77.395595 
1386.842368  	76.586280 
1387.806792  	76.614754 
1388.771217  	77.924791 
1389.735641  	78.550275 
1390.700066  	78.722858 
1391.664490  	79.002851 
1392.628914  	79.276485 
1393.593339  	78.894677 
1394.557763  	77.884983 
1395.522188  	77.961187 
1396.486612  	78.862206 
1397.451037  	78.991549 
1398.415461  	78.470043 
1399.379886  	78.365599 
1400.344310  	79.243773 
1401.308735  	79.687018 
1402.273159  	79.570239 
1403.237583  	79.279566 
1404.202008  	78.493697 
1405.166432  	77.519185 
1406.130857  	77.758640 
1407.095281  	77.768869 
1408.059706  	77.146518 
1409.024130  	76.270255 
1409.988555  	75.109935 
1410.952979  	73.871838 
1411.917404  	72.417400 
1412.881828  	71.198532 
1413.846252  	69.881398 
1414.810677  	68.533960 
1415.775101  	67.362626 
1416.739526  	66.825791 
1417.703950  	67.205901 
1418.668375  	67.771010 
1419.632799  	69.230017 
1420.597224  	72.237161 
1421.561648  	73.470603 
1422.526073  	74.123466 
1423.490497  	73.748903 
1424.454922  	73.999542 
1425.419346  	75.335194 
1426.383770  	75.886136 
1427.348195  	75.955172 
1428.312619  	75.747906 
1429.277044  	75.250562 
1430.241468  	74.801743 
1431.205893  	75.094727 
1432.170317  	74.931908 
1433.134742  	74.536687 
1434.099166  	74.541488 
1435.063591  	74.203337 
1436.028015  	72.861691 
1436.992439  	72.097810 
1437.956864  	73.603682 
1438.921288  	74.256327 
1439.885713  	74.419504 
1440.850137  	74.499257 
1441.814562  	74.593695 
1442.778986  	74.705969 
1443.743411  	74.721001 
1444.707835  	74.707968 
1445.672260  	74.660259 
1446.636684  	74.468088 
1447.601108  	73.675068 
1448.565533  	73.564906 
1449.529957  	74.187065 
1450.494382  	74.122468 
1451.458806  	73.440515 
1452.423231  	72.774430 
1453.387655  	72.784959 
1454.352080  	72.066726 
1455.316504  	70.715894 
1456.280929  	69.522703 
1457.245353  	68.389192 
1458.209777  	68.154438 
1459.174202  	68.448217 
1460.138626  	69.004849 
1461.103051  	68.938298 
1462.067475  	68.199282 
1463.031900  	67.460951 
1463.996324  	66.553360 
1464.960749  	65.899606 
1465.925173  	67.221890 
1466.889598  	68.630868 
1467.854022  	69.785917 
1468.818446  	70.723416 
1469.782871  	71.041739 
1470.747295  	70.446460 
1471.711720  	68.513898 
1472.676144  	66.521017 
1473.640569  	66.295578 
1474.604993  	67.189102 
1475.569418  	67.271817 
1476.533842  	67.575948 
1477.498267  	69.653857 
1478.462691  	71.257796 
1479.427116  	72.568568 
1480.391540  	73.565629 
1481.355964  	74.320612 
1482.320389  	75.908198 
1483.284813  	77.109492 
1484.249238  	77.800859 
1485.213662  	77.962855 
1486.178087  	77.609694 
1487.142511  	77.049529 
1488.106936  	77.091909 
1489.071360  	76.084582 
1490.035785  	74.576875 
1491.000209  	75.554016 
1491.964633  	76.934427 
1492.929058  	77.264894 
1493.893482  	76.956328 
1494.857907  	76.322499 
1495.822331  	75.048575 
1496.786756  	74.231635 
1497.751180  	74.497340 
1498.715605  	73.763560 
1499.680029  	73.637613 
1500.644454  	73.689894 
1501.608878  	72.974134 
1502.573302  	72.612342 
1503.537727  	72.411933 
1504.502151  	71.489967 
1505.466576  	69.522642 
1506.431000  	65.716040 
1507.395425  	63.928516 
1508.359849  	65.028697 
1509.324274  	65.740835 
1510.288698  	65.955565 
1511.253123  	66.238532 
1512.217547  	65.376800 
1513.181971  	65.083841 
1514.146396  	64.666757 
1515.110820  	63.082376 
1516.075245  	61.432915 
1517.039669  	59.588152 
1518.004094  	59.904924 
1518.968518  	60.126013 
1519.932943  	58.630067 
1520.897367  	55.775288 
1521.861792  	55.067033 
1522.826216  	55.229884 
1523.790640  	55.210627 
1524.755065  	54.139657 
1525.719489  	52.885067 
1526.683914  	52.442134 
1527.648338  	51.561798 
1528.612763  	51.147254 
1529.577187  	51.261032 
1530.541612  	50.959860 
1531.506036  	50.127640 
1532.470461  	49.565580 
1533.434885  	48.950928 
1534.399309  	49.659845 
1535.363734  	50.513854 
1536.328158  	51.175462 
1537.292583  	51.623542 
1538.257007  	51.116883 
1539.221432  	49.733505 
1540.185856  	50.938909 
1541.150281  	52.486663 
1542.114705  	53.096696 
1543.079130  	54.253813 
1544.043554  	54.826065 
1545.007979  	55.236301 
1545.972403  	57.076880 
1546.936827  	58.721019 
1547.901252  	59.510500 
1548.865676  	59.686129 
1549.830101  	58.989612 
1550.794525  	60.340445 
1551.758950  	61.956193 
1552.723374  	62.488939 
1553.687799  	62.183062 
1554.652223  	62.275361 
1555.616648  	63.791631 
1556.581072  	64.185287 
1557.545496  	63.298777 
1558.509921  	60.902875 
1559.474345  	61.052581 
1560.438770  	64.682444 
1561.403194  	67.317397 
1562.367619  	68.417385 
1563.332043  	69.106608 
1564.296468  	69.311423 
1565.260892  	69.766855 
1566.225317  	70.932499 
1567.189741  	71.628529 
1568.154165  	71.760641 
1569.118590  	70.993919 
1570.083014  	71.706571 
1571.047439  	73.531756 
1572.011863  	74.334773 
1572.976288  	74.801068 
1573.940712  	75.230337 
1574.905137  	75.203653 
1575.869561  	74.500749 
1576.833986  	74.690601 
1577.798410  	75.992410 
1578.762834  	76.871564 
1579.727259  	77.389005 
1580.691683  	77.687926 
1581.656108  	77.929055 
1582.620532  	78.058638 
1583.584957  	78.178258 
1584.549381  	78.265917 
1585.513806  	78.339168 
1586.478230  	78.341675 
1587.442655  	78.348627 
1588.407079  	78.213207 
1589.371503  	77.957656 
1590.335928  	77.694845 
1591.300352  	77.545355 
1592.264777  	77.289587 
1593.229201  	77.021294 
1594.193626  	76.370134 
1595.158050  	75.863957 
1596.122475  	75.482082 
1597.086899  	75.103900 
1598.051324  	74.603677 
1599.015748  	73.957542 
1599.980173  	73.201487 
1600.944597  	72.293334 
1601.909021  	71.305878 
1602.873446  	70.261143 
1603.837870  	69.277771 
1604.802295  	68.550138 
1605.766719  	67.579987 
1606.731144  	66.423867 
1607.695568  	65.376738 
1608.659993  	64.618587 
1609.624417  	63.482011 
1610.588842  	62.737432 
1611.553266  	61.828701 
1612.517690  	60.759340 
1613.482115  	59.581321 
1614.446539  	58.380561 
1615.410964  	56.930029 
1616.375388  	55.150232 
1617.339813  	53.552847 
1618.304237  	53.406903 
1619.268662  	52.718835 
1620.233086  	51.851982 
1621.197511  	50.900841 
1622.161935  	49.892581 
1623.126359  	48.455237 
1624.090784  	48.027529 
1625.055208  	47.984216 
1626.019633  	47.556748 
1626.984057  	46.753938 
1627.948482  	45.955378 
1628.912906  	45.741014 
1629.877331  	45.644201 
1630.841755  	45.393491 
1631.806180  	45.399680 
1632.770604  	45.499906 
1633.735028  	45.615332 
1634.699453  	45.131375 
1635.663877  	45.414520 
1636.628302  	47.227841 
1637.592726  	48.224776 
1638.557151  	49.926842 
1639.521575  	51.285265 
1640.486000  	52.444890 
1641.450424  	53.783353 
1642.414849  	55.029291 
1643.379273  	56.451242 
1644.343697  	57.532526 
1645.308122  	57.915445 
1646.272546  	58.255579 
1647.236971  	59.331604 
1648.201395  	61.011674 
1649.165820  	63.532837 
1650.130244  	64.959934 
1651.094669  	65.719223 
1652.059093  	65.491443 
1653.023518  	63.899251 
1653.987942  	65.630771 
1654.952366  	68.877453 
1655.916791  	71.029170 
1656.881215  	72.263851 
1657.845640  	73.466499 
1658.810064  	74.638208 
1659.774489  	75.606246 
1660.738913  	76.261825 
1661.703338  	76.619709 
1662.667762  	76.944371 
1663.632187  	78.433116 
1664.596611  	79.838558 
1665.561036  	80.825810 
1666.525460  	81.698761 
1667.489884  	82.019216 
1668.454309  	81.422388 
1669.418733  	81.411208 
1670.383158  	83.097475 
1671.347582  	83.506325 
1672.312007  	84.449656 
1673.276431  	85.623707 
1674.240856  	85.829485 
1675.205280  	85.103150 
1676.169705  	85.980210 
1677.134129  	87.356611 
1678.098553  	87.971465 
1679.062978  	87.970356 
1680.027402  	86.955162 
1680.991827  	87.425302 
1681.956251  	88.638649 
1682.920676  	87.983566 
1683.885100  	84.733333 
1684.849525  	84.836216 
1685.813949  	88.695842 
1686.778374  	89.931166 
1687.742798  	89.729964 
1688.707222  	89.372774 
1689.671647  	89.880931 
1690.636071  	90.264993 
1691.600496  	91.062929 
1692.564920  	91.319896 
1693.529345  	91.230397 
1694.493769  	90.768921 
1695.458194  	89.541383 
1696.422618  	88.362379 
1697.387043  	89.442736 
1698.351467  	90.004600 
1699.315891  	89.699494 
1700.280316  	87.110045 
1701.244740  	88.603381 
1702.209165  	90.177861 
1703.173589  	90.633844 
1704.138014  	90.100528 
1705.102438  	89.809584 
1706.066863  	89.892707 
1707.031287  	89.891069 
1707.995712  	90.773655 
1708.960136  	91.186799 
1709.924560  	90.700339 
1710.888985  	90.639312 
1711.853409  	91.069792 
1712.817834  	90.770254 
1713.782258  	89.863545 
1714.746683  	88.709319 
1715.711107  	88.717187 
1716.675532  	88.942902 
1717.639956  	87.473912 
1718.604381  	87.122205 
1719.568805  	89.409902 
1720.533230  	90.391241 
1721.497654  	90.457019 
1722.462078  	90.257784 
1723.426503  	89.785070 
1724.390927  	89.906019 
1725.355352  	90.302748 
1726.319776  	90.269654 
1727.284201  	90.171101 
1728.248625  	90.050968 
1729.213050  	89.341055 
1730.177474  	88.043055 
1731.141899  	88.890781 
1732.106323  	89.230829 
1733.070747  	88.020983 
1734.035172  	85.802946 
1734.999596  	87.434403 
1735.964021  	89.566627 
1736.928445  	90.174252 
1737.892870  	90.192621 
1738.857294  	90.115301 
1739.821719  	89.559969 
1740.786143  	90.356292 
1741.750568  	91.151892 
1742.714992  	90.533106 
1743.679416  	89.514106 
1744.643841  	90.420032 
1745.608265  	91.156045 
1746.572690  	90.985869 
1747.537114  	90.496431 
1748.501539  	90.159342 
1749.465963  	90.290863 
1750.430388  	90.690870 
1751.394812  	89.943564 
1752.359237  	91.166619 
1753.323661  	92.414703 
1754.288085  	92.943133 
1755.252510  	92.980456 
1756.216934  	92.321504 
1757.181359  	91.579941 
1758.145783  	92.259676 
1759.110208  	92.741152 
1760.074632  	92.988834 
1761.039057  	92.442723 
1762.003481  	91.432731 
1762.967906  	92.365673 
1763.932330  	93.188054 
1764.896754  	93.353279 
1765.861179  	93.381435 
1766.825603  	93.179769 
1767.790028  	92.217813 
1768.754452  	91.865330 
1769.718877  	92.930101 
1770.683301  	92.669952 
1771.647726  	91.522168 
1772.612150  	91.006122 
1773.576575  	92.145101 
1774.540999  	92.872043 
1775.505423  	92.519109 
1776.469848  	92.756361 
1777.434272  	93.478166 
1778.398697  	93.303729 
1779.363121  	92.987412 
1780.327546  	92.521462 
1781.291970  	92.431936 
1782.256395  	93.189830 
1783.220819  	93.555880 
1784.185244  	93.165414 
1785.149668  	92.555700 
1786.114093  	93.137438 
1787.078517  	93.642341 
1788.042941  	93.633896 
1789.007366  	93.543281 
1789.971790  	93.182414 
1790.936215  	92.155298 
1791.900639  	91.663653 
1792.865064  	91.657896 
1793.829488  	92.596626 
1794.793913  	93.125507 
1795.758337  	92.477413 
1796.722762  	92.487620 
1797.687186  	93.298609 
1798.651610  	93.403763 
1799.616035  	92.764184 
1800.580459  	92.687342 
1801.544884  	92.482120 
1802.509308  	92.312212 
1803.473733  	93.130128 
1804.438157  	93.693857 
1805.402582  	93.669638 
1806.367006  	93.602933 
1807.331431  	93.299059 
1808.295855  	93.195537 
1809.260279  	93.522524 
1810.224704  	93.078875 
1811.189128  	92.602428 
1812.153553  	92.978555 
1813.117977  	93.380459 
1814.082402  	93.776208 
1815.046826  	93.811203 
1816.011251  	93.841960 
1816.975675  	93.530987 
1817.940100  	93.316288 
1818.904524  	93.658776 
1819.868948  	93.834734 
1820.833373  	93.751594 
1821.797797  	93.651154 
1822.762222  	93.393201 
1823.726646  	93.412204 
1824.691071  	92.837857 
1825.655495  	92.085655 
1826.619920  	93.095704 
1827.584344  	93.590571 
1828.548769  	93.115845 
1829.513193  	91.871387 
1830.477617  	91.803919 
1831.442042  	93.169254 
1832.406466  	93.557540 
1833.370891  	93.370362 
1834.335315  	93.568992 
1835.299740  	93.773533 
1836.264164  	93.578697 
1837.228589  	93.111357 
1838.193013  	93.243999 
1839.157438  	93.598648 
1840.121862  	93.645098 
1841.086287  	93.626133 
1842.050711  	93.243782 
1843.015135  	92.909928 
1843.979560  	92.150908 
1844.943984  	91.844358 
1845.908409  	92.721056 
1846.872833  	93.106149 
1847.837258  	92.639909 
1848.801682  	92.898588 
1849.766107  	93.527002 
1850.730531  	93.761909 
1851.694956  	93.763255 
1852.659380  	93.736051 
1853.623804  	93.760818 
1854.588229  	93.740187 
1855.552653  	93.726896 
1856.517078  	93.680162 
1857.481502  	93.649005 
1858.445927  	93.494440 
1859.410351  	93.378454 
1860.374776  	93.497422 
1861.339200  	93.431562 
1862.303625  	93.478389 
1863.268049  	93.645793 
1864.232473  	93.641758 
1865.196898  	93.590306 
1866.161322  	93.244605 
1867.125747  	92.760979 
1868.090171  	92.185748 
1869.054596  	91.734480 
1870.019020  	92.254104 
1870.983445  	93.015063 
1871.947869  	93.532498 
1872.912294  	93.805118 
1873.876718  	93.850670 
1874.841142  	93.750056 
1875.805567  	93.727425 
1876.769991  	93.777345 
1877.734416  	93.780194 
1878.698840  	93.625074 
1879.663265  	93.532965 
1880.627689  	93.653115 
1881.592114  	93.717333 
1882.556538  	93.614521 
1883.520963  	93.618993 
1884.485387  	93.490327 
1885.449811  	93.387417 
1886.414236  	93.613982 
1887.378660  	93.689812 
1888.343085  	93.460168 
1889.307509  	92.703269 
1890.271934  	92.580223 
1891.236358  	93.306794 
1892.200783  	93.559658 
1893.165207  	93.636811 
1894.129632  	93.462885 
1895.094056  	93.001234 
1896.058480  	93.194863 
1897.022905  	93.672463 
1897.987329  	93.643922 
1898.951754  	93.597767 
1899.916178  	93.625528 
1900.880603  	93.768062 
1901.845027  	93.667590 
1902.809452  	93.658366 
1903.773876  	93.623987 
1904.738301  	93.570962 
1905.702725  	93.498479 
1906.667150  	93.583821 
1907.631574  	93.348622 
1908.595998  	93.272895 
1909.560423  	93.129093 
1910.524847  	93.081033 
1911.489272  	93.518974 
1912.453696  	93.592823 
1913.418121  	93.559672 
1914.382545  	93.545706 
1915.346970  	93.541328 
1916.311394  	93.614292 
1917.275819  	93.224920 
1918.240243  	92.443427 
1919.204667  	93.091198 
1920.169092  	93.610380 
1921.133516  	93.459911 
1922.097941  	92.952453 
1923.062365  	92.371847 
1924.026790  	93.132075 
1924.991214  	93.800915 
1925.955639  	93.852783 
1926.920063  	93.893675 
1927.884488  	93.872208 
1928.848912  	93.771722 
1929.813336  	93.769913 
1930.777761  	93.742907 
1931.742185  	93.626829 
1932.706610  	93.520083 
1933.671034  	93.755263 
1934.635459  	93.872541 
1935.599883  	93.821016 
1936.564308  	93.813419 
1937.528732  	93.661672 
1938.493157  	93.624833 
1939.457581  	93.931023 
1940.422005  	93.858779 
1941.386430  	93.564073 
1942.350854  	92.622725 
1943.315279  	92.576747 
1944.279703  	93.410539 
1945.244128  	93.457650 
1946.208552  	93.440609 
1947.172977  	93.533421 
1948.137401  	93.659384 
1949.101826  	93.836136 
1950.066250  	93.923197 
1951.030674  	93.968801 
1951.995099  	93.787774 
1952.959523  	93.711900 
1953.923948  	93.660609 
1954.888372  	93.514386 
1955.852797  	93.472174 
1956.817221  	93.799053 
1957.781646  	94.062592 
1958.746070  	94.171427 
1959.710495  	94.240729 
1960.674919  	93.973880 
1961.639344  	93.635314 
1962.603768  	93.542001 
1963.568192  	93.819077 
1964.532617  	94.224067 
1965.497041  	94.349557 
1966.461466  	94.068644 
1967.425890  	93.504295 
1968.390315  	93.647764 
1969.354739  	93.895195 
1970.319164  	94.063452 
1971.283588  	94.123094 
1972.248013  	94.009139 
1973.212437  	93.962548 
1974.176861  	94.054902 
1975.141286  	93.890345 
1976.105710  	94.090145 
1977.070135  	94.239169 
1978.034559  	93.953740 
1978.998984  	93.212593 
1979.963408  	93.145080 
1980.927833  	93.480434 
1981.892257  	93.832297 
1982.856682  	93.722062 
1983.821106  	93.709762 
1984.785530  	93.684874 
1985.749955  	93.654897 
1986.714379  	93.771755 
1987.678804  	93.519504 
1988.643228  	93.144836 
1989.607653  	93.471192 
1990.572077  	93.575611 
1991.536502  	93.251132 
1992.500926  	92.885660 
1993.465351  	93.082072 
1994.429775  	93.444559 
1995.394199  	93.699664 
1996.358624  	93.682182 
1997.323048  	93.567367 
1998.287473  	93.507579 
1999.251897  	93.694187 
2000.216322  	94.049482 
2001.180746  	94.392103 
2002.145171  	94.314312 
2003.109595  	94.339285 
2004.074020  	94.483083 
2005.038444  	94.677804 
2006.002868  	94.317020 
2006.967293  	93.792120 
2007.931717  	93.505890 
2008.896142  	93.685865 
2009.860566  	93.775857 
2010.824991  	93.726343 
2011.789415  	93.768237 
2012.753840  	93.728734 
2013.718264  	93.657707 
2014.682689  	93.806058 
2015.647113  	93.928001 
2016.611537  	93.430559 
2017.575962  	93.142561 
2018.540386  	93.591486 
2019.504811  	93.887972 
2020.469235  	93.853701 
2021.433660  	93.854234 
2022.398084  	93.963921 
2023.362509  	93.886658 
2024.326933  	93.861322 
2025.291358  	93.634695 
2026.255782  	93.555215 
2027.220207  	93.486986 
2028.184631  	93.737094 
2029.149055  	94.144840 
2030.113480  	94.314000 
2031.077904  	94.125791 
2032.042329  	93.669680 
2033.006753  	93.723882 
2033.971178  	94.044357 
2034.935602  	94.076609 
2035.900027  	94.160633 
2036.864451  	93.958665 
2037.828876  	93.855788 
2038.793300  	93.742895 
2039.757724  	93.331924 
2040.722149  	93.150606 
2041.686573  	93.025034 
2042.650998  	93.135189 
2043.615422  	93.255569 
2044.579847  	93.498005 
2045.544271  	93.755183 
2046.508696  	93.790570 
2047.473120  	93.681061 
2048.437545  	93.699763 
2049.401969  	93.791025 
2050.366393  	93.329431 
2051.330818  	93.195401 
2052.295242  	93.534090 
2053.259667  	93.714341 
2054.224091  	93.494444 
2055.188516  	93.360116 
2056.152940  	93.474287 
2057.117365  	93.477543 
2058.081789  	93.389777 
2059.046214  	93.449495 
2060.010638  	93.443713 
2060.975062  	93.351221 
2061.939487  	93.426492 
2062.903911  	93.511962 
2063.868336  	93.439515 
2064.832760  	93.275808 
2065.797185  	93.233723 
2066.761609  	93.314861 
2067.726034  	93.496565 
2068.690458  	93.607626 
2069.654883  	93.550212 
2070.619307  	93.519857 
2071.583731  	93.475352 
2072.548156  	93.428621 
2073.512580  	93.270659 
2074.477005  	93.202469 
2075.441429  	93.334406 
2076.405854  	93.380601 
2077.370278  	93.342622 
2078.334703  	93.381141 
2079.299127  	93.417634 
2080.263552  	93.409952 
2081.227976  	93.383683 
2082.192401  	93.368962 
2083.156825  	93.186132 
2084.121249  	93.285160 
2085.085674  	93.407324 
2086.050098  	93.378740 
2087.014523  	93.383162 
2087.978947  	93.420495 
2088.943372  	93.401239 
2089.907796  	93.242955 
2090.872221  	93.224289 
2091.836645  	93.544354 
2092.801070  	93.590270 
2093.765494  	93.583007 
2094.729918  	93.543607 
2095.694343  	93.423740 
2096.658767  	93.232418 
2097.623192  	93.317501 
2098.587616  	93.389668 
2099.552041  	93.459884 
2100.516465  	93.466270 
2101.480890  	93.473369 
2102.445314  	93.430767 
2103.409739  	93.385883 
2104.374163  	93.348602 
2105.338587  	93.350407 
2106.303012  	93.272264 
2107.267436  	93.271144 
2108.231861  	93.240130 
2109.196285  	93.268597 
2110.160710  	93.355920 
2111.125134  	93.441584 
2112.089559  	93.370522 
2113.053983  	93.375934 
2114.018408  	93.368929 
2114.982832  	93.325271 
2115.947256  	93.240969 
2116.911681  	93.403190 
2117.876105  	93.608536 
2118.840530  	93.663999 
2119.804954  	93.599799 
2120.769379  	93.536490 
2121.733803  	93.504563 
2122.698228  	93.578988 
2123.662652  	93.466587 
2124.627077  	93.409712 
2125.591501  	93.539442 
2126.555925  	93.694660 
2127.520350  	93.691728 
2128.484774  	93.735626 
2129.449199  	93.863174 
2130.413623  	93.925107 
2131.378048  	93.864944 
2132.342472  	94.029959 
2133.306897  	94.069980 
2134.271321  	93.924244 
2135.235746  	93.564403 
2136.200170  	93.432481 
2137.164594  	93.708758 
2138.129019  	94.005731 
2139.093443  	93.975643 
2140.057868  	93.867969 
2141.022292  	93.707091 
2141.986717  	93.710306 
2142.951141  	93.811203 
2143.915566  	94.141205 
2144.879990  	94.082427 
2145.844415  	94.018534 
2146.808839  	93.984451 
2147.773264  	94.200548 
2148.737688  	94.034763 
2149.702112  	93.814830 
2150.666537  	93.830604 
2151.630961  	93.915631 
2152.595386  	94.111450 
2153.559810  	94.276566 
2154.524235  	94.482123 
2155.488659  	94.779402 
2156.453084  	94.992922 
2157.417508  	94.838308 
2158.381933  	94.368919 
2159.346357  	93.587082 
2160.310781  	93.121797 
2161.275206  	92.942300 
2162.239630  	93.500231 
2163.204055  	93.918814 
2164.168479  	93.708517 
2165.132904  	93.558060 
2166.097328  	93.503694 
2167.061753  	93.615136 
2168.026177  	93.201239 
2168.990602  	92.990267 
2169.955026  	93.345670 
2170.919450  	93.764247 
2171.883875  	93.673669 
2172.848299  	93.659595 
2173.812724  	93.630465 
2174.777148  	93.502674 
2175.741573  	93.441724 
2176.705997  	93.473501 
2177.670422  	93.509463 
2178.634846  	93.801165 
2179.599271  	93.700458 
2180.563695  	93.616911 
2181.528119  	93.734491 
2182.492544  	93.512982 
2183.456968  	93.140782 
2184.421393  	93.136656 
2185.385817  	93.524269 
2186.350242  	93.697653 
2187.314666  	93.437547 
2188.279091  	93.494306 
2189.243515  	93.455159 
2190.207940  	93.427074 
2191.172364  	93.544507 
2192.136788  	93.607270 
2193.101213  	93.486053 
2194.065637  	93.269421 
2195.030062  	93.093381 
2195.994486  	93.034312 
2196.958911  	93.214676 
2197.923335  	93.492667 
2198.887760  	93.597451 
2199.852184  	93.603195 
2200.816609  	93.404831 
2201.781033  	93.183995 
2202.745458  	93.291804 
2203.709882  	93.461566 
2204.674306  	93.443066 
2205.638731  	93.320584 
2206.603155  	93.228243 
2207.567580  	93.321352 
2208.532004  	93.314403 
2209.496429  	93.337152 
2210.460853  	93.246125 
2211.425278  	93.234406 
2212.389702  	93.269462 
2213.354127  	93.248114 
2214.318551  	93.124663 
2215.282975  	93.163701 
2216.247400  	93.145230 
2217.211824  	93.306556 
2218.176249  	93.421113 
2219.140673  	93.394836 
2220.105098  	93.231389 
2221.069522  	93.271509 
2222.033947  	93.343342 
2222.998371  	93.305940 
2223.962796  	93.218944 
2224.927220  	93.318772 
2225.891644  	93.257425 
2226.856069  	93.131865 
2227.820493  	93.207638 
2228.784918  	93.408462 
2229.749342  	93.353985 
2230.713767  	93.287156 
2231.678191  	93.257205 
2232.642616  	93.237937 
2233.607040  	93.298825 
2234.571465  	93.261358 
2235.535889  	93.179208 
2236.500313  	93.249522 
2237.464738  	93.276521 
2238.429162  	93.317470 
2239.393587  	93.207024 
2240.358011  	93.282252 
2241.322436  	93.522062 
2242.286860  	93.367898 
2243.251285  	93.296462 
2244.215709  	93.377619 
2245.180134  	93.306427 
2246.144558  	93.194197 
2247.108982  	93.234304 
2248.073407  	93.356609 
2249.037831  	93.410731 
2250.002256  	93.391531 
2250.966680  	93.407643 
2251.931105  	93.431366 
2252.895529  	93.340649 
2253.859954  	93.368362 
2254.824378  	93.348191 
2255.788803  	93.320153 
2256.753227  	93.275561 
2257.717651  	93.321960 
2258.682076  	93.250687 
2259.646500  	93.258418 
2260.610925  	93.143667 
2261.575349  	93.097204 
2262.539774  	93.123148 
2263.504198  	93.203481 
2264.468623  	93.215394 
2265.433047  	93.179919 
2266.397472  	93.168455 
2267.361896  	93.173875 
2268.326321  	93.224219 
2269.290745  	93.167958 
2270.255169  	93.138818 
2271.219594  	93.266464 
2272.184018  	93.239397 
2273.148443  	93.106655 
2274.112867  	93.132718 
2275.077292  	93.205885 
2276.041716  	93.160566 
2277.006141  	93.157961 
2277.970565  	93.171170 
2278.934990  	93.117951 
2279.899414  	93.096257 
2280.863838  	93.086655 
2281.828263  	93.039684 
2282.792687  	92.992228 
2283.757112  	93.034326 
2284.721536  	93.010396 
2285.685961  	92.931469 
2286.650385  	92.992426 
2287.614810  	92.966679 
2288.579234  	92.884197 
2289.543659  	92.826009 
2290.508083  	92.904204 
2291.472507  	92.955903 
2292.436932  	93.029487 
2293.401356  	92.964957 
2294.365781  	92.807164 
2295.330205  	92.820733 
2296.294630  	92.790261 
2297.259054  	92.785510 
2298.223479  	92.691627 
2299.187903  	92.686129 
2300.152328  	92.734181 
2301.116752  	92.728188 
2302.081176  	92.815609 
2303.045601  	92.693989 
2304.010025  	92.716804 
2304.974450  	92.548275 
2305.938874  	92.511211 
2306.903299  	92.512659 
2307.867723  	92.640624 
2308.832148  	92.533692 
2309.796572  	92.464347 
2310.760997  	92.516385 
2311.725421  	92.563295 
2312.689845  	92.684904 
2313.654270  	92.658520 
2314.618694  	92.698637 
2315.583119  	92.780784 
2316.547543  	92.844123 
2317.511968  	92.866101 
2318.476392  	92.837868 
2319.440817  	92.870607 
2320.405241  	92.854969 
2321.369666  	92.949841 
2322.334090  	92.962565 
2323.298515  	92.916198 
2324.262939  	92.904510 
2325.227363  	93.289601 
2326.191788  	93.619818 
2327.156212  	93.912531 
2328.120637  	93.950670 
2329.085061  	94.037065 
2330.049486  	94.129185 
2331.013910  	94.159482 
2331.978335  	94.203374 
2332.942759  	94.342306 
2333.907184  	94.505080 
2334.871608  	94.655329 
2335.836032  	94.822120 
2336.800457  	95.006118 
2337.764881  	94.967182 
2338.729306  	94.995048 
2339.693730  	94.898542 
2340.658155  	94.934565 
2341.622579  	94.985283 
2342.587004  	94.962159 
2343.551428  	94.791672 
2344.515853  	94.466700 
2345.480277  	94.213642 
2346.444701  	94.029984 
2347.409126  	93.822686 
2348.373550  	93.454600 
2349.337975  	93.304222 
2350.302399  	93.622321 
2351.266824  	94.053296 
2352.231248  	94.493106 
2353.195673  	94.663176 
2354.160097  	94.776390 
2355.124522  	94.851578 
2356.088946  	95.157890 
2357.053370  	95.415941 
2358.017795  	95.603148 
2358.982219  	95.590761 
2359.946644  	95.750214 
2360.911068  	95.715918 
2361.875493  	95.557910 
2362.839917  	95.529852 
2363.804342  	95.555295 
2364.768766  	95.282616 
2365.733191  	95.203903 
2366.697615  	95.095433 
2367.662039  	94.956200 
2368.626464  	94.655017 
2369.590888  	94.304763 
2370.555313  	94.061805 
2371.519737  	93.927023 
2372.484162  	93.790678 
2373.448586  	93.656820 
2374.413011  	93.400789 
2375.377435  	93.189116 
2376.341860  	93.071913 
2377.306284  	93.030754 
2378.270708  	92.940256 
2379.235133  	92.793352 
2380.199557  	92.759807 
2381.163982  	92.820731 
2382.128406  	92.887132 
2383.092831  	92.958090 
2384.057255  	93.020435 
2385.021680  	93.119853 
2385.986104  	93.159333 
2386.950529  	93.203885 
2387.914953  	93.244706 
2388.879378  	93.243108 
2389.843802  	93.271943 
2390.808226  	93.309521 
2391.772651  	93.302700 
2392.737075  	93.348851 
2393.701500  	93.363257 
2394.665924  	93.353696 
2395.630349  	93.325754 
2396.594773  	93.290454 
2397.559198  	93.284652 
2398.523622  	93.341029 
2399.488047  	93.383081 
2400.452471  	93.351683 
2401.416895  	93.289845 
2402.381320  	93.308491 
2403.345744  	93.367811 
2404.310169  	93.404144 
2405.274593  	93.325290 
2406.239018  	93.256065 
2407.203442  	93.269746 
2408.167867  	93.288052 
2409.132291  	93.252987 
2410.096716  	93.223164 
2411.061140  	93.172014 
2412.025564  	93.173656 
2412.989989  	93.226104 
2413.954413  	93.244816 
2414.918838  	93.307076 
2415.883262  	93.336891 
2416.847687  	93.276681 
2417.812111  	93.261171 
2418.776536  	93.247045 
2419.740960  	93.242314 
2420.705385  	93.260135 
2421.669809  	93.229507 
2422.634233  	93.201629 
2423.598658  	93.217684 
2424.563082  	93.218918 
2425.527507  	93.292656 
2426.491931  	93.301857 
2427.456356  	93.278438 
2428.420780  	93.316900 
2429.385205  	93.308421 
2430.349629  	93.258212 
2431.314054  	93.226452 
2432.278478  	93.244146 
2433.242902  	93.223684 
2434.207327  	93.192276 
2435.171751  	93.236420 
2436.136176  	93.295159 
2437.100600  	93.332154 
2438.065025  	93.267846 
2439.029449  	93.249175 
2439.993874  	93.245236 
2440.958298  	93.237293 
2441.922723  	93.217795 
2442.887147  	93.197300 
2443.851572  	93.224443 
2444.815996  	93.234124 
2445.780420  	93.159374 
2446.744845  	93.107264 
2447.709269  	93.115204 
2448.673694  	93.164347 
2449.638118  	93.154470 
2450.602543  	93.137696 
2451.566967  	93.133966 
2452.531392  	93.132822 
2453.495816  	93.080869 
2454.460241  	93.065729 
2455.424665  	93.079673 
2456.389089  	93.115977 
2457.353514  	93.115659 
2458.317938  	93.124141 
2459.282363  	93.124437 
2460.246787  	93.149896 
2461.211212  	93.152459 
2462.175636  	93.131754 
2463.140061  	93.108026 
2464.104485  	93.128168 
2465.068910  	93.132693 
2466.033334  	93.129924 
2466.997758  	93.072101 
2467.962183  	93.079146 
2468.926607  	93.115597 
2469.891032  	93.122323 
2470.855456  	93.121167 
2471.819881  	93.110796 
2472.784305  	93.137904 
2473.748730  	93.209995 
2474.713154  	93.271814 
2475.677579  	93.205416 
2476.642003  	93.142650 
2477.606427  	93.137567 
2478.570852  	93.160166 
2479.535276  	93.138412 
2480.499701  	93.101272 
2481.464125  	93.083140 
2482.428550  	93.130194 
2483.392974  	93.194208 
2484.357399  	93.225536 
2485.321823  	93.148885 
2486.286248  	93.051798 
2487.250672  	93.069720 
2488.215096  	93.141087 
2489.179521  	93.130236 
2490.143945  	93.014201 
2491.108370  	92.969160 
2492.072794  	93.035756 
2493.037219  	93.111986 
2494.001643  	93.118739 
2494.966068  	93.139448 
2495.930492  	93.164296 
2496.894917  	93.103382 
2497.859341  	93.075979 
2498.823765  	93.097250 
2499.788190  	93.127122 
2500.752614  	93.124284 
2501.717039  	93.059533 
2502.681463  	93.081923 
2503.645888  	93.092927 
2504.610312  	93.032534 
2505.574737  	93.022798 
2506.539161  	93.059764 
2507.503586  	93.096293 
2508.468010  	93.097190 
2509.432435  	93.022181 
2510.396859  	93.003891 
2511.361283  	93.017251 
2512.325708  	93.027898 
2513.290132  	93.032572 
2514.254557  	93.061778 
2515.218981  	93.039765 
2516.183406  	93.004283 
2517.147830  	93.019518 
2518.112255  	93.005692 
2519.076679  	93.025236 
2520.041104  	93.065250 
2521.005528  	93.046812 
2521.969952  	92.955270 
2522.934377  	92.931932 
2523.898801  	93.009222 
2524.863226  	93.031481 
2525.827650  	92.998596 
2526.792075  	92.987846 
2527.756499  	93.005556 
2528.720924  	93.006895 
2529.685348  	92.959764 
2530.649773  	92.984811 
2531.614197  	93.034770 
2532.578621  	93.031675 
2533.543046  	93.019048 
2534.507470  	93.050030 
2535.471895  	93.075838 
2536.436319  	93.055977 
2537.400744  	93.064490 
2538.365168  	93.031099 
2539.329593  	93.009245 
2540.294017  	92.935289 
2541.258442  	92.896755 
2542.222866  	92.917128 
2543.187290  	92.959055 
2544.151715  	93.000398 
2545.116139  	92.988185 
2546.080564  	92.973535 
2547.044988  	92.924733 
2548.009413  	92.871101 
2548.973837  	92.911936 
2549.938262  	92.902195 
2550.902686  	92.895350 
2551.867111  	92.877750 
2552.831535  	92.858778 
2553.795959  	92.846273 
2554.760384  	92.868403 
2555.724808  	92.884165 
2556.689233  	92.843704 
2557.653657  	92.840513 
2558.618082  	92.857840 
2559.582506  	92.891631 
2560.546931  	92.862376 
2561.511355  	92.829765 
2562.475780  	92.865500 
2563.440204  	92.831342 
2564.404629  	92.839482 
2565.369053  	92.829119 
2566.333477  	92.829287 
2567.297902  	92.869151 
2568.262326  	92.882928 
2569.226751  	92.742452 
2570.191175  	92.696007 
2571.155600  	92.762706 
2572.120024  	92.835687 
2573.084449  	92.840046 
2574.048873  	92.732764 
2575.013298  	92.639884 
2575.977722  	92.655513 
2576.942146  	92.732353 
2577.906571  	92.812937 
2578.870995  	92.764925 
2579.835420  	92.704387 
2580.799844  	92.693160 
2581.764269  	92.666632 
2582.728693  	92.736179 
2583.693118  	92.726603 
2584.657542  	92.638699 
2585.621967  	92.649239 
2586.586391  	92.644818 
2587.550815  	92.668249 
2588.515240  	92.702348 
2589.479664  	92.660818 
2590.444089  	92.631912 
2591.408513  	92.649743 
2592.372938  	92.643158 
2593.337362  	92.611064 
2594.301787  	92.573161 
2595.266211  	92.556230 
2596.230636  	92.557568 
2597.195060  	92.621032 
2598.159484  	92.679026 
2599.123909  	92.697327 
2600.088333  	92.666956 
2601.052758  	92.609927 
2602.017182  	92.582178 
2602.981607  	92.618570 
2603.946031  	92.632848 
2604.910456  	92.626504 
2605.874880  	92.608413 
2606.839305  	92.589609 
2607.803729  	92.581734 
2608.768153  	92.615359 
2609.732578  	92.564051 
2610.697002  	92.528490 
2611.661427  	92.555361 
2612.625851  	92.602590 
2613.590276  	92.632296 
2614.554700  	92.604044 
2615.519125  	92.548572 
2616.483549  	92.537007 
2617.447974  	92.530814 
2618.412398  	92.544813 
2619.376822  	92.537605 
2620.341247  	92.553124 
2621.305671  	92.551598 
2622.270096  	92.548434 
2623.234520  	92.551234 
2624.198945  	92.548279 
2625.163369  	92.588412 
2626.127794  	92.585935 
2627.092218  	92.555763 
2628.056643  	92.531719 
2629.021067  	92.514169 
2629.985492  	92.530397 
2630.949916  	92.572837 
2631.914340  	92.548074 
2632.878765  	92.501649 
2633.843189  	92.532401 
2634.807614  	92.543370 
2635.772038  	92.546037 
2636.736463  	92.509522 
2637.700887  	92.493584 
2638.665312  	92.517654 
2639.629736  	92.548954 
2640.594161  	92.546335 
2641.558585  	92.545421 
2642.523009  	92.520554 
2643.487434  	92.503648 
2644.451858  	92.509040 
2645.416283  	92.500467 
2646.380707  	92.471668 
2647.345132  	92.465382 
2648.309556  	92.479892 
2649.273981  	92.494982 
2650.238405  	92.508533 
2651.202830  	92.503920 
2652.167254  	92.471913 
2653.131678  	92.462511 
2654.096103  	92.433927 
2655.060527  	92.432745 
2656.024952  	92.441797 
2656.989376  	92.428592 
2657.953801  	92.409567 
2658.918225  	92.435321 
2659.882650  	92.461925 
2660.847074  	92.456942 
2661.811499  	92.448988 
2662.775923  	92.464628 
2663.740347  	92.504977 
2664.704772  	92.493975 
2665.669196  	92.485905 
2666.633621  	92.480677 
2667.598045  	92.472576 
2668.562470  	92.491271 
2669.526894  	92.481669 
2670.491319  	92.464834 
2671.455743  	92.481966 
2672.420168  	92.480382 
2673.384592  	92.459190 
2674.349016  	92.465328 
2675.313441  	92.476607 
2676.277865  	92.472328 
2677.242290  	92.465742 
2678.206714  	92.456126 
2679.171139  	92.431357 
2680.135563  	92.413973 
2681.099988  	92.430590 
2682.064412  	92.444682 
2683.028837  	92.437629 
2683.993261  	92.413625 
2684.957686  	92.412167 
2685.922110  	92.420362 
2686.886534  	92.392251 
2687.850959  	92.377032 
2688.815383  	92.409113 
2689.779808  	92.402536 
2690.744232  	92.360414 
2691.708657  	92.368323 
2692.673081  	92.383923 
2693.637506  	92.374804 
2694.601930  	92.361609 
2695.566355  	92.366652 
2696.530779  	92.359407 
2697.495203  	92.335712 
2698.459628  	92.315184 
2699.424052  	92.334559 
2700.388477  	92.312072 
2701.352901  	92.276226 
2702.317326  	92.288799 
2703.281750  	92.324482 
2704.246175  	92.329425 
2705.210599  	92.301299 
2706.175024  	92.280244 
2707.139448  	92.289060 
2708.103872  	92.294444 
2709.068297  	92.308310 
2710.032721  	92.289429 
2710.997146  	92.273254 
2711.961570  	92.279661 
2712.925995  	92.295701 
2713.890419  	92.260643 
2714.854844  	92.264608 
2715.819268  	92.283562 
2716.783693  	92.259752 
2717.748117  	92.243304 
2718.712541  	92.242752 
2719.676966  	92.201765 
2720.641390  	92.170842 
2721.605815  	92.184766 
2722.570239  	92.179235 
2723.534664  	92.128690 
2724.499088  	92.112313 
2725.463513  	92.111882 
2726.427937  	92.108540 
2727.392362  	92.068676 
2728.356786  	92.040918 
2729.321210  	92.024894 
2730.285635  	92.017169 
2731.250059  	91.973596 
2732.214484  	91.942904 
2733.178908  	91.934973 
2734.143333  	91.940955 
2735.107757  	91.926992 
2736.072182  	91.925856 
2737.036606  	91.938056 
2738.001031  	91.904503 
2738.965455  	91.854859 
2739.929879  	91.825041 
2740.894304  	91.810120 
2741.858728  	91.822223 
2742.823153  	91.815269 
2743.787577  	91.793290 
2744.752002  	91.777107 
2745.716426  	91.737851 
2746.680851  	91.718795 
2747.645275  	91.720669 
2748.609700  	91.710786 
2749.574124  	91.707825 
2750.538549  	91.687711 
2751.502973  	91.680668 
2752.467397  	91.694026 
2753.431822  	91.699893 
2754.396246  	91.710334 
2755.360671  	91.703594 
2756.325095  	91.690849 
2757.289520  	91.655807 
2758.253944  	91.664212 
2759.218369  	91.677408 
2760.182793  	91.628069 
2761.147218  	91.591534 
2762.111642  	91.603348 
2763.076066  	91.627272 
2764.040491  	91.642488 
2765.004915  	91.614828 
2765.969340  	91.587957 
2766.933764  	91.594214 
2767.898189  	91.580820 
2768.862613  	91.577705 
2769.827038  	91.579260 
2770.791462  	91.555596 
2771.755887  	91.495747 
2772.720311  	91.461605 
2773.684735  	91.468983 
2774.649160  	91.479527 
2775.613584  	91.463930 
2776.578009  	91.457678 
2777.542433  	91.447747 
2778.506858  	91.416285 
2779.471282  	91.412694 
2780.435707  	91.399889 
2781.400131  	91.361599 
2782.364556  	91.351803 
2783.328980  	91.363001 
2784.293404  	91.339874 
2785.257829  	91.311622 
2786.222253  	91.302330 
2787.186678  	91.264816 
2788.151102  	91.249287 
2789.115527  	91.271599 
2790.079951  	91.224787 
2791.044376  	91.184403 
2792.008800  	91.172594 
2792.973225  	91.124750 
2793.937649  	91.095965 
2794.902073  	91.062472 
2795.866498  	91.037705 
2796.830922  	91.024118 
2797.795347  	91.016189 
2798.759771  	90.981699 
2799.724196  	90.898058 
2800.688620  	90.826718 
2801.653045  	90.808210 
2802.617469  	90.773145 
2803.581894  	90.756646 
2804.546318  	90.746995 
2805.510743  	90.739745 
2806.475167  	90.687173 
2807.439591  	90.613272 
2808.404016  	90.568853 
2809.368440  	90.572995 
2810.332865  	90.563285 
2811.297289  	90.477777 
2812.261714  	90.403213 
2813.226138  	90.388540 
2814.190563  	90.319233 
2815.154987  	90.253326 
2816.119412  	90.192063 
2817.083836  	90.136495 
2818.048260  	90.087335 
2819.012685  	90.042769 
2819.977109  	89.988463 
2820.941534  	89.907680 
2821.905958  	89.842046 
2822.870383  	89.781259 
2823.834807  	89.717944 
2824.799232  	89.671911 
2825.763656  	89.628764 
2826.728081  	89.570810 
2827.692505  	89.498984 
2828.656929  	89.457784 
2829.621354  	89.421236 
2830.585778  	89.378331 
2831.550203  	89.287300 
2832.514627  	89.161020 
2833.479052  	89.059525 
2834.443476  	89.005193 
2835.407901  	88.911732 
2836.372325  	88.752929 
2837.336750  	88.584047 
2838.301174  	88.384533 
2839.265598  	88.116057 
2840.230023  	87.839170 
2841.194447  	87.548786 
2842.158872  	87.236290 
2843.123296  	86.834848 
2844.087721  	86.336258 
2845.052145  	85.755994 
2846.016570  	85.087088 
2846.980994  	84.324235 
2847.945419  	83.484981 
2848.909843  	82.650402 
2849.874267  	81.902543 
2850.838692  	81.307031 
2851.803116  	80.835894 
2852.767541  	80.399489 
2853.731965  	79.982945 
2854.696390  	79.591835 
2855.660814  	79.287022 
2856.625239  	79.040881 
2857.589663  	78.794639 
2858.554088  	78.639811 
2859.518512  	78.584928 
2860.482936  	78.591553 
2861.447361  	78.695378 
2862.411785  	78.899730 
2863.376210  	79.139235 
2864.340634  	79.357688 
2865.305059  	79.585893 
2866.269483  	79.829264 
2867.233908  	80.038276 
2868.198332  	80.195450 
2869.162757  	80.313153 
2870.127181  	80.442353 
2871.091606  	80.571142 
2872.056030  	80.688048 
2873.020454  	80.865872 
2873.984879  	81.051584 
2874.949303  	81.246745 
2875.913728  	81.521538 
2876.878152  	81.858490 
2877.842577  	82.169516 
2878.807001  	82.502891 
2879.771426  	82.871787 
2880.735850  	83.220440 
2881.700275  	83.522444 
2882.664699  	83.822694 
2883.629123  	84.119434 
2884.593548  	84.383150 
2885.557972  	84.580142 
2886.522397  	84.699837 
2887.486821  	84.762212 
2888.451246  	84.782148 
2889.415670  	84.783954 
2890.380095  	84.743919 
2891.344519  	84.629149 
2892.308944  	84.508866 
2893.273368  	84.376128 
2894.237792  	84.197842 
2895.202217  	83.951673 
2896.166641  	83.723895 
2897.131066  	83.462224 
2898.095490  	83.186544 
2899.059915  	82.915121 
2900.024339  	82.604459 
2900.988764  	82.284588 
2901.953188  	81.955003 
2902.917613  	81.602587 
2903.882037  	81.226990 
2904.846461  	80.886725 
2905.810886  	80.564212 
2906.775310  	80.230759 
2907.739735  	79.916595 
2908.704159  	79.660914 
2909.668584  	79.379001 
2910.633008  	79.036287 
2911.597433  	78.747900 
2912.561857  	78.460886 
2913.526282  	78.037171 
2914.490706  	77.548950 
2915.455130  	77.049518 
2916.419555  	76.572793 
2917.383979  	76.150969 
2918.348404  	75.723097 
2919.312828  	75.367302 
2920.277253  	75.047086 
2921.241677  	74.725230 
2922.206102  	74.430586 
2923.170526  	74.120942 
2924.134951  	73.837919 
2925.099375  	73.578731 
2926.063800  	73.280496 
2927.028224  	72.990802 
2927.992648  	72.715336 
2928.957073  	72.472901 
2929.921497  	72.232239 
2930.885922  	72.015106 
2931.850346  	71.886688 
2932.814771  	71.846524 
2933.779195  	71.865493 
2934.743620  	71.988198 
2935.708044  	72.215950 
2936.672469  	72.534956 
2937.636893  	72.963494 
2938.601317  	73.461267 
2939.565742  	73.979478 
2940.530166  	74.525161 
2941.494591  	75.037725 
2942.459015  	75.550882 
2943.423440  	76.032668 
2944.387864  	76.484251 
2945.352289  	76.981517 
2946.316713  	77.564386 
2947.281138  	78.187913 
2948.245562  	78.878705 
2949.209986  	79.571543 
2950.174411  	80.274871 
2951.138835  	80.990712 
2952.103260  	81.664054 
2953.067684  	82.283410 
2954.032109  	82.866264 
2954.996533  	83.441016 
2955.960958  	83.968894 
2956.925382  	84.448032 
2957.889807  	84.903886 
2958.854231  	85.309487 
2959.818655  	85.664410 
2960.783080  	85.968818 
2961.747504  	86.254256 
2962.711929  	86.549129 
2963.676353  	86.830396 
2964.640778  	87.058910 
2965.605202  	87.266005 
2966.569627  	87.469009 
2967.534051  	87.751781 
2968.498476  	88.083524 
2969.462900  	88.346789 
2970.427324  	88.548397 
2971.391749  	88.773589 
2972.356173  	89.022881 
2973.320598  	89.234955 
2974.285022  	89.424678 
2975.249447  	89.585247 
2976.213871  	89.745455 
2977.178296  	89.902577 
2978.142720  	90.022769 
2979.107145  	90.168224 
2980.071569  	90.331180 
2981.035993  	90.432637 
2982.000418  	90.577058 
2982.964842  	90.728484 
2983.929267  	90.817764 
2984.893691  	90.912680 
2985.858116  	90.978818 
2986.822540  	91.027033 
2987.786965  	91.062013 
2988.751389  	91.091506 
2989.715814  	91.184551 
2990.680238  	91.288763 
2991.644663  	91.344341 
2992.609087  	91.366997 
2993.573511  	91.357009 
2994.537936  	91.370293 
2995.502360  	91.435865 
2996.466785  	91.439888 
2997.431209  	91.457532 
2998.395634  	91.548621 
2999.360058  	91.569690 
3000.324483  	91.556420 
3001.288907  	91.516313 
3002.253332  	91.482787 
3003.217756  	91.495934 
3004.182180  	91.487523 
3005.146605  	91.464915 
3006.111029  	91.480062 
3007.075454  	91.515762 
3008.039878  	91.542836 
3009.004303  	91.562300 
3009.968727  	91.530464 
3010.933152  	91.492871 
3011.897576  	91.461335 
3012.862001  	91.362194 
3013.826425  	91.427023 
3014.790849  	91.494102 
3015.755274  	91.420825 
3016.719698  	91.393631 
3017.684123  	91.418423 
3018.648547  	91.358550 
3019.612972  	91.294012 
3020.577396  	91.288154 
3021.541821  	91.250285 
3022.506245  	91.170920 
3023.470670  	91.127045 
3024.435094  	91.146155 
3025.399518  	91.115820 
3026.363943  	91.056253 
3027.328367  	91.039983 
3028.292792  	90.969086 
3029.257216  	90.915223 
3030.221641  	90.843991 
3031.186065  	90.688739 
3032.150490  	90.582216 
3033.114914  	90.666211 
3034.079339  	90.631301 
3035.043763  	90.544511 
3036.008187  	90.505494 
3036.972612  	90.482595 
3037.937036  	90.423206 
3038.901461  	90.331759 
3039.865885  	90.257485 
3040.830310  	90.228708 
3041.794734  	90.183572 
3042.759159  	90.090629 
3043.723583  	89.974700 
3044.688008  	89.870498 
3045.652432  	89.794500 
3046.616857  	89.691391 
3047.581281  	89.534769 
3048.545705  	89.355602 
3049.510130  	89.275895 
3050.474554  	89.218924 
3051.438979  	89.115166 
3052.403403  	89.016985 
3053.367828  	88.880142 
3054.332252  	88.758137 
3055.296677  	88.671152 
3056.261101  	88.467904 
3057.225526  	88.386727 
3058.189950  	88.450457 
3059.154374  	88.443490 
3060.118799  	88.379147 
3061.083223  	88.316118 
3062.047648  	88.283900 
3063.012072  	88.235025 
3063.976497  	88.149159 
3064.940921  	88.095672 
3065.905346  	88.155684 
3066.869770  	88.145561 
3067.834195  	88.143932 
3068.798619  	88.148020 
3069.763043  	88.130074 
3070.727468  	88.159769 
3071.691892  	88.178134 
3072.656317  	88.153507 
3073.620741  	88.150409 
3074.585166  	88.142313 
3075.549590  	88.158388 
3076.514015  	88.191885 
3077.478439  	88.183105 
3078.442864  	88.187091 
3079.407288  	88.193351 
3080.371712  	88.173957 
3081.336137  	88.191761 
3082.300561  	88.186874 
3083.264986  	88.228494 
3084.229410  	88.299677 
3085.193835  	88.344042 
3086.158259  	88.382231 
3087.122684  	88.362302 
3088.087108  	88.324499 
3089.051533  	88.398953 
3090.015957  	88.460650 
3090.980381  	88.526027 
3091.944806  	88.565503 
3092.909230  	88.632099 
3093.873655  	88.647859 
3094.838079  	88.625792 
3095.802504  	88.667534 
3096.766928  	88.776441 
3097.731353  	88.858149 
3098.695777  	88.921259 
3099.660202  	88.958425 
3100.624626  	89.001752 
3101.589050  	88.995888 
3102.553475  	89.059998 
3103.517899  	89.128805 
3104.482324  	89.214339 
3105.446748  	89.294615 
3106.411173  	89.364735 
3107.375597  	89.389812 
3108.340022  	89.442536 
3109.304446  	89.538249 
3110.268871  	89.562142 
3111.233295  	89.589903 
3112.197720  	89.602465 
3113.162144  	89.639085 
3114.126568  	89.743536 
3115.090993  	89.760971 
3116.055417  	89.724224 
3117.019842  	89.789374 
3117.984266  	89.867137 
3118.948691  	89.789784 
3119.913115  	89.884899 
3120.877540  	90.015058 
3121.841964  	89.951795 
3122.806389  	89.855781 
3123.770813  	89.917434 
3124.735237  	90.000026 
3125.699662  	90.016485 
3126.664086  	89.981363 
3127.628511  	90.024881 
3128.592935  	90.061709 
3129.557360  	90.096415 
3130.521784  	90.070447 
3131.486209  	90.040326 
3132.450633  	90.007870 
3133.415058  	89.927987 
3134.379482  	90.026821 
3135.343906  	90.081817 
3136.308331  	90.090831 
3137.272755  	90.040395 
3138.237180  	90.020094 
3139.201604  	90.100240 
3140.166029  	90.061337 
3141.130453  	89.993182 
3142.094878  	89.905174 
3143.059302  	89.861842 
3144.023727  	89.906878 
3144.988151  	89.938742 
3145.952575  	89.849277 
3146.917000  	89.784671 
3147.881424  	89.796403 
3148.845849  	89.873588 
3149.810273  	89.843299 
3150.774698  	89.778624 
3151.739122  	89.715908 
3152.703547  	89.659638 
3153.667971  	89.640256 
3154.632396  	89.598537 
3155.596820  	89.539350 
3156.561244  	89.482607 
3157.525669  	89.450780 
3158.490093  	89.409038 
3159.454518  	89.354476 
3160.418942  	89.283765 
3161.383367  	89.231254 
3162.347791  	89.183726 
3163.312216  	89.084659 
3164.276640  	89.048896 
3165.241065  	89.062770 
3166.205489  	89.008745 
3167.169914  	88.873685 
3168.134338  	88.694309 
3169.098762  	88.637821 
3170.063187  	88.609016 
3171.027611  	88.516559 
3171.992036  	88.476242 
3172.956460  	88.399884 
3173.920885  	88.307500 
3174.885309  	88.269798 
3175.849734  	88.211629 
3176.814158  	88.145879 
3177.778583  	88.037123 
3178.743007  	87.938570 
3179.707431  	87.901027 
3180.671856  	87.857927 
3181.636280  	87.853215 
3182.600705  	87.774005 
3183.565129  	87.655928 
3184.529554  	87.562328 
3185.493978  	87.514107 
3186.458403  	87.480240 
3187.422827  	87.403953 
3188.387252  	87.323770 
3189.351676  	87.304594 
3190.316100  	87.271759 
3191.280525  	87.246230 
3192.244949  	87.207127 
3193.209374  	87.166728 
3194.173798  	87.036234 
3195.138223  	86.971877 
3196.102647  	86.857871 
3197.067072  	86.781748 
3198.031496  	86.742556 
3198.995921  	86.746005 
3199.960345  	86.719124 
3200.924769  	86.711955 
3201.889194  	86.693645 
3202.853618  	86.641061 
3203.818043  	86.577655 
3204.782467  	86.544896 
3205.746892  	86.484235 
3206.711316  	86.396559 
3207.675741  	86.332910 
3208.640165  	86.320582 
3209.604590  	86.266697 
3210.569014  	86.249368 
3211.533438  	86.247816 
3212.497863  	86.166724 
3213.462287  	86.069518 
3214.426712  	85.948794 
3215.391136  	85.913003 
3216.355561  	85.876653 
3217.319985  	85.819827 
3218.284410  	85.787603 
3219.248834  	85.693228 
3220.213259  	85.623076 
3221.177683  	85.596815 
3222.142107  	85.501793 
3223.106532  	85.393989 
3224.070956  	85.296684 
3225.035381  	85.170534 
3225.999805  	85.106575 
3226.964230  	84.960476 
3227.928654  	84.787673 
3228.893079  	84.736164 
3229.857503  	84.671330 
3230.821928  	84.540207 
3231.786352  	84.468804 
3232.750777  	84.380959 
3233.715201  	84.198223 
3234.679625  	83.976741 
3235.644050  	83.816412 
3236.608474  	83.641583 
3237.572899  	83.513932 
3238.537323  	83.396321 
3239.501748  	83.214921 
3240.466172  	82.978372 
3241.430597  	82.836723 
3242.395021  	82.661381 
3243.359446  	82.469403 
3244.323870  	82.274435 
3245.288294  	82.067488 
3246.252719  	81.930713 
3247.217143  	81.797653 
3248.181568  	81.564397 
3249.145992  	81.323493 
3250.110417  	81.127584 
3251.074841  	80.921742 
3252.039266  	80.704374 
3253.003690  	80.512931 
3253.968115  	80.181919 
3254.932539  	79.913523 
3255.896963  	79.726092 
3256.861388  	79.457130 
3257.825812  	79.206589 
3258.790237  	78.985468 
3259.754661  	78.717811 
3260.719086  	78.439090 
3261.683510  	78.208174 
3262.647935  	77.975276 
3263.612359  	77.687854 
3264.576784  	77.420000 
3265.541208  	77.119392 
3266.505632  	76.881862 
3267.470057  	76.631100 
3268.434481  	76.349668 
3269.398906  	76.021366 
3270.363330  	75.718080 
3271.327755  	75.479809 
3272.292179  	75.232670 
3273.256604  	74.907030 
3274.221028  	74.564099 
3275.185453  	74.338392 
3276.149877  	74.024201 
3277.114301  	73.670984 
3278.078726  	73.356597 
3279.043150  	72.981981 
3280.007575  	72.614684 
3280.971999  	72.227932 
3281.936424  	71.891651 
3282.900848  	71.497291 
3283.865273  	71.070655 
3284.829697  	70.778815 
3285.794122  	70.499038 
3286.758546  	70.078333 
3287.722971  	69.708703 
3288.687395  	69.421073 
3289.651819  	69.204472 
3290.616244  	68.947495 
3291.580668  	68.666671 
3292.545093  	68.416012 
3293.509517  	68.275563 
3294.473942  	68.214918 
3295.438366  	68.162303 
3296.402791  	68.109809 
3297.367215  	68.161897 
3298.331640  	68.232755 
3299.296064  	68.388263 
3300.260488  	68.606972 
3301.224913  	68.873296 
3302.189337  	69.151664 
3303.153762  	69.489097 
3304.118186  	69.849842 
3305.082611  	70.268187 
3306.047035  	70.763049 
3307.011460  	71.277376 
3307.975884  	71.743077 
3308.940309  	72.247947 
3309.904733  	72.829796 
3310.869157  	73.461904 
3311.833582  	74.075377 
3312.798006  	74.701676 
3313.762431  	75.303242 
3314.726855  	75.942826 
3315.691280  	76.514819 
3316.655704  	77.092796 
3317.620129  	77.649626 
3318.584553  	78.181080 
3319.548978  	78.718215 
3320.513402  	79.251378 
3321.477826  	79.688336 
3322.442251  	80.079035 
3323.406675  	80.543656 
3324.371100  	80.945987 
3325.335524  	81.309623 
3326.299949  	81.684299 
3327.264373  	81.995025 
3328.228798  	82.318139 
3329.193222  	82.597299 
3330.157647  	82.872765 
3331.122071  	83.190466 
3332.086495  	83.559414 
3333.050920  	83.788096 
3334.015344  	83.937418 
3334.979769  	84.051325 
3335.944193  	84.265910 
3336.908618  	84.434777 
3337.873042  	84.708259 
3338.837467  	84.999759 
3339.801891  	85.194206 
3340.766316  	85.390924 
3341.730740  	85.569795 
3342.695164  	85.656309 
3343.659589  	85.826256 
3344.624013  	86.095593 
3345.588438  	86.275646 
3346.552862  	86.370452 
3347.517287  	86.454250 
3348.481711  	86.546016 
3349.446136  	86.691003 
3350.410560  	86.844614 
3351.374985  	87.029790 
3352.339409  	87.141734 
3353.303834  	87.191055 
3354.268258  	87.274498 
3355.232682  	87.372853 
3356.197107  	87.310178 
3357.161531  	87.378178 
3358.125956  	87.562398 
3359.090380  	87.702950 
3360.054805  	87.661159 
3361.019229  	87.656676 
3361.983654  	87.701606 
3362.948078  	87.887843 
3363.912503  	88.019079 
3364.876927  	87.976393 
3365.841351  	88.056692 
3366.805776  	88.205051 
3367.770200  	88.203723 
3368.734625  	88.250332 
3369.699049  	88.337779 
3370.663474  	88.408261 
3371.627898  	88.507558 
3372.592323  	88.587838 
3373.556747  	88.629335 
3374.521172  	88.708569 
3375.485596  	88.729757 
3376.450020  	88.710570 
3377.414445  	88.820711 
3378.378869  	88.895401 
3379.343294  	88.888004 
3380.307718  	88.882283 
3381.272143  	88.962731 
3382.236567  	89.027315 
3383.200992  	88.987128 
3384.165416  	88.945597 
3385.129841  	88.931148 
3386.094265  	89.013108 
3387.058689  	89.113764 
3388.023114  	89.182629 
3388.987538  	89.198607 
3389.951963  	89.212836 
3390.916387  	89.192800 
3391.880812  	89.118399 
3392.845236  	88.947982 
3393.809661  	89.044862 
3394.774085  	89.286906 
3395.738510  	89.322500 
3396.702934  	89.251796 
3397.667358  	89.151689 
3398.631783  	89.318646 
3399.596207  	89.473175 
3400.560632  	89.462072 
3401.525056  	89.430307 
3402.489481  	89.467688 
3403.453905  	89.455409 
3404.418330  	89.453418 
3405.382754  	89.560475 
3406.347179  	89.617924 
3407.311603  	89.585895 
3408.276028  	89.530049 
3409.240452  	89.512009 
3410.204876  	89.499476 
3411.169301  	89.602122 
3412.133725  	89.658937 
3413.098150  	89.672514 
3414.062574  	89.663024 
3415.026999  	89.687650 
3415.991423  	89.726527 
3416.955848  	89.783739 
3417.920272  	89.808221 
3418.884697  	89.790527 
3419.849121  	89.569896 
3420.813545  	89.267997 
3421.777970  	89.358495 
3422.742394  	89.540681 
3423.706819  	89.657465 
3424.671243  	89.787321 
3425.635668  	89.842914 
3426.600092  	89.868277 
3427.564517  	89.892228 
3428.528941  	89.929425 
3429.493366  	89.972450 
3430.457790  	89.925858 
3431.422214  	89.865741 
3432.386639  	89.895609 
3433.351063  	89.958389 
3434.315488  	90.053508 
3435.279912  	90.023599 
3436.244337  	89.972478 
3437.208761  	89.965425 
3438.173186  	90.051673 
3439.137610  	90.078916 
3440.102035  	90.104506 
3441.066459  	90.092997 
3442.030883  	89.948334 
3442.995308  	89.711771 
3443.959732  	89.905581 
3444.924157  	90.021551 
3445.888581  	89.990495 
3446.853006  	89.602125 
3447.817430  	89.308479 
3448.781855  	89.821281 
3449.746279  	90.183301 
3450.710704  	90.237736 
3451.675128  	90.206407 
3452.639552  	90.215587 
3453.603977  	90.243389 
3454.568401  	90.269638 
3455.532826  	90.294102 
3456.497250  	90.265908 
3457.461675  	90.275702 
3458.426099  	90.274508 
3459.390524  	90.245810 
3460.354948  	90.218149 
3461.319373  	90.122837 
3462.283797  	90.097129 
3463.248221  	90.105721 
3464.212646  	90.290404 
3465.177070  	90.369601 
3466.141495  	90.294769 
3467.105919  	90.122080 
3468.070344  	90.244155 
3469.034768  	90.406022 
3469.999193  	90.396781 
3470.963617  	90.405176 
3471.928042  	90.422234 
3472.892466  	90.423168 
3473.856891  	90.403856 
3474.821315  	90.315786 
3475.785739  	90.434616 
3476.750164  	90.580618 
3477.714588  	90.557963 
3478.679013  	90.539964 
3479.643437  	90.481960 
3480.607862  	90.148438 
3481.572286  	89.965818 
3482.536711  	89.961408 
3483.501135  	90.256833 
3484.465560  	90.514842 
3485.429984  	90.509790 
3486.394408  	90.559079 
3487.358833  	90.561842 
3488.323257  	90.263975 
3489.287682  	90.278922 
3490.252106  	90.577325 
3491.216531  	90.602763 
3492.180955  	90.694010 
3493.145380  	90.789970 
3494.109804  	90.817324 
3495.074229  	90.641659 
3496.038653  	90.470057 
3497.003077  	90.345455 
3497.967502  	90.531599 
3498.931926  	90.721993 
3499.896351  	90.649587 
3500.860775  	90.572246 
3501.825200  	90.310167 
3502.789624  	89.829007 
3503.754049  	89.658862 
3504.718473  	90.097089 
3505.682898  	90.593515 
3506.647322  	90.926807 
3507.611746  	91.044278 
3508.576171  	90.771196 
3509.540595  	90.117143 
3510.505020  	90.260904 
3511.469444  	90.822658 
3512.433869  	90.917578 
3513.398293  	90.944845 
3514.362718  	91.059416 
3515.327142  	91.220348 
3516.291567  	91.214023 
3517.255991  	91.058251 
3518.220415  	91.005800 
3519.184840  	90.992997 
3520.149264  	91.052624 
3521.113689  	91.224936 
3522.078113  	91.049013 
3523.042538  	90.301125 
3524.006962  	89.924985 
3524.971387  	90.365417 
3525.935811  	90.604163 
3526.900236  	90.611579 
3527.864660  	90.504743 
3528.829085  	90.547201 
3529.793509  	90.747432 
3530.757933  	91.085486 
3531.722358  	91.159592 
3532.686782  	91.444932 
3533.651207  	91.660889 
3534.615631  	91.695009 
3535.580056  	91.427031 
3536.544480  	90.826003 
3537.508905  	91.017748 
3538.473329  	91.681066 
3539.437754  	91.687895 
3540.402178  	91.707306 
3541.366602  	91.757203 
3542.331027  	91.822279 
3543.295451  	91.596980 
3544.259876  	91.171824 
3545.224300  	90.255040 
3546.188725  	90.032710 
3547.153149  	90.179986 
3548.117574  	90.675235 
3549.081998  	91.550681 
3550.046423  	91.843806 
3551.010847  	91.800426 
3551.975271  	91.216432 
3552.939696  	90.794102 
3553.904120  	91.158598 
3554.868545  	91.698444 
3555.832969  	92.180898 
3556.797394  	92.175810 
3557.761818  	92.168339 
3558.726243  	92.273098 
3559.690667  	91.879852 
3560.655092  	91.349744 
3561.619516  	91.721930 
3562.583940  	91.800202 
3563.548365  	91.724780 
3564.512789  	91.667373 
3565.477214  	90.891066 
3566.441638  	88.623262 
3567.406063  	88.399239 
3568.370487  	88.863059 
3569.334912  	90.358647 
3570.299336  	91.698863 
3571.263761  	91.958854 
3572.228185  	92.344234 
3573.192609  	92.434889 
3574.157034  	92.312011 
3575.121458  	92.248157 
3576.085883  	92.314141 
3577.050307  	92.224283 
3578.014732  	92.244400 
3578.979156  	92.405841 
3579.943581  	92.083070 
3580.908005  	92.022919 
3581.872430  	92.455733 
3582.836854  	92.527769 
3583.801278  	92.378793 
3584.765703  	92.396781 
3585.730127  	92.065369 
3586.694552  	90.416218 
3587.658976  	89.213487 
3588.623401  	89.715028 
3589.587825  	90.749825 
3590.552250  	92.173391 
3591.516674  	92.701152 
3592.481099  	92.682434 
3593.445523  	91.918067 
3594.409948  	91.923516 
3595.374372  	91.639733 
3596.338796  	91.331390 
3597.303221  	92.190895 
3598.267645  	92.362173 
3599.232070  	91.998134 
3600.196494  	92.109388 
3601.160919  	91.890770 
3602.125343  	92.202331 
3603.089768  	92.518511 
3604.054192  	92.844521 
3605.018617  	93.073371 
3605.983041  	92.918620 
3606.947465  	91.797928 
3607.911890  	91.150979 
3608.876314  	91.561647 
3609.840739  	91.194796 
3610.805163  	92.091243 
3611.769588  	92.383652 
3612.734012  	91.173893 
3613.698437  	91.089726 
3614.662861  	91.402126 
3615.627286  	91.443230 
3616.591710  	92.474482 
3617.556134  	92.065416 
3618.520559  	91.044574 
3619.484983  	91.027011 
3620.449408  	90.997617 
3621.413832  	91.685557 
3622.378257  	92.491828 
3623.342681  	93.033233 
3624.307106  	93.240778 
3625.271530  	93.237204 
3626.235955  	92.721352 
3627.200379  	92.421458 
3628.164803  	91.651019 
3629.129228  	88.845165 
3630.093652  	89.092037 
3631.058077  	91.598201 
3632.022501  	92.728899 
3632.986926  	92.910540 
3633.951350  	92.202858 
3634.915775  	92.425822 
3635.880199  	93.183065 
3636.844624  	93.361441 
3637.809048  	93.213434 
3638.773472  	93.137988 
3639.737897  	93.378750 
3640.702321  	93.455662 
3641.666746  	93.167826 
3642.631170  	92.740349 
3643.595595  	92.952889 
3644.560019  	93.359155 
3645.524444  	93.138875 
3646.488868  	92.086024 
3647.453293  	90.120863 
3648.417717  	90.093737 
3649.382142  	89.990271 
3650.346566  	89.080506 
3651.310990  	89.373454 
3652.275415  	91.472115 
3653.239839  	92.926346 
3654.204264  	93.357242 
3655.168688  	93.325935 
3656.133113  	92.518642 
3657.097537  	91.950584 
3658.061962  	93.088052 
3659.026386  	93.487157 
3659.990811  	93.364093 
3660.955235  	93.479550 
3661.919659  	93.735331 
3662.884084  	93.787522 
3663.848508  	93.779645 
3664.812933  	93.726616 
3665.777357  	93.733257 
3666.741782  	93.736309 
3667.706206  	93.687811 
3668.670631  	92.796376 
3669.635055  	91.424849 
3670.599480  	90.802923 
3671.563904  	91.175592 
3672.528328  	92.800311 
3673.492753  	93.299666 
3674.457177  	92.291530 
3675.421602  	89.244637 
3676.386026  	89.045907 
3677.350451  	91.299368 
3678.314875  	92.401253 
3679.279300  	92.542345 
3680.243724  	92.485427 
3681.208149  	93.296437 
3682.172573  	93.757242 
3683.136997  	93.766518 
3684.101422  	93.639212 
3685.065846  	93.536272 
3686.030271  	93.681665 
3686.994695  	93.634943 
3687.959120  	93.025521 
3688.923544  	91.685876 
3689.887969  	91.936216 
3690.852393  	91.727379 
3691.816818  	91.404510 
3692.781242  	92.896698 
3693.745666  	93.513652 
3694.710091  	93.644114 
3695.674515  	93.762601 
3696.638940  	93.630513 
3697.603364  	93.720025 
3698.567789  	93.968787 
3699.532213  	93.893270 
3700.496638  	93.888097 
3701.461062  	93.182059 
3702.425487  	92.381082 
3703.389911  	93.321983 
3704.354335  	93.914234 
3705.318760  	93.788107 
3706.283184  	93.685282 
3707.247609  	93.796592 
3708.212033  	93.915540 
3709.176458  	93.419684 
3710.140882  	92.529297 
3711.105307  	92.167846 
3712.069731  	91.217504 
3713.034156  	91.030907 
3713.998580  	92.629998 
3714.963005  	92.905585 
3715.927429  	93.175870 
3716.891853  	93.823348 
3717.856278  	93.956303 
3718.820702  	93.318484 
3719.785127  	92.916465 
3720.749551  	93.521512 
3721.713976  	93.264903 
3722.678400  	91.843554 
3723.642825  	92.311835 
3724.607249  	92.813944 
3725.571674  	92.130843 
3726.536098  	91.867975 
3727.500522  	92.073147 
3728.464947  	93.105573 
3729.429371  	93.781866 
3730.393796  	93.698265 
3731.358220  	93.345912 
3732.322645  	92.479040 
3733.287069  	92.333537 
3734.251494  	92.059321 
3735.215918  	89.031564 
3736.180343  	88.840643 
3737.144767  	90.509303 
3738.109191  	91.563496 
3739.073616  	92.103130 
3740.038040  	92.778878 
3741.002465  	92.554744 
3741.966889  	92.481414 
3742.931314  	93.084167 
3743.895738  	92.466325 
3744.860163  	89.240785 
3745.824587  	90.589738 
3746.789012  	92.042489 
3747.753436  	92.310719 
3748.717860  	92.328135 
3749.682285  	91.725220 
3750.646709  	91.120226 
3751.611134  	91.125251 
3752.575558  	90.010568 
3753.539983  	91.258491 
3754.504407  	92.551471 
3755.468832  	93.278077 
3756.433256  	93.077543 
3757.397681  	92.863869 
3758.362105  	93.098056 
3759.326529  	92.319057 
3760.290954  	91.683566 
3761.255378  	93.032626 
3762.219803  	93.630402 
3763.184227  	93.743521 
3764.148652  	93.708730 
3765.113076  	93.353533 
3766.077501  	92.457548 
3767.041925  	92.969085 
3768.006350  	93.695578 
3768.970774  	93.571032 
3769.935199  	92.613770 
3770.899623  	92.431843 
3771.864047  	93.303934 
3772.828472  	93.735648 
3773.792896  	93.871489 
3774.757321  	93.966743 
3775.721745  	94.075180 
3776.686170  	94.162733 
3777.650594  	94.046043 
3778.615019  	93.671000 
3779.579443  	92.804343 
3780.543868  	92.740063 
3781.508292  	93.701884 
3782.472716  	93.895877 
3783.437141  	93.902409 
3784.401565  	93.557773 
3785.365990  	93.003376 
3786.330414  	93.291861 
3787.294839  	93.727099 
3788.259263  	93.960978 
3789.223688  	93.995229 
3790.188112  	93.985856 
3791.152537  	94.121279 
3792.116961  	94.138483 
3793.081385  	94.125424 
3794.045810  	94.086150 
3795.010234  	93.929634 
3795.974659  	93.435252 
3796.939083  	92.541357 
3797.903508  	92.741356 
3798.867932  	93.395460 
3799.832357  	93.521827 
3800.796781  	92.717829 
3801.761206  	91.122005 
3802.725630  	91.273786 
3803.690054  	92.452818 
3804.654479  	93.469032 
3805.618903  	93.690931 
3806.583328  	93.147406 
3807.547752  	92.183725 
3808.512177  	93.069048 
3809.476601  	93.729990 
3810.441026  	93.834549 
3811.405450  	93.959397 
3812.369875  	94.085603 
3813.334299  	94.097862 
3814.298723  	93.942499 
3815.263148  	93.400208 
3816.227572  	91.927260 
3817.191997  	91.973736 
3818.156421  	93.128397 
3819.120846  	93.187087 
3820.085270  	92.525787 
3821.049695  	90.999699 
3822.014119  	90.538567 
3822.978544  	92.246494 
3823.942968  	93.073777 
3824.907392  	93.355961 
3825.871817  	93.355261 
3826.836241  	92.851395 
3827.800666  	92.846508 
3828.765090  	93.491974 
3829.729515  	93.838534 
3830.693939  	93.765225 
3831.658364  	93.049941 
3832.622788  	92.795795 
3833.587213  	93.495491 
3834.551637  	93.286342 
3835.516062  	92.445632 
3836.480486  	92.947969 
3837.444910  	92.829882 
3838.409335  	91.360439 
3839.373759  	91.724638 
3840.338184  	91.462758 
3841.302608  	91.398254 
3842.267033  	92.753658 
3843.231457  	93.060862 
3844.195882  	92.204055 
3845.160306  	92.879250 
3846.124731  	93.639418 
3847.089155  	93.837013 
3848.053579  	93.889287 
3849.018004  	93.714957 
3849.982428  	93.187443 
3850.946853  	93.152292 
3851.911277  	92.441830 
3852.875702  	90.559061 
3853.840126  	90.018607 
3854.804551  	90.096379 
3855.768975  	91.992631 
3856.733400  	92.501537 
3857.697824  	92.063462 
3858.662248  	93.013081 
3859.626673  	93.812662 
3860.591097  	93.867795 
3861.555522  	93.254134 
3862.519946  	92.440403 
3863.484371  	92.752632 
3864.448795  	92.230886 
3865.413220  	91.059391 
3866.377644  	92.345820 
3867.342069  	93.531144 
3868.306493  	93.565152 
3869.270917  	92.344539 
3870.235342  	90.162235 
3871.199766  	91.219580 
3872.164191  	92.657262 
3873.128615  	93.145204 
3874.093040  	91.963073 
3875.057464  	91.694528 
3876.021889  	93.451324 
3876.986313  	93.969053 
3877.950738  	93.960126 
3878.915162  	93.874336 
3879.879586  	92.973299 
3880.844011  	90.946872 
3881.808435  	91.941854 
3882.772860  	93.156868 
3883.737284  	92.946737 
3884.701709  	92.920290 
3885.666133  	92.223458 
3886.630558  	91.511397 
3887.594982  	93.159661 
3888.559407  	93.862203 
3889.523831  	93.840419 
3890.488256  	93.432037 
3891.452680  	92.196338 
3892.417104  	91.847013 
3893.381529  	92.929891 
3894.345953  	93.009806 
3895.310378  	93.296726 
3896.274802  	93.830429 
3897.239227  	93.874047 
3898.203651  	93.237949 
3899.168076  	92.210120 
3900.132500  	91.820240 
3901.096925  	92.662627 
3902.061349  	91.546262 
3903.025773  	91.251902 
3903.990198  	91.879714 
3904.954622  	91.319014 
3905.919047  	91.616220 
3906.883471  	92.561816 
3907.847896  	93.660496 
3908.812320  	94.030492 
3909.776745  	94.059482 
3910.741169  	94.064106 
3911.705594  	94.071436 
3912.670018  	94.060976 
3913.634442  	94.053207 
3914.598867  	94.063563 
3915.563291  	93.920030 
3916.527716  	93.029993 
3917.492140  	92.111158 
3918.456565  	92.898166 
3919.420989  	93.368536 
3920.385414  	92.670503 
3921.349838  	93.102698 
3922.314263  	93.945320 
3923.278687  	93.694801 
3924.243111  	92.795375 
3925.207536  	92.191235 
3926.171960  	92.896458 
3927.136385  	93.858798 
3928.100809  	93.980490 
3929.065234  	93.711016 
3930.029658  	93.334356 
3930.994083  	93.101284 
3931.958507  	92.743841 
3932.922932  	92.233479 
3933.887356  	92.962716 
3934.851780  	93.516183 
3935.816205  	93.914478 
3936.780629  	94.118073 
3937.745054  	93.989719 
3938.709478  	93.729195 
3939.673903  	93.867661 
3940.638327  	93.986962 
3941.602752  	93.830912 
3942.567176  	92.919150 
3943.531601  	92.338303 
3944.496025  	93.184459 
3945.460449  	93.740572 
3946.424874  	93.870591 
3947.389298  	93.304383 
3948.353723  	92.850344 
3949.318147  	93.135453 
3950.282572  	92.879336 
3951.246996  	93.194454 
3952.211421  	93.846155 
3953.175845  	93.801869 
3954.140270  	93.875127 
3955.104694  	94.033976 
3956.069119  	93.972362 
3957.033543  	93.745563 
3957.997967  	93.683718 
3958.962392  	93.766724 
3959.926816  	93.828855 
3960.891241  	93.788013 
3961.855665  	93.354658 
3962.820090  	93.313993 
3963.784514  	93.916593 
3964.748939  	94.000900 
3965.713363  	94.003840 
3966.677788  	94.048090 
3967.642212  	94.010090 
3968.606636  	93.884086 
3969.571061  	93.711978 
3970.535485  	93.831716 
3971.499910  	93.943449 
3972.464334  	93.758439 
3973.428759  	93.824413 
3974.393183  	93.898084 
3975.357608  	93.718843 
3976.322032  	93.560816 
3977.286457  	93.760243 
3978.250881  	94.027502 
3979.215305  	94.029965 
3980.179730  	93.961125 
3981.144154  	93.919774 
3982.108579  	93.864830 
3983.073003  	93.880064 
3984.037428  	94.019699 
3985.001852  	94.037831 
3985.966277  	94.009452 
3986.930701  	94.068463 
3987.895126  	94.085727 
3988.859550  	94.031290 
3989.823974  	93.915075 
3990.788399  	93.699866 
3991.752823  	93.764761 
3992.717248  	93.913957 
3993.681672  	93.910883 
3994.646097  	93.799251 
3995.610521  	93.691582 
3996.574946  	93.889612 
3997.539370  	94.029439 
3998.503795  	94.069758 
3999.468219  	94.068379 
4000.432643  	94.101719 
4001.397068  	94.093529 
4002.361492  	94.006241 
4003.325917  	93.975918 
4004.290341  	94.031882 
4005.254766  	94.052181 
4006.219190  	94.022043 
4007.183615  	94.018985 
4008.148039  	93.897958 
4009.112464  	93.723456 
4010.076888  	93.858003 
4011.041313  	93.994984 
4012.005737  	94.043325 
4012.970161  	94.009982 
4013.934586  	94.013374 
4014.899010  	94.046952 
4015.863435  	94.028563 
4016.827859  	93.998887 
4017.792284  	94.015974 
4018.756708  	94.040845 
4019.721133  	93.981280 
4020.685557  	93.975161 
4021.649982  	94.031000 
4022.614406  	94.056625 
4023.578830  	94.032395 
4024.543255  	93.978086 
4025.507679  	93.886073 
4026.472104  	93.907833 
4027.436528  	94.004842 
4028.400953  	94.005663 
4029.365377  	94.013746 
4030.329802  	94.009236 
4031.294226  	93.987690 
4032.258651  	94.016363 
4033.223075  	94.099727 
4034.187499  	94.128456 
4035.151924  	94.083494 
4036.116348  	94.066592 
4037.080773  	94.070925 
4038.045197  	94.081250 
4039.009622  	94.073298 
4039.974046  	94.024784 
4040.938471  	94.037842 
4041.902895  	94.045292 
4042.867320  	94.068699 
4043.831744  	94.013757 
4044.796168  	93.866649 
4045.760593  	93.847531 
4046.725017  	93.991485 
4047.689442  	94.017987 
4048.653866  	94.022511 
4049.618291  	94.045220 
4050.582715  	94.078068 
4051.547140  	94.063946 
4052.511564  	94.042740 
4053.475989  	94.074150 
4054.440413  	94.073867 
4055.404837  	94.011898 
4056.369262  	94.034080 
4057.333686  	94.087357 
4058.298111  	94.073922 
4059.262535  	94.071377 
4060.226960  	94.036297 
4061.191384  	94.020095 
4062.155809  	94.075069 
4063.120233  	94.109111 
4064.084658  	94.107904 
4065.049082  	94.136087 
4066.013506  	94.108470 
4066.977931  	94.081106 
4067.942355  	94.084109 
4068.906780  	94.079432 
4069.871204  	94.119306 
4070.835629  	94.128218 
4071.800053  	94.107887 
4072.764478  	94.062806 
4073.728902  	94.025036 
4074.693327  	94.061563 
4075.657751  	94.131246 
4076.622176  	94.129754 
4077.586600  	94.119655 
4078.551024  	94.094261 
4079.515449  	94.049195 
4080.479873  	94.069543 
4081.444298  	94.128464 
4082.408722  	94.111932 
4083.373147  	94.090047 
4084.337571  	94.072402 
4085.301996  	94.102813 
4086.266420  	94.101034 
4087.230845  	94.061948 
4088.195269  	93.997942 
4089.159693  	94.005354 
4090.124118  	94.083738 
4091.088542  	94.107795 
4092.052967  	94.140036 
4093.017391  	94.159384 
4093.981816  	94.118696 
4094.946240  	94.109965 
4095.910665  	94.129094 
4096.875089  	94.164268 
4097.839514  	94.138167 
4098.803938  	94.070156 
4099.768362  	94.093575 
4100.732787  	94.126035 
4101.697211  	94.095957 
4102.661636  	94.074048 
4103.626060  	94.120796 
4104.590485  	94.135406 
4105.554909  	94.066689 
4106.519334  	94.024747 
4107.483758  	94.017324 
4108.448183  	94.057088 
4109.412607  	94.098680 
4110.377031  	94.087872 
4111.341456  	94.111043 
4112.305880  	94.127865 
4113.270305  	94.128757 
4114.234729  	94.139228 
4115.199154  	94.160758 
4116.163578  	94.132841 
4117.128003  	94.123705 
4118.092427  	94.137456 
4119.056852  	94.109560 
4120.021276  	94.042029 
4120.985700  	94.042304 
4121.950125  	94.090447 
4122.914549  	94.036022 
4123.878974  	94.043806 
4124.843398  	94.122170 
4125.807823  	94.143533 
4126.772247  	94.121299 
4127.736672  	94.094355 
4128.701096  	94.098649 
4129.665521  	94.092404 
4130.629945  	94.094433 
4131.594370  	94.112527 
4132.558794  	94.137433 
4133.523218  	94.068806 
4134.487643  	94.039195 
4135.452067  	94.081498 
4136.416492  	94.128087 
4137.380916  	94.140723 
4138.345341  	94.065268 
4139.309765  	94.039313 
4140.274190  	94.047072 
4141.238614  	94.010579 
4142.203039  	94.007042 
4143.167463  	94.076903 
4144.131887  	94.108960 
4145.096312  	94.136500 
4146.060736  	94.162410 
4147.025161  	94.115410 
4147.989585  	94.043972 
4148.954010  	94.008944 
4149.918434  	94.057872 
4150.882859  	94.100616 
4151.847283  	94.063334 
4152.811708  	94.021286 
4153.776132  	94.010028 
4154.740556  	94.032307 
4155.704981  	94.053654 
4156.669405  	94.028221 
4157.633830  	94.041748 
4158.598254  	94.106445 
4159.562679  	94.090216 
4160.527103  	94.018706 
4161.491528  	94.010374 
4162.455952  	94.064438 
4163.420377  	94.090330 
4164.384801  	94.068667 
4165.349225  	94.056767 
4166.313650  	94.058114 
4167.278074  	94.070615 
4168.242499  	94.091008 
4169.206923  	94.102693 
4170.171348  	94.122821 
4171.135772  	94.116972 
4172.100197  	94.044564 
4173.064621  	94.015989 
4174.029046  	94.037996 
4174.993470  	94.051465 
4175.957894  	94.075877 
4176.922319  	94.111907 
4177.886743  	94.101042 
4178.851168  	94.057650 
4179.815592  	93.991850 
4180.780017  	93.985010 
4181.744441  	94.060706 
4182.708866  	94.105215 
4183.673290  	94.107418 
4184.637715  	94.104169 
4185.602139  	94.059947 
4186.566563  	93.997647 
4187.530988  	94.001301 
4188.495412  	94.059207 
4189.459837  	94.100609 
4190.424261  	94.084460 
4191.388686  	94.032772 
4192.353110  	94.065511 
4193.317535  	94.071596 
4194.281959  	94.074721 
4195.246384  	94.101690 
4196.210808  	94.064411 
4197.175233  	93.975509 
4198.139657  	93.969915 
4199.104081  	94.025098 
4200.068506  	94.022234 
4201.032930  	93.986293 
4201.997355  	94.015971 
4202.961779  	94.074418 
4203.926204  	94.055977 
4204.890628  	93.991484 
4205.855053  	93.987469 
4206.819477  	94.023576 
4207.783902  	94.070312 
4208.748326  	94.066759 
4209.712750  	94.065824 
4210.677175  	94.052192 
4211.641599  	94.053472 
4212.606024  	94.044314 
4213.570448  	94.052788 
4214.534873  	94.079102 
4215.499297  	94.065847 
4216.463722  	94.064475 
4217.428146  	94.058204 
4218.392571  	94.030955 
4219.356995  	94.048067 
4220.321419  	94.072747 
4221.285844  	94.117780 
4222.250268  	94.163143 
4223.214693  	94.074627 
4224.179117  	93.990490 
4225.143542  	94.031304 
4226.107966  	94.102465 
4227.072391  	94.161639 
4228.036815  	94.101399 
4229.001240  	94.055258 
4229.965664  	94.016385 
4230.930088  	93.992781 
4231.894513  	94.071142 
4232.858937  	94.138003 
4233.823362  	94.144105 
4234.787786  	94.153197 
4235.752211  	94.137712 
4236.716635  	94.108724 
4237.681060  	94.098868 
4238.645484  	94.117174 
4239.609909  	94.082305 
4240.574333  	94.066941 
4241.538757  	94.120147 
4242.503182  	94.168135 
4243.467606  	94.144719 
4244.432031  	94.054079 
4245.396455  	94.057708 
4246.360880  	94.091616 
4247.325304  	94.060858 
4248.289729  	94.054962 
4249.254153  	94.110926 
4250.218578  	94.161090 
4251.183002  	94.153387 
4252.147427  	94.101695 
4253.111851  	94.075715 
4254.076275  	94.031503 
4255.040700  	94.000672 
4256.005124  	94.043653 
4256.969549  	94.116198 
4257.933973  	94.137535 
4258.898398  	94.117023 
4259.862822  	94.086628 
4260.827247  	94.075487 
4261.791671  	94.108261 
4262.756096  	94.154319 
4263.720520  	94.118367 
4264.684944  	94.074575 
4265.649369  	94.070093 
4266.613793  	94.094220 
4267.578218  	94.069075 
4268.542642  	94.087413 
4269.507067  	94.118567 
4270.471491  	94.107786 
4271.435916  	94.113219 
4272.400340  	94.095616 
4273.364765  	94.093556 
4274.329189  	94.126781 
4275.293613  	94.148487 
4276.258038  	94.147061 
4277.222462  	94.107687 
4278.186887  	94.081825 
4279.151311  	94.060856 
4280.115736  	94.025999 
4281.080160  	94.037459 
4282.044585  	94.073946 
4283.009009  	94.052026 
4283.973434  	94.060448 
4284.937858  	94.118487 
4285.902282  	94.101721 
4286.866707  	94.078558 
4287.831131  	94.134661 
4288.795556  	94.165946 
4289.759980  	94.138419 
4290.724405  	94.064609 
4291.688829  	94.099432 
4292.653254  	94.146824 
4293.617678  	94.140219 
4294.582103  	94.140909 
4295.546527  	94.145133 
4296.510951  	94.163535 
4297.475376  	94.177837 
4298.439800  	94.170131 
4299.404225  	94.158018 
4300.368649  	94.151169 
4301.333074  	94.079383 
4302.297498  	94.001142 
4303.261923  	94.035157 
4304.226347  	94.134732 
4305.190772  	94.253184 
4306.155196  	94.230138 
4307.119620  	94.135677 
4308.084045  	94.102331 
4309.048469  	94.175086 
4310.012894  	94.218648 
4310.977318  	94.212055 
4311.941743  	94.170190 
4312.906167  	94.128740 
4313.870592  	94.073914 
4314.835016  	94.107767 
4315.799441  	94.128612 
4316.763865  	94.104039 
4317.728290  	94.135681 
4318.692714  	94.165083 
4319.657138  	94.083648 
4320.621563  	94.015393 
4321.585987  	94.053260 
4322.550412  	94.097834 
4323.514836  	94.085248 
4324.479261  	94.060099 
4325.443685  	94.080582 
4326.408110  	94.109619 
4327.372534  	94.142116 
4328.336959  	94.131168 
4329.301383  	94.046166 
4330.265807  	94.034238 
4331.230232  	94.098068 
4332.194656  	94.074791 
4333.159081  	94.113670 
4334.123505  	94.121271 
4335.087930  	94.072500 
4336.052354  	94.080391 
4337.016779  	94.087782 
4337.981203  	94.098114 
4338.945628  	94.097489 
4339.910052  	94.064560 
4340.874476  	94.058652 
4341.838901  	94.099514 
4342.803325  	94.075093 
4343.767750  	93.994071 
4344.732174  	93.977206 
4345.696599  	93.973952 
4346.661023  	93.947244 
4347.625448  	93.913514 
4348.589872  	93.904318 
4349.554297  	93.964818 
4350.518721  	94.041094 
4351.483145  	94.059824 
4352.447570  	93.971851 
4353.411994  	93.943396 
4354.376419  	93.974051 
4355.340843  	93.967575 
4356.305268  	93.986722 
4357.269692  	94.043262 
4358.234117  	94.085376 
4359.198541  	94.102106 
4360.162966  	94.082322 
4361.127390  	94.009814 
4362.091814  	93.990169 
4363.056239  	93.962501 
4364.020663  	93.956303 
4364.985088  	93.937367 
4365.949512  	93.932542 
4366.913937  	93.972075 
4367.878361  	93.961441 
4368.842786  	93.926947 
4369.807210  	93.965390 
4370.771635  	94.023004 
4371.736059  	94.030370 
4372.700484  	94.017338 
4373.664908  	94.070812 
4374.629332  	94.123324 
4375.593757  	94.094687 
4376.558181  	94.115840 
4377.522606  	94.156700 
4378.487030  	94.093131 
4379.451455  	94.051028 
4380.415879  	94.040520 
4381.380304  	94.059912 
4382.344728  	94.076653 
4383.309153  	94.074907 
4384.273577  	94.141457 
4385.238001  	94.206286 
4386.202426  	94.145401 
4387.166850  	94.117368 
4388.131275  	94.104152 
4389.095699  	94.071183 
4390.060124  	94.081117 
4391.024548  	94.153895 
4391.988973  	94.236257 
4392.953397  	94.232511 
4393.917822  	94.155725 
4394.882246  	94.103419 
4395.846670  	94.094219 
4396.811095  	94.045682 
4397.775519  	94.088154 
4398.739944  	94.191754 
4399.704368  	94.208505 
4400.668793  	94.231065 
4401.633217  	94.122066 
4402.597642  	94.104189 
4403.562066  	94.277474 
4404.526491  	94.351368 
4405.490915  	94.300415 
4406.455339  	94.211947 
4407.419764  	94.179995 
4408.384188  	94.215854 
4409.348613  	94.218064 
4410.313037  	94.250687 
4411.277462  	94.193541 
4412.241886  	94.172092 
4413.206311  	94.252608 
4414.170735  	94.286452 
4415.135160  	94.251476 
4416.099584  	94.224179 
4417.064008  	94.136784 
4418.028433  	94.095758 
4418.992857  	94.131227 
4419.957282  	94.118400 
4420.921706  	94.140933 
4421.886131  	94.222938 
4422.850555  	94.271196 
4423.814980  	94.230269 
4424.779404  	94.170144 
4425.743829  	94.177354 
4426.708253  	94.187576 
4427.672677  	94.169287 
4428.637102  	94.192987 
4429.601526  	94.272510 
4430.565951  	94.285464 
4431.530375  	94.228045 
4432.494800  	94.155690 
4433.459224  	94.106750 
4434.423649  	94.185607 
4435.388073  	94.293397 
4436.352498  	94.330880 
4437.316922  	94.323832 
4438.281347  	94.287815 
4439.245771  	94.269071 
4440.210195  	94.329242 
4441.174620  	94.315742 
4442.139044  	94.211689 
4443.103469  	94.248678 
4444.067893  	94.239385 
4445.032318  	94.209326 
4445.996742  	94.252861 
4446.961167  	94.253292 
4447.925591  	94.166582 
4448.890016  	94.126513 
4449.854440  	94.120211 
4450.818864  	94.174268 
4451.783289  	94.212196 
4452.747713  	94.194929 
4453.712138  	94.232524 
4454.676562  	94.254134 
4455.640987  	94.240372 
4456.605411  	94.270929 
4457.569836  	94.257978 
4458.534260  	94.233819 
4459.498685  	94.215039 
4460.463109  	94.196888 
4461.427533  	94.215518 
4462.391958  	94.205131 
4463.356382  	94.216352 
4464.320807  	94.282714 
4465.285231  	94.274771 
4466.249656  	94.245908 
4467.214080  	94.234961 
4468.178505  	94.168742 
4469.142929  	94.205565 
4470.107354  	94.232846 
4471.071778  	94.187600 
4472.036202  	94.258652 
4473.000627  	94.314132 
4473.965051  	94.296447 
4474.929476  	94.210728 
4475.893900  	94.217584 
4476.858325  	94.224046 
4477.822749  	94.182927 
4478.787174  	94.243386 
4479.751598  	94.271904 
4480.716023  	94.236350 
4481.680447  	94.255352 
4482.644871  	94.248002 
4483.609296  	94.205106 
4484.573720  	94.239511 
4485.538145  	94.259043 
4486.502569  	94.280176 
4487.466994  	94.286426 
4488.431418  	94.337528 
4489.395843  	94.290929 
4490.360267  	94.185094 
4491.324692  	94.157023 
4492.289116  	94.212527 
4493.253541  	94.270724 
4494.217965  	94.261939 
4495.182389  	94.209182 
4496.146814  	94.195636 
4497.111238  	94.208146 
4498.075663  	94.246421 
4499.040087  	94.265996 
4500.004512  	94.222805 
4500.968936  	94.206943 
4501.933361  	94.169548 
4502.897785  	94.179414 
4503.862210  	94.253353 
4504.826634  	94.264438 
4505.791058  	94.269668 
4506.755483  	94.268669 
4507.719907  	94.232395 
4508.684332  	94.231546 
4509.648756  	94.209441 
4510.613181  	94.171098 
4511.577605  	94.238711 
4512.542030  	94.303907 
4513.506454  	94.271276 
4514.470879  	94.164901 
4515.435303  	94.058928 
4516.399727  	94.065114 
4517.364152  	94.087216 
4518.328576  	94.175043 
4519.293001  	94.264245 
4520.257425  	94.281045 
4521.221850  	94.234668 
4522.186274  	94.265230 
4523.150699  	94.251754 
4524.115123  	94.256620 
4525.079548  	94.259324 
4526.043972  	94.235909 
4527.008396  	94.206282 
4527.972821  	94.178140 
4528.937245  	94.155344 
4529.901670  	94.126967 
4530.866094  	94.144796 
4531.830519  	94.213950 
4532.794943  	94.163493 
4533.759368  	94.120846 
4534.723792  	94.158528 
4535.688217  	94.158575 
4536.652641  	94.200730 
4537.617065  	94.255735 
4538.581490  	94.287672 
4539.545914  	94.234806 
4540.510339  	94.230786 
4541.474763  	94.199740 
4542.439188  	94.239134 
4543.403612  	94.260108 
4544.368037  	94.206589 
4545.332461  	94.203245 
4546.296886  	94.222466 
4547.261310  	94.190022 
4548.225734  	94.202767 
4549.190159  	94.262283 
4550.154583  	94.241939 
4551.119008  	94.121370 
4552.083432  	94.147637 
4553.047857  	94.155017 
4554.012281  	94.134001 
4554.976706  	94.180004 
4555.941130  	94.165170 
4556.905555  	94.112157 
4557.869979  	94.189449 
4558.834404  	94.308009 
4559.798828  	94.243475 
4560.763252  	94.147692 
4561.727677  	94.142637 
4562.692101  	94.214661 
4563.656526  	94.252795 
4564.620950  	94.244224 
4565.585375  	94.169743 
4566.549799  	94.181999 
4567.514224  	94.205318 
4568.478648  	94.140773 
4569.443073  	94.170760 
4570.407497  	94.218027 
4571.371921  	94.199746 
4572.336346  	94.209436 
4573.300770  	94.232009 
4574.265195  	94.187095 
4575.229619  	94.188133 
4576.194044  	94.177531 
4577.158468  	94.156928 
4578.122893  	94.232719 
4579.087317  	94.269616 
4580.051742  	94.246475 
4581.016166  	94.235051 
4581.980590  	94.235345 
4582.945015  	94.248816 
4583.909439  	94.297750 
4584.873864  	94.284380 
4585.838288  	94.209205 
4586.802713  	94.238706 
4587.767137  	94.267922 
4588.731562  	94.235218 
4589.695986  	94.235822 
4590.660411  	94.238790 
4591.624835  	94.203439 
4592.589259  	94.201636 
4593.553684  	94.186075 
4594.518108  	94.123689 
4595.482533  	94.135756 
4596.446957  	94.188554 
4597.411382  	94.105059 
4598.375806  	94.108906 
4599.340231  	94.227107 
4600.304655  	94.265117 
4601.269080  	94.251737 
4602.233504  	94.183473 
4603.197928  	94.123122 
4604.162353  	94.152070 
4605.126777  	94.191168 
4606.091202  	94.233072 
4607.055626  	94.285364 
4608.020051  	94.286910 
4608.984475  	94.256389 
4609.948900  	94.236715 
4610.913324  	94.218802 
4611.877749  	94.234750 
4612.842173  	94.226433 
4613.806598  	94.195418 
4614.771022  	94.207724 
4615.735446  	94.242128 
4616.699871  	94.215071 
4617.664295  	94.161118 
4618.628720  	94.176110 
4619.593144  	94.200230 
4620.557569  	94.322943 
4621.521993  	94.302236 
4622.486418  	94.178624 
4623.450842  	94.174759 
4624.415267  	94.233883 
4625.379691  	94.318174 
4626.344115  	94.251963 
4627.308540  	94.164853 
4628.272964  	94.178001 
4629.237389  	94.242868 
4630.201813  	94.263505 
4631.166238  	94.220810 
4632.130662  	94.211019 
4633.095087  	94.140366 
4634.059511  	94.092331 
4635.023936  	94.236780 
4635.988360  	94.335187 
4636.952784  	94.265433 
4637.917209  	94.257199 
4638.881633  	94.209869 
4639.846058  	94.167964 
4640.810482  	94.206194 
4641.774907  	94.208304 
4642.739331  	94.128503 
4643.703756  	94.110187 
4644.668180  	94.172631 
4645.632605  	94.164376 
4646.597029  	94.202363 
4647.561453  	94.231315 
4648.525878  	94.295014 
4649.490302  	94.311444 
4650.454727  	94.335247 
4651.419151  	94.330263 
4652.383576  	94.284925 
4653.348000  	94.267952 
4654.312425  	94.280045 
4655.276849  	94.283616 
4656.241274  	94.221899 
4657.205698  	94.166082 
4658.170122  	94.147926 
4659.134547  	94.189946 
4660.098971  	94.221244 
4661.063396  	94.206620 
4662.027820  	94.229960 
4662.992245  	94.203236 
4663.956669  	94.207877 
4664.921094  	94.209711 
4665.885518  	94.242597 
4666.849943  	94.279280 
4667.814367  	94.255187 
4668.778791  	94.270160 
4669.743216  	94.241451 
4670.707640  	94.246822 
4671.672065  	94.266961 
4672.636489  	94.248729 
4673.600914  	94.155373 
4674.565338  	94.155189 
4675.529763  	94.274907 
4676.494187  	94.299805 
4677.458612  	94.288313 
4678.423036  	94.318597 
4679.387461  	94.334193 
4680.351885  	94.326836 
4681.316309  	94.289316 
4682.280734  	94.267313 
4683.245158  	94.175030 
4684.209583  	94.156889 
4685.174007  	94.250221 
4686.138432  	94.267288 
4687.102856  	94.272805 
4688.067281  	94.295285 
4689.031705  	94.266074 
4689.996130  	94.301285 
4690.960554  	94.330149 
4691.924978  	94.216556 
4692.889403  	94.163865 
4693.853827  	94.199150 
4694.818252  	94.189414 
4695.782676  	94.226355 
4696.747101  	94.223305 
4697.711525  	94.275906 
4698.675950  	94.319854 
4699.640374  	94.209629 