##TITLE=No Description
##DATA TYPE=INFRARED SPECTRUM
##XUNITS=1/CM
##YUNITS=%T
400.236149  	101.244887 
401.200574  	92.118837 
402.164998  	83.776280 
403.129423  	76.385425 
404.093847  	78.241524 
405.058272  	77.562065 
406.022696  	75.238441 
406.987120  	76.717775 
407.951545  	95.763043 
408.915969  	80.222858 
409.880394  	75.596396 
410.844818  	89.051273 
411.809243  	92.542594 
412.773667  	83.624837 
413.738092  	76.872254 
414.702516  	71.588177 
415.666941  	73.965920 
416.631365  	88.589594 
417.595789  	97.173990 
418.560214  	96.889693 
419.524638  	89.038223 
420.489063  	90.895994 
421.453487  	89.411988 
422.417912  	88.514128 
423.382336  	89.758713 
424.346761  	85.305330 
425.311185  	81.638610 
426.275610  	82.477474 
427.240034  	83.592173 
428.204458  	85.790953 
429.168883  	85.766297 
430.133307  	83.401987 
431.097732  	82.435434 
432.062156  	80.584241 
433.026581  	79.984826 
433.991005  	80.514992 
434.955430  	81.786718 
435.919854  	81.898469 
436.884279  	81.732349 
437.848703  	82.681614 
438.813127  	82.458993 
439.777552  	82.773705 
440.741976  	83.929850 
441.706401  	81.897963 
442.670825  	80.156796 
443.635250  	79.748167 
444.599674  	81.533328 
445.564099  	82.657988 
446.528523  	81.105111 
447.492948  	80.710255 
448.457372  	81.079500 
449.421796  	80.663254 
450.386221  	80.437639 
451.350645  	81.853223 
452.315070  	82.026123 
453.279494  	79.682181 
454.243919  	79.795829 
455.208343  	79.711305 
456.172768  	78.491823 
457.137192  	78.785216 
458.101617  	79.449108 
459.066041  	78.130650 
460.030466  	77.478538 
460.994890  	77.952236 
461.959314  	77.868617 
462.923739  	77.711231 
463.888163  	77.475424 
464.852588  	78.091232 
465.817012  	78.681677 
466.781437  	78.372192 
467.745861  	77.818803 
468.710286  	77.415995 
469.674710  	76.987559 
470.639135  	77.027494 
471.603559  	77.390144 
472.567983  	77.946147 
473.532408  	77.139963 
474.496832  	76.057043 
475.461257  	75.942632 
476.425681  	75.899675 
477.390106  	76.621682 
478.354530  	77.578315 
479.318955  	76.621081 
480.283379  	76.077691 
481.247804  	76.094697 
482.212228  	76.461045 
483.176652  	76.621317 
484.141077  	77.149275 
485.105501  	76.029227 
486.069926  	74.764470 
487.034350  	75.360054 
487.998775  	75.924365 
488.963199  	75.721572 
489.927624  	75.780766 
490.892048  	75.619324 
491.856473  	75.250802 
492.820897  	74.884135 
493.785321  	74.788985 
494.749746  	74.613024 
495.714170  	74.366790 
496.678595  	74.400174 
497.643019  	74.450482 
498.607444  	74.452250 
499.571868  	74.241023 
500.536293  	73.929115 
501.500717  	73.904733 
502.465142  	73.503434 
503.429566  	73.946274 
504.393990  	74.284816 
505.358415  	73.723278 
506.322839  	73.012233 
507.287264  	72.908871 
508.251688  	73.079551 
509.216113  	73.262349 
510.180537  	72.657992 
511.144962  	72.558846 
512.109386  	72.840370 
513.073811  	72.687944 
514.038235  	72.475219 
515.002660  	71.917127 
515.967084  	71.531396 
516.931508  	71.950853 
517.895933  	72.191505 
518.860357  	71.736707 
519.824782  	71.423586 
520.789206  	71.272854 
521.753631  	71.384383 
522.718055  	71.291107 
523.682480  	71.093955 
524.646904  	71.008964 
525.611329  	70.549541 
526.575753  	70.018706 
527.540177  	69.959276 
528.504602  	69.632164 
529.469026  	69.199636 
530.433451  	68.762177 
531.397875  	68.616835 
532.362300  	68.623361 
533.326724  	68.787951 
534.291149  	68.703620 
535.255573  	68.830904 
536.219998  	69.335936 
537.184422  	69.991132 
538.148846  	70.337906 
539.113271  	70.511736 
540.077695  	71.134985 
541.042120  	71.456886 
542.006544  	71.602438 
542.970969  	71.650960 
543.935393  	71.717589 
544.899818  	71.458671 
545.864242  	71.425505 
546.828667  	71.387398 
547.793091  	71.290559 
548.757515  	71.101957 
549.721940  	70.956844 
550.686364  	70.961154 
551.650789  	70.883783 
552.615213  	70.442646 
553.579638  	70.400196 
554.544062  	70.200679 
555.508487  	69.885464 
556.472911  	69.541726 
557.437336  	69.162899 
558.401760  	68.690055 
559.366184  	68.516601 
560.330609  	68.132228 
561.295033  	67.649552 
562.259458  	67.317180 
563.223882  	66.637156 
564.188307  	65.895364 
565.152731  	65.722167 
566.117156  	65.240384 
567.081580  	64.467510 
568.046005  	63.845114 
569.010429  	63.173376 
569.974853  	62.591757 
570.939278  	62.069497 
571.903702  	61.357605 
572.868127  	60.579890 
573.832551  	60.116186 
574.796976  	59.918915 
575.761400  	59.459793 
576.725825  	59.485479 
577.690249  	59.522363 
578.654674  	59.806890 
579.619098  	60.274795 
580.583523  	60.759190 
581.547947  	61.785262 
582.512371  	62.834634 
583.476796  	63.636334 
584.441220  	64.623310 
585.405645  	65.633591 
586.370069  	66.720379 
587.334494  	67.597663 
588.298918  	68.276905 
589.263343  	68.808092 
590.227767  	69.275580 
591.192192  	69.604913 
592.156616  	69.964465 
593.121040  	70.571150 
594.085465  	71.071921 
595.049889  	71.225083 
596.014314  	71.361574 
596.978738  	71.486764 
597.943163  	71.749304 
598.907587  	72.058016 
599.872012  	72.136256 
600.836436  	72.272748 
601.800861  	72.541212 
602.765285  	72.784548 
603.729709  	72.926337 
604.694134  	72.956220 
605.658558  	73.016778 
606.622983  	73.046127 
607.587407  	72.968469 
608.551832  	73.069115 
609.516256  	73.295036 
610.480681  	73.356749 
611.445105  	73.293719 
612.409530  	73.594432 
613.373954  	73.752032 
614.338378  	73.390018 
615.302803  	73.344701 
616.267227  	73.184099 
617.231652  	73.274770 
618.196076  	73.443609 
619.160501  	73.247723 
620.124925  	73.101401 
621.089350  	73.217819 
622.053774  	73.331405 
623.018199  	73.257487 
623.982623  	73.123486 
624.947047  	73.180397 
625.911472  	73.358261 
626.875896  	73.313077 
627.840321  	73.181982 
628.804745  	73.223456 
629.769170  	73.256346 
630.733594  	73.010494 
631.698019  	73.057452 
632.662443  	73.253812 
633.626868  	73.151454 
634.591292  	73.030967 
635.555717  	72.755843 
636.520141  	72.880605 
637.484565  	72.925401 
638.448990  	72.835238 
639.413414  	72.690659 
640.377839  	72.602654 
641.342263  	72.539406 
642.306688  	72.318705 
643.271112  	72.206059 
644.235537  	71.982944 
645.199961  	71.629855 
646.164386  	71.500670 
647.128810  	71.378346 
648.093234  	71.214449 
649.057659  	71.104610 
650.022083  	70.937718 
650.986508  	70.750284 
651.950932  	70.482288 
652.915357  	70.141302 
653.879781  	69.838534 
654.844206  	69.612044 
655.808630  	69.337853 
656.773055  	69.025416 
657.737479  	68.834741 
658.701903  	68.506099 
659.666328  	68.175384 
660.630752  	67.802929 
661.595177  	67.509544 
662.559601  	67.281442 
663.524026  	67.028989 
664.488450  	66.765043 
665.452875  	66.381269 
666.417299  	65.987061 
667.381724  	65.580880 
668.346148  	65.446782 
669.310572  	65.267424 
670.274997  	64.877317 
671.239421  	64.517080 
672.203846  	64.297474 
673.168270  	64.066766 
674.132695  	63.587081 
675.097119  	63.283071 
676.061544  	63.191283 
677.025968  	62.979849 
677.990393  	62.716967 
678.954817  	62.531519 
679.919241  	62.313485 
680.883666  	62.222738 
681.848090  	62.296953 
682.812515  	62.419436 
683.776939  	62.315269 
684.741364  	62.261154 
685.705788  	62.201637 
686.670213  	62.370756 
687.634637  	62.698809 
688.599062  	63.030713 
689.563486  	63.379082 
690.527910  	63.762882 
691.492335  	64.166123 
692.456759  	64.628958 
693.421184  	65.151692 
694.385608  	65.871972 
695.350033  	66.430060 
696.314457  	66.841832 
697.278882  	67.301970 
698.243306  	67.765698 
699.207731  	68.219989 
700.172155  	68.631643 
701.136580  	68.982535 
702.101004  	69.436367 
703.065428  	69.892008 
704.029853  	70.160175 
704.994277  	70.323726 
705.958702  	70.673175 
706.923126  	70.910330 
707.887551  	71.219564 
708.851975  	71.566511 
709.816400  	71.700130 
710.780824  	71.828493 
711.745249  	71.930033 
712.709673  	72.123004 
713.674097  	72.284125 
714.638522  	72.403921 
715.602946  	72.414298 
716.567371  	72.381670 
717.531795  	72.467249 
718.496220  	72.583370 
719.460644  	72.616408 
720.425069  	72.690530 
721.389493  	72.697782 
722.353918  	72.640200 
723.318342  	72.592133 
724.282766  	72.558167 
725.247191  	72.522601 
726.211615  	72.470836 
727.176040  	72.388793 
728.140464  	72.335742 
729.104889  	72.412458 
730.069313  	72.647563 
731.033738  	73.143148 
731.998162  	73.837085 
732.962587  	74.563784 
733.927011  	75.287172 
734.891435  	76.064568 
735.855860  	76.892228 
736.820284  	77.713826 
737.784709  	78.486927 
738.749133  	79.088008 
739.713558  	79.572100 
740.677982  	80.029489 
741.642407  	80.481860 
742.606831  	80.824152 
743.571256  	81.047645 
744.535680  	81.195084 
745.500104  	81.412056 
746.464529  	81.632099 
747.428953  	81.717784 
748.393378  	81.816293 
749.357802  	81.880643 
750.322227  	81.943598 
751.286651  	82.009931 
752.251076  	82.132970 
753.215500  	82.333110 
754.179925  	82.407265 
755.144349  	82.471905 
756.108774  	82.651421 
757.073198  	82.867242 
758.037622  	82.953814 
759.002047  	82.907121 
759.966471  	83.072810 
760.930896  	83.259736 
761.895320  	83.355653 
762.859745  	83.585312 
763.824169  	83.735791 
764.788594  	83.859292 
765.753018  	83.964203 
766.717443  	84.032452 
767.681867  	84.109975 
768.646291  	84.268969 
769.610716  	84.450619 
770.575140  	84.525902 
771.539565  	84.619950 
772.503989  	84.724915 
773.468414  	84.849456 
774.432838  	84.969095 
775.397263  	85.128616 
776.361687  	85.344185 
777.326112  	85.338327 
778.290536  	85.465047 
779.254960  	85.676380 
780.219385  	85.954878 
781.183809  	86.013505 
782.148234  	85.967922 
783.112658  	86.138274 
784.077083  	86.298955 
785.041507  	86.378864 
786.005932  	86.354100 
786.970356  	86.455024 
787.934781  	86.376106 
788.899205  	86.480358 
789.863629  	86.649305 
790.828054  	86.650839 
791.792478  	86.568752 
792.756903  	86.648489 
793.721327  	86.690497 
794.685752  	86.642686 
795.650176  	86.668483 
796.614601  	86.818752 
797.579025  	86.990383 
798.543450  	86.989833 
799.507874  	87.032443 
800.472298  	87.310035 
801.436723  	87.470310 
802.401147  	87.565282 
803.365572  	87.714926 
804.329996  	87.919847 
805.294421  	88.031233 
806.258845  	88.130442 
807.223270  	88.200590 
808.187694  	88.217761 
809.152119  	88.307257 
810.116543  	88.443973 
811.080967  	88.467220 
812.045392  	88.498578 
813.009816  	88.600593 
813.974241  	88.765054 
814.938665  	88.906973 
815.903090  	89.053881 
816.867514  	89.064248 
817.831939  	89.122654 
818.796363  	89.267725 
819.760788  	89.374430 
820.725212  	89.452450 
821.689637  	89.500459 
822.654061  	89.560375 
823.618485  	89.658954 
824.582910  	89.652289 
825.547334  	89.619397 
826.511759  	89.642620 
827.476183  	89.749055 
828.440608  	89.860960 
829.405032  	89.849248 
830.369457  	89.928961 
831.333881  	90.075486 
832.298306  	90.156491 
833.262730  	90.099703 
834.227154  	90.062115 
835.191579  	90.175802 
836.156003  	90.256969 
837.120428  	90.314786 
838.084852  	90.270006 
839.049277  	90.232454 
840.013701  	90.283074 
840.978126  	90.329281 
841.942550  	90.423651 
842.906975  	90.511845 
843.871399  	90.490871 
844.835823  	90.434675 
845.800248  	90.495037 
846.764672  	90.591155 
847.729097  	90.719762 
848.693521  	90.697515 
849.657946  	90.679577 
850.622370  	90.697538 
851.586795  	90.692605 
852.551219  	90.671787 
853.515644  	90.726647 
854.480068  	90.799624 
855.444492  	90.818448 
856.408917  	90.812902 
857.373341  	90.868325 
858.337766  	90.955627 
859.302190  	90.956231 
860.266615  	90.940830 
861.231039  	90.931115 
862.195464  	90.938700 
863.159888  	90.989619 
864.124313  	91.045175 
865.088737  	91.087002 
866.053161  	91.089294 
867.017586  	91.031654 
867.982010  	91.031256 
868.946435  	91.118024 
869.910859  	91.143229 
870.875284  	91.097597 
871.839708  	91.050273 
872.804133  	90.979830 
873.768557  	90.984403 
874.732982  	90.938405 
875.697406  	90.890473 
876.661831  	90.885961 
877.626255  	90.936620 
878.590679  	90.949963 
879.555104  	90.915395 
880.519528  	90.914842 
881.483953  	90.898816 
882.448377  	90.859696 
883.412802  	90.868577 
884.377226  	90.891880 
885.341651  	90.887615 
886.306075  	90.843494 
887.270500  	90.805017 
888.234924  	90.817988 
889.199348  	90.754926 
890.163773  	90.699797 
891.128197  	90.692067 
892.092622  	90.643139 
893.057046  	90.508319 
894.021471  	90.458734 
894.985895  	90.503323 
895.950320  	90.356435 
896.914744  	90.150947 
897.879169  	90.028779 
898.843593  	89.841510 
899.808017  	89.583913 
900.772442  	89.308840 
901.736866  	88.938116 
902.701291  	88.582337 
903.665715  	88.247366 
904.630140  	87.914391 
905.594564  	87.704648 
906.558989  	87.728576 
907.523413  	87.982899 
908.487838  	88.361039 
909.452262  	88.703311 
910.416686  	88.972894 
911.381111  	89.150490 
912.345535  	89.168303 
913.309960  	89.116612 
914.274384  	89.064909 
915.238809  	88.996428 
916.203233  	88.878845 
917.167658  	88.713372 
918.132082  	88.564906 
919.096507  	88.451443 
920.060931  	88.343447 
921.025355  	88.187169 
921.989780  	87.933088 
922.954204  	87.617302 
923.918629  	87.295402 
924.883053  	86.957134 
925.847478  	86.579144 
926.811902  	86.070094 
927.776327  	85.515043 
928.740751  	84.966545 
929.705176  	84.276692 
930.669600  	83.428030 
931.634024  	82.611190 
932.598449  	81.905009 
933.562873  	81.321980 
934.527298  	81.055131 
935.491722  	81.218982 
936.456147  	81.898975 
937.420571  	82.945227 
938.384996  	84.030972 
939.349420  	85.044332 
940.313845  	86.001051 
941.278269  	86.814433 
942.242694  	87.448465 
943.207118  	87.959620 
944.171542  	88.335578 
945.135967  	88.666736 
946.100391  	88.927538 
947.064816  	89.106676 
948.029240  	89.280132 
948.993665  	89.456501 
949.958089  	89.558101 
950.922514  	89.663312 
951.886938  	89.829272 
952.851363  	89.923913 
953.815787  	89.953483 
954.780211  	90.055392 
955.744636  	90.183129 
956.709060  	90.235604 
957.673485  	90.251618 
958.637909  	90.293677 
959.602334  	90.330145 
960.566758  	90.375507 
961.531183  	90.410094 
962.495607  	90.450206 
963.460032  	90.532517 
964.424456  	90.575982 
965.388880  	90.553188 
966.353305  	90.554953 
967.317729  	90.601388 
968.282154  	90.638980 
969.246578  	90.640364 
970.211003  	90.644336 
971.175427  	90.619271 
972.139852  	90.594036 
973.104276  	90.593400 
974.068701  	90.593493 
975.033125  	90.585859 
975.997549  	90.575454 
976.961974  	90.539736 
977.926398  	90.516422 
978.890823  	90.485997 
979.855247  	90.419601 
980.819672  	90.326419 
981.784096  	90.270424 
982.748521  	90.256200 
983.712945  	90.134572 
984.677370  	89.944051 
985.641794  	89.822176 
986.606218  	89.748563 
987.570643  	89.716417 
988.535067  	89.696017 
989.499492  	89.727140 
990.463916  	89.717217 
991.428341  	89.659223 
992.392765  	89.573374 
993.357190  	89.490307 
994.321614  	89.457784 
995.286039  	89.421747 
996.250463  	89.377216 
997.214888  	89.320959 
998.179312  	89.289601 
999.143736  	89.225247 
1000.108161  	89.156822 
1001.072585  	89.101939 
1002.037010  	89.082539 
1003.001434  	89.028265 
1003.965859  	88.964342 
1004.930283  	88.926476 
1005.894708  	88.806783 
1006.859132  	88.666500 
1007.823557  	88.547219 
1008.787981  	88.446904 
1009.752405  	88.341114 
1010.716830  	88.245691 
1011.681254  	88.168594 
1012.645679  	88.149431 
1013.610103  	88.112217 
1014.574528  	88.009344 
1015.538952  	87.950931 
1016.503377  	87.963406 
1017.467801  	87.942185 
1018.432226  	87.941416 
1019.396650  	87.960453 
1020.361074  	87.972190 
1021.325499  	87.969710 
1022.289923  	87.949515 
1023.254348  	87.903272 
1024.218772  	87.804882 
1025.183197  	87.745140 
1026.147621  	87.728197 
1027.112046  	87.653838 
1028.076470  	87.564946 
1029.040895  	87.487395 
1030.005319  	87.389390 
1030.969743  	87.294696 
1031.934168  	87.257219 
1032.898592  	87.226454 
1033.863017  	87.124301 
1034.827441  	86.982861 
1035.791866  	86.896206 
1036.756290  	86.839887 
1037.720715  	86.766295 
1038.685139  	86.667108 
1039.649564  	86.666957 
1040.613988  	86.668625 
1041.578412  	86.630515 
1042.542837  	86.669714 
1043.507261  	86.739290 
1044.471686  	86.791148 
1045.436110  	86.858756 
1046.400535  	86.969727 
1047.364959  	87.064332 
1048.329384  	87.097479 
1049.293808  	87.156024 
1050.258233  	87.283766 
1051.222657  	87.378666 
1052.187081  	87.361182 
1053.151506  	87.327864 
1054.115930  	87.341472 
1055.080355  	87.358204 
1056.044779  	87.324274 
1057.009204  	87.223918 
1057.973628  	87.165607 
1058.938053  	87.126408 
1059.902477  	87.026672 
1060.866902  	86.898058 
1061.831326  	86.860574 
1062.795751  	86.840133 
1063.760175  	86.776045 
1064.724599  	86.732253 
1065.689024  	86.778702 
1066.653448  	86.891866 
1067.617873  	86.992305 
1068.582297  	87.123529 
1069.546722  	87.295585 
1070.511146  	87.473057 
1071.475571  	87.643256 
1072.439995  	87.783245 
1073.404420  	87.899940 
1074.368844  	87.948970 
1075.333268  	87.909581 
1076.297693  	87.911373 
1077.262117  	87.911048 
1078.226542  	87.899037 
1079.190966  	87.880218 
1080.155391  	87.836537 
1081.119815  	87.796176 
1082.084240  	87.766890 
1083.048664  	87.751919 
1084.013089  	87.710192 
1084.977513  	87.655722 
1085.941937  	87.546678 
1086.906362  	87.391269 
1087.870786  	87.260407 
1088.835211  	87.180477 
1089.799635  	87.106202 
1090.764060  	87.025678 
1091.728484  	86.975853 
1092.692909  	86.942653 
1093.657333  	86.879038 
1094.621758  	86.832075 
1095.586182  	86.854745 
1096.550606  	86.845204 
1097.515031  	86.815638 
1098.479455  	86.816269 
1099.443880  	86.849950 
1100.408304  	86.887277 
1101.372729  	86.865332 
1102.337153  	86.865494 
1103.301578  	86.895717 
1104.266002  	86.895951 
1105.230427  	86.931383 
1106.194851  	86.959928 
1107.159275  	86.953227 
1108.123700  	86.933974 
1109.088124  	86.934089 
1110.052549  	86.911710 
1111.016973  	86.906782 
1111.981398  	86.924945 
1112.945822  	86.942588 
1113.910247  	86.936685 
1114.874671  	86.917737 
1115.839096  	86.883046 
1116.803520  	86.854664 
1117.767945  	86.791711 
1118.732369  	86.716436 
1119.696793  	86.701283 
1120.661218  	86.653451 
1121.625642  	86.523375 
1122.590067  	86.409370 
1123.554491  	86.341220 
1124.518916  	86.219216 
1125.483340  	86.112035 
1126.447765  	86.027181 
1127.412189  	85.909941 
1128.376614  	85.741691 
1129.341038  	85.549767 
1130.305462  	85.360495 
1131.269887  	85.109328 
1132.234311  	84.745824 
1133.198736  	84.313064 
1134.163160  	83.833954 
1135.127585  	83.267488 
1136.092009  	82.686013 
1137.056434  	82.181302 
1138.020858  	81.851889 
1138.985283  	81.676373 
1139.949707  	81.609332 
1140.914131  	81.690362 
1141.878556  	81.822064 
1142.842980  	81.853610 
1143.807405  	81.852450 
1144.771829  	81.880218 
1145.736254  	81.889747 
1146.700678  	81.921974 
1147.665103  	81.988700 
1148.629527  	82.101520 
1149.593952  	82.292191 
1150.558376  	82.504014 
1151.522800  	82.735884 
1152.487225  	82.996985 
1153.451649  	83.274554 
1154.416074  	83.526314 
1155.380498  	83.740554 
1156.344923  	83.934257 
1157.309347  	84.070769 
1158.273772  	84.160359 
1159.238196  	84.169189 
1160.202621  	84.181768 
1161.167045  	84.180578 
1162.131469  	84.079388 
1163.095894  	83.924807 
1164.060318  	83.778881 
1165.024743  	83.599122 
1165.989167  	83.361059 
1166.953592  	83.112572 
1167.918016  	82.848721 
1168.882441  	82.531314 
1169.846865  	82.105540 
1170.811290  	81.621206 
1171.775714  	81.118138 
1172.740138  	80.594248 
1173.704563  	79.979783 
1174.668987  	79.250949 
1175.633412  	78.608225 
1176.597836  	78.063612 
1177.562261  	77.570682 
1178.526685  	77.223023 
1179.491110  	77.088684 
1180.455534  	77.096947 
1181.419959  	77.244236 
1182.384383  	77.483702 
1183.348808  	77.731007 
1184.313232  	77.989309 
1185.277656  	78.142349 
1186.242081  	78.223784 
1187.206505  	78.223565 
1188.170930  	78.047708 
1189.135354  	77.701117 
1190.099779  	77.225013 
1191.064203  	76.676842 
1192.028628  	75.981505 
1192.993052  	75.094992 
1193.957477  	74.137717 
1194.921901  	73.254917 
1195.886325  	72.548768 
1196.850750  	72.139590 
1197.815174  	72.167856 
1198.779599  	72.687041 
1199.744023  	73.619864 
1200.708448  	74.781945 
1201.672872  	76.011910 
1202.637297  	77.200473 
1203.601721  	78.258791 
1204.566146  	79.150682 
1205.530570  	79.872544 
1206.494994  	80.511312 
1207.459419  	81.028806 
1208.423843  	81.394691 
1209.388268  	81.663781 
1210.352692  	81.855873 
1211.317117  	81.929238 
1212.281541  	81.934042 
1213.245966  	81.953227 
1214.210390  	81.975211 
1215.174815  	81.929330 
1216.139239  	81.834949 
1217.103663  	81.767410 
1218.068088  	81.660346 
1219.032512  	81.424881 
1219.996937  	81.138342 
1220.961361  	80.766602 
1221.925786  	80.281450 
1222.890210  	79.780911 
1223.854635  	79.428534 
1224.819059  	79.349142 
1225.783484  	79.539050 
1226.747908  	79.811397 
1227.712332  	79.976182 
1228.676757  	80.014392 
1229.641181  	79.946827 
1230.605606  	79.787940 
1231.570030  	79.587550 
1232.534455  	79.367248 
1233.498879  	79.170858 
1234.463304  	79.003659 
1235.427728  	78.816444 
1236.392153  	78.634980 
1237.356577  	78.513977 
1238.321002  	78.420689 
1239.285426  	78.327431 
1240.249850  	78.211844 
1241.214275  	78.087361 
1242.178699  	77.942442 
1243.143124  	77.805635 
1244.107548  	77.691209 
1245.071973  	77.582233 
1246.036397  	77.441853 
1247.000822  	77.272556 
1247.965246  	77.108238 
1248.929671  	76.953734 
1249.894095  	76.770753 
1250.858519  	76.597284 
1251.822944  	76.413236 
1252.787368  	76.213822 
1253.751793  	76.024417 
1254.716217  	75.821507 
1255.680642  	75.597773 
1256.645066  	75.400513 
1257.609491  	75.155803 
1258.573915  	74.843185 
1259.538340  	74.510001 
1260.502764  	74.180436 
1261.467188  	73.890845 
1262.431613  	73.580565 
1263.396037  	73.256354 
1264.360462  	72.946072 
1265.324886  	72.619556 
1266.289311  	72.295226 
1267.253735  	71.981902 
1268.218160  	71.696990 
1269.182584  	71.422523 
1270.147009  	71.155518 
1271.111433  	70.943968 
1272.075857  	70.770421 
1273.040282  	70.677000 
1274.004706  	70.622952 
1274.969131  	70.693121 
1275.933555  	70.946627 
1276.897980  	71.338301 
1277.862404  	71.867059 
1278.826829  	72.533837 
1279.791253  	73.272265 
1280.755678  	74.029684 
1281.720102  	74.800918 
1282.684526  	75.528339 
1283.648951  	76.169390 
1284.613375  	76.761457 
1285.577800  	77.332751 
1286.542224  	77.838782 
1287.506649  	78.239135 
1288.471073  	78.592911 
1289.435498  	78.942518 
1290.399922  	79.238929 
1291.364347  	79.468891 
1292.328771  	79.671265 
1293.293195  	79.832585 
1294.257620  	79.943576 
1295.222044  	80.016925 
1296.186469  	80.059469 
1297.150893  	80.099273 
1298.115318  	80.173106 
1299.079742  	80.160378 
1300.044167  	80.128802 
1301.008591  	80.105734 
1301.973016  	80.114070 
1302.937440  	80.173528 
1303.901865  	80.287561 
1304.866289  	80.441261 
1305.830713  	80.573157 
1306.795138  	80.693762 
1307.759562  	80.821697 
1308.723987  	80.992032 
1309.688411  	81.176871 
1310.652836  	81.304429 
1311.617260  	81.380748 
1312.581685  	81.378166 
1313.546109  	81.516108 
1314.510534  	81.655648 
1315.474958  	81.761521 
1316.439382  	81.791457 
1317.403807  	81.776187 
1318.368231  	81.771274 
1319.332656  	81.727291 
1320.297080  	81.800180 
1321.261505  	81.831380 
1322.225929  	81.820105 
1323.190354  	81.721287 
1324.154778  	81.632925 
1325.119203  	81.529694 
1326.083627  	81.413129 
1327.048051  	81.327784 
1328.012476  	81.272204 
1328.976900  	81.215512 
1329.941325  	81.174562 
1330.905749  	81.201613 
1331.870174  	81.260595 
1332.834598  	81.232334 
1333.799023  	81.174669 
1334.763447  	81.090348 
1335.727872  	80.900314 
1336.692296  	80.631578 
1337.656720  	80.475651 
1338.621145  	80.145237 
1339.585569  	79.841671 
1340.549994  	79.820039 
1341.514418  	80.102623 
1342.478843  	80.168967 
1343.443267  	80.019214 
1344.407692  	79.847786 
1345.372116  	79.718164 
1346.336541  	79.544770 
1347.300965  	79.334591 
1348.265389  	79.111364 
1349.229814  	78.868545 
1350.194238  	78.660605 
1351.158663  	78.478269 
1352.123087  	78.226907 
1353.087512  	77.986572 
1354.051936  	77.712448 
1355.016361  	77.393323 
1355.980785  	77.232648 
1356.945210  	77.034364 
1357.909634  	76.756565 
1358.874059  	76.533287 
1359.838483  	76.286180 
1360.802907  	75.840947 
1361.767332  	75.428856 
1362.731756  	74.929833 
1363.696181  	74.760327 
1364.660605  	74.933930 
1365.625030  	74.787448 
1366.589454  	74.548231 
1367.553879  	74.217907 
1368.518303  	73.834281 
1369.482728  	73.706825 
1370.447152  	73.785095 
1371.411576  	73.837308 
1372.376001  	73.903054 
1373.340425  	73.894544 
1374.304850  	74.191327 
1375.269274  	74.831748 
1376.233699  	75.556237 
1377.198123  	75.994602 
1378.162548  	76.335325 
1379.126972  	76.760774 
1380.091397  	77.161950 
1381.055821  	77.545823 
1382.020245  	77.829428 
1382.984670  	78.062761 
1383.949094  	78.266149 
1384.913519  	78.454403 
1385.877943  	78.489030 
1386.842368  	78.315298 
1387.806792  	78.563338 
1388.771217  	79.213791 
1389.735641  	79.567438 
1390.700066  	79.825165 
1391.664490  	80.081528 
1392.628914  	80.328392 
1393.593339  	80.301181 
1394.557763  	80.116835 
1395.522188  	80.320646 
1396.486612  	80.698752 
1397.451037  	80.749595 
1398.415461  	80.545715 
1399.379886  	80.536724 
1400.344310  	80.828638 
1401.308735  	80.870307 
1402.273159  	80.708310 
1403.237583  	80.415897 
1404.202008  	79.933347 
1405.166432  	79.350048 
1406.130857  	79.135344 
1407.095281  	78.761067 
1408.059706  	78.058897 
1409.024130  	77.146684 
1409.988555  	76.010694 
1410.952979  	74.684416 
1411.917404  	73.134776 
1412.881828  	71.560539 
1413.846252  	69.897407 
1414.810677  	68.400100 
1415.775101  	67.364541 
1416.739526  	67.163729 
1417.703950  	67.963947 
1418.668375  	68.921843 
1419.632799  	70.991047 
1420.597224  	73.189958 
1421.561648  	74.022981 
1422.526073  	74.738972 
1423.490497  	74.979511 
1424.454922  	75.531413 
1425.419346  	76.261752 
1426.383770  	76.617049 
1427.348195  	76.733310 
1428.312619  	76.645605 
1429.277044  	76.385447 
1430.241468  	76.164862 
1431.205893  	76.138783 
1432.170317  	75.895452 
1433.134742  	75.623002 
1434.099166  	75.466313 
1435.063591  	75.152991 
1436.028015  	74.474576 
1436.992439  	74.282196 
1437.956864  	74.871684 
1438.921288  	75.044648 
1439.885713  	75.129147 
1440.850137  	75.206326 
1441.814562  	75.293158 
1442.778986  	75.376093 
1443.743411  	75.426848 
1444.707835  	75.491378 
1445.672260  	75.497189 
1446.636684  	75.378300 
1447.601108  	75.066881 
1448.565533  	75.053582 
1449.529957  	75.164401 
1450.494382  	74.946921 
1451.458806  	74.458874 
1452.423231  	73.948699 
1453.387655  	73.664838 
1454.352080  	73.108030 
1455.316504  	72.336145 
1456.280929  	71.574024 
1457.245353  	70.932911 
1458.209777  	70.465409 
1459.174202  	70.163486 
1460.138626  	69.822599 
1461.103051  	69.213119 
1462.067475  	68.280923 
1463.031900  	67.416539 
1463.996324  	66.560127 
1464.960749  	66.301803 
1465.925173  	67.442725 
1466.889598  	68.568426 
1467.854022  	69.768825 
1468.818446  	70.746013 
1469.782871  	71.133006 
1470.747295  	70.761926 
1471.711720  	69.592272 
1472.676144  	68.187697 
1473.640569  	67.669121 
1474.604993  	67.758547 
1475.569418  	67.671428 
1476.533842  	68.407870 
1477.498267  	69.933652 
1478.462691  	71.197915 
1479.427116  	72.601271 
1480.391540  	73.917876 
1481.355964  	75.177049 
1482.320389  	76.699583 
1483.284813  	77.738387 
1484.249238  	78.493764 
1485.213662  	78.833295 
1486.178087  	78.838909 
1487.142511  	78.644277 
1488.106936  	78.760049 
1489.071360  	78.336851 
1490.035785  	77.701040 
1491.000209  	77.941904 
1491.964633  	78.325976 
1492.929058  	78.215691 
1493.893482  	77.856287 
1494.857907  	77.336547 
1495.822331  	76.592819 
1496.786756  	76.058507 
1497.751180  	75.871435 
1498.715605  	75.271001 
1499.680029  	75.019346 
1500.644454  	74.738315 
1501.608878  	74.148744 
1502.573302  	73.615206 
1503.537727  	73.117879 
1504.502151  	72.311259 
1505.466576  	71.040918 
1506.431000  	69.018599 
1507.395425  	68.228576 
1508.359849  	68.309124 
1509.324274  	68.089234 
1510.288698  	67.707471 
1511.253123  	67.279846 
1512.217547  	66.391339 
1513.181971  	65.710985 
1514.146396  	64.975858 
1515.110820  	63.837627 
1516.075245  	62.624548 
1517.039669  	61.296562 
1518.004094  	60.757389 
1518.968518  	60.191337 
1519.932943  	58.922518 
1520.897367  	57.011974 
1521.861792  	56.113940 
1522.826216  	55.566482 
1523.790640  	54.977898 
1524.755065  	53.939760 
1525.719489  	52.805629 
1526.683914  	51.998158 
1527.648338  	51.107033 
1528.612763  	50.394333 
1529.577187  	50.016449 
1530.541612  	49.523885 
1531.506036  	48.955657 
1532.470461  	48.495711 
1533.434885  	48.140971 
1534.399309  	48.903634 
1535.363734  	49.393221 
1536.328158  	49.850308 
1537.292583  	50.244750 
1538.257007  	50.098855 
1539.221432  	49.766752 
1540.185856  	51.572335 
1541.150281  	52.561049 
1542.114705  	53.186764 
1543.079130  	54.509783 
1544.043554  	55.014907 
1545.007979  	55.656124 
1545.972403  	57.191614 
1546.936827  	58.178648 
1547.901252  	58.866676 
1548.865676  	59.317195 
1549.830101  	59.498286 
1550.794525  	60.733362 
1551.758950  	61.686177 
1552.723374  	62.201807 
1553.687799  	62.302018 
1554.652223  	63.030344 
1555.616648  	64.135660 
1556.581072  	64.369320 
1557.545496  	64.048150 
1558.509921  	63.693144 
1559.474345  	64.250326 
1560.438770  	66.745625 
1561.403194  	68.114633 
1562.367619  	68.729937 
1563.332043  	69.329721 
1564.296468  	69.738441 
1565.260892  	70.456190 
1566.225317  	71.396136 
1567.189741  	71.992396 
1568.154165  	72.326755 
1569.118590  	72.220836 
1570.083014  	73.285679 
1571.047439  	74.452985 
1572.011863  	75.008070 
1572.976288  	75.491788 
1573.940712  	75.967362 
1574.905137  	76.112314 
1575.869561  	75.991725 
1576.833986  	76.735876 
1577.798410  	77.509976 
1578.762834  	77.983175 
1579.727259  	78.371999 
1580.691683  	78.636830 
1581.656108  	78.882539 
1582.620532  	79.034429 
1583.584957  	79.173620 
1584.549381  	79.260627 
1585.513806  	79.327378 
1586.478230  	79.282139 
1587.442655  	79.266302 
1588.407079  	79.160151 
1589.371503  	78.988300 
1590.335928  	78.775690 
1591.300352  	78.570729 
1592.264777  	78.243741 
1593.229201  	77.899087 
1594.193626  	77.366838 
1595.158050  	76.930797 
1596.122475  	76.427304 
1597.086899  	75.893329 
1598.051324  	75.234901 
1599.015748  	74.538392 
1599.980173  	73.714386 
1600.944597  	72.807710 
1601.909021  	71.819955 
1602.873446  	70.788887 
1603.837870  	69.687087 
1604.802295  	68.709093 
1605.766719  	67.593150 
1606.731144  	66.504343 
1607.695568  	65.455795 
1608.659993  	64.536206 
1609.624417  	63.404888 
1610.588842  	62.495129 
1611.553266  	61.406858 
1612.517690  	60.215272 
1613.482115  	58.901558 
1614.446539  	57.624690 
1615.410964  	56.143096 
1616.375388  	54.554828 
1617.339813  	53.118209 
1618.304237  	52.466485 
1619.268662  	51.480620 
1620.233086  	50.519799 
1621.197511  	49.499906 
1622.161935  	48.534907 
1623.126359  	47.316974 
1624.090784  	46.795367 
1625.055208  	46.326455 
1626.019633  	45.732881 
1626.984057  	44.917007 
1627.948482  	44.251551 
1628.912906  	43.852754 
1629.877331  	43.544547 
1630.841755  	43.221114 
1631.806180  	43.197452 
1632.770604  	43.344234 
1633.735028  	43.585418 
1634.699453  	43.281765 
1635.663877  	44.349592 
1636.628302  	46.173266 
1637.592726  	47.152216 
1638.557151  	48.719573 
1639.521575  	49.906280 
1640.486000  	51.166530 
1641.450424  	52.626965 
1642.414849  	53.977398 
1643.379273  	55.421720 
1644.343697  	56.608670 
1645.308122  	57.321265 
1646.272546  	58.551203 
1647.236971  	60.174918 
1648.201395  	61.825025 
1649.165820  	63.770881 
1650.130244  	64.932406 
1651.094669  	65.794056 
1652.059093  	65.867295 
1653.023518  	65.801485 
1653.987942  	68.712206 
1654.952366  	70.719803 
1655.916791  	71.994721 
1656.881215  	72.988032 
1657.845640  	74.101652 
1658.810064  	75.183269 
1659.774489  	76.169436 
1660.738913  	77.040463 
1661.703338  	77.725951 
1662.667762  	78.461940 
1663.632187  	79.941916 
1664.596611  	81.000775 
1665.561036  	81.879121 
1666.525460  	82.780201 
1667.489884  	83.366109 
1668.454309  	83.475407 
1669.418733  	84.080418 
1670.383158  	85.286731 
1671.347582  	85.748625 
1672.312007  	86.597979 
1673.276431  	87.365916 
1674.240856  	87.621274 
1675.205280  	87.665224 
1676.169705  	88.587297 
1677.134129  	89.329284 
1678.098553  	89.789661 
1679.062978  	90.040146 
1680.027402  	89.913639 
1680.991827  	90.401191 
1681.956251  	90.985965 
1682.920676  	90.848608 
1683.885100  	89.828006 
1684.849525  	90.360157 
1685.813949  	91.949100 
1686.778374  	92.452563 
1687.742798  	92.471207 
1688.707222  	92.476384 
1689.671647  	92.709310 
1690.636071  	92.897841 
1691.600496  	93.250279 
1692.564920  	93.349230 
1693.529345  	93.347548 
1694.493769  	93.187636 
1695.458194  	92.710493 
1696.422618  	92.353068 
1697.387043  	92.771190 
1698.351467  	92.987642 
1699.315891  	92.839232 
1700.280316  	92.000750 
1701.244740  	92.554963 
1702.209165  	93.160964 
1703.173589  	93.324878 
1704.138014  	93.094264 
1705.102438  	92.949733 
1706.066863  	92.979284 
1707.031287  	93.024631 
1707.995712  	93.394953 
1708.960136  	93.532544 
1709.924560  	93.334491 
1710.888985  	93.293027 
1711.853409  	93.470415 
1712.817834  	93.336369 
1713.782258  	92.950381 
1714.746683  	92.443142 
1715.711107  	92.468182 
1716.675532  	92.529775 
1717.639956  	91.914386 
1718.604381  	91.764236 
1719.568805  	92.678055 
1720.533230  	93.062640 
1721.497654  	93.090251 
1722.462078  	93.014072 
1723.426503  	92.855562 
1724.390927  	92.846314 
1725.355352  	92.961435 
1726.319776  	92.950692 
1727.284201  	92.940309 
1728.248625  	92.912246 
1729.213050  	92.636987 
1730.177474  	92.158233 
1731.141899  	92.455505 
1732.106323  	92.535610 
1733.070747  	92.080464 
1734.035172  	91.260340 
1734.999596  	92.006368 
1735.964021  	92.771772 
1736.928445  	92.994790 
1737.892870  	93.021638 
1738.857294  	92.959973 
1739.821719  	92.744797 
1740.786143  	93.143710 
1741.750568  	93.473270 
1742.714992  	93.311408 
1743.679416  	93.010865 
1744.643841  	93.400271 
1745.608265  	93.696518 
1746.572690  	93.708306 
1747.537114  	93.563174 
1748.501539  	93.420894 
1749.465963  	93.545871 
1750.430388  	93.741617 
1751.394812  	93.440877 
1752.359237  	93.946650 
1753.323661  	94.455576 
1754.288085  	94.695194 
1755.252510  	94.699973 
1756.216934  	94.412567 
1757.181359  	94.151602 
1758.145783  	94.438270 
1759.110208  	94.659376 
1760.074632  	94.780284 
1761.039057  	94.559050 
1762.003481  	94.215247 
1762.967906  	94.578860 
1763.932330  	94.876740 
1764.896754  	94.950175 
1765.861179  	94.983729 
1766.825603  	94.912645 
1767.790028  	94.529206 
1768.754452  	94.383255 
1769.718877  	94.800493 
1770.683301  	94.723196 
1771.647726  	94.300624 
1772.612150  	94.063126 
1773.576575  	94.541127 
1774.540999  	94.875868 
1775.505423  	94.808054 
1776.469848  	94.892163 
1777.434272  	95.099748 
1778.398697  	94.998400 
1779.363121  	94.884125 
1780.327546  	94.715894 
1781.291970  	94.691106 
1782.256395  	94.982569 
1783.220819  	95.141494 
1784.185244  	94.959789 
1785.149668  	94.767871 
1786.114093  	94.997952 
1787.078517  	95.157491 
1788.042941  	95.155021 
1789.007366  	95.135304 
1789.971790  	94.983504 
1790.936215  	94.598434 
1791.900639  	94.370055 
1792.865064  	94.380811 
1793.829488  	94.788410 
1794.793913  	95.016084 
1795.758337  	94.805935 
1796.722762  	94.812393 
1797.687186  	95.079137 
1798.651610  	95.093894 
1799.616035  	94.877767 
1800.580459  	94.897120 
1801.544884  	94.795601 
1802.509308  	94.700844 
1803.473733  	94.994853 
1804.438157  	95.238528 
1805.402582  	95.228635 
1806.367006  	95.168293 
1807.331431  	95.041114 
1808.295855  	95.039019 
1809.260279  	95.182373 
1810.224704  	94.995230 
1811.189128  	94.795799 
1812.153553  	95.029168 
1813.117977  	95.220229 
1814.082402  	95.322324 
1815.046826  	95.315293 
1816.011251  	95.349513 
1816.975675  	95.256017 
1817.940100  	95.133440 
1818.904524  	95.205666 
1819.868948  	95.276146 
1820.833373  	95.193043 
1821.797797  	95.138446 
1822.762222  	95.071391 
1823.726646  	95.104551 
1824.691071  	94.861706 
1825.655495  	94.586074 
1826.619920  	94.962568 
1827.584344  	95.137369 
1828.548769  	94.957969 
1829.513193  	94.518947 
1830.477617  	94.586949 
1831.442042  	95.121071 
1832.406466  	95.230099 
1833.370891  	95.162448 
1834.335315  	95.212521 
1835.299740  	95.252138 
1836.264164  	95.153750 
1837.228589  	94.945040 
1838.193013  	95.018397 
1839.157438  	95.163471 
1840.121862  	95.211078 
1841.086287  	95.203758 
1842.050711  	95.013527 
1843.015135  	94.879104 
1843.979560  	94.620882 
1844.943984  	94.612735 
1845.908409  	94.915171 
1846.872833  	95.032387 
1847.837258  	94.813780 
1848.801682  	94.904004 
1849.766107  	95.132180 
1850.730531  	95.300287 
1851.694956  	95.308049 
1852.659380  	95.267841 
1853.623804  	95.246115 
1854.588229  	95.210180 
1855.552653  	95.205297 
1856.517078  	95.213916 
1857.481502  	95.222394 
1858.445927  	95.222793 
1859.410351  	95.155512 
1860.374776  	95.169652 
1861.339200  	95.104681 
1862.303625  	95.108772 
1863.268049  	95.123921 
1864.232473  	95.070424 
1865.196898  	95.059369 
1866.161322  	94.965917 
1867.125747  	94.863848 
1868.090171  	94.653538 
1869.054596  	94.524878 
1870.019020  	94.722528 
1870.983445  	94.944152 
1871.947869  	95.184473 
1872.912294  	95.296619 
1873.876718  	95.251652 
1874.841142  	95.215974 
1875.805567  	95.235327 
1876.769991  	95.207222 
1877.734416  	95.248383 
1878.698840  	95.177182 
1879.663265  	95.091732 
1880.627689  	95.081827 
1881.592114  	95.139008 
1882.556538  	95.117822 
1883.520963  	95.132330 
1884.485387  	95.089100 
1885.449811  	95.063857 
1886.414236  	95.233822 
1887.378660  	95.274509 
1888.343085  	95.052380 
1889.307509  	94.722019 
1890.271934  	94.707983 
1891.236358  	94.958931 
1892.200783  	95.063574 
1893.165207  	95.151692 
1894.129632  	95.098400 
1895.094056  	94.940877 
1896.058480  	94.998215 
1897.022905  	95.175608 
1897.987329  	95.175987 
1898.951754  	95.157617 
1899.916178  	95.159594 
1900.880603  	95.140513 
1901.845027  	95.038434 
1902.809452  	95.079305 
1903.773876  	95.181473 
1904.738301  	95.258860 
1905.702725  	95.140307 
1906.667150  	95.058742 
1907.631574  	94.979758 
1908.595998  	94.956744 
1909.560423  	94.910677 
1910.524847  	95.034994 
1911.489272  	95.224536 
1912.453696  	95.200669 
1913.418121  	95.109349 
1914.382545  	95.062293 
1915.346970  	95.145820 
1916.311394  	95.214190 
1917.275819  	94.965065 
1918.240243  	94.699638 
1919.204667  	94.978959 
1920.169092  	95.134587 
1921.133516  	95.079049 
1922.097941  	94.948460 
1923.062365  	94.818512 
1924.026790  	95.222816 
1924.991214  	95.435511 
1925.955639  	95.335367 
1926.920063  	95.246723 
1927.884488  	95.274014 
1928.848912  	95.231152 
1929.813336  	95.241817 
1930.777761  	95.266577 
1931.742185  	95.291897 
1932.706610  	95.334463 
1933.671034  	95.474306 
1934.635459  	95.421107 
1935.599883  	95.459681 
1936.564308  	95.474123 
1937.528732  	95.383919 
1938.493157  	95.385652 
1939.457581  	95.591637 
1940.422005  	95.530541 
1941.386430  	95.220811 
1942.350854  	94.920184 
1943.315279  	95.109697 
1944.279703  	95.317921 
1945.244128  	95.216737 
1946.208552  	95.242842 
1947.172977  	95.324242 
1948.137401  	95.263775 
1949.101826  	95.414980 
1950.066250  	95.682732 
1951.030674  	95.782997 
1951.995099  	95.531732 
1952.959523  	95.419086 
1953.923948  	95.238359 
1954.888372  	95.223972 
1955.852797  	95.507203 
1956.817221  	95.795300 
1957.781646  	95.843461 
1958.746070  	95.666743 
1959.710495  	95.550250 
1960.674919  	95.549045 
1961.639344  	95.380729 
1962.603768  	95.199378 
1963.568192  	95.349487 
1964.532617  	95.739399 
1965.497041  	95.717442 
1966.461466  	95.591071 
1967.425890  	95.677360 
1968.390315  	95.972379 
1969.354739  	95.736082 
1970.319164  	95.555095 
1971.283588  	95.684513 
1972.248013  	95.461621 
1973.212437  	95.216553 
1974.176861  	95.550855 
1975.141286  	95.880575 
1976.105710  	95.920153 
1977.070135  	95.843137 
1978.034559  	95.744426 
1978.998984  	94.999030 
1979.963408  	94.676366 
1980.927833  	94.632868 
1981.892257  	94.855054 
1982.856682  	95.041152 
1983.821106  	95.150574 
1984.785530  	95.221507 
1985.749955  	95.298614 
1986.714379  	95.488352 
1987.678804  	95.362072 
1988.643228  	95.028147 
1989.607653  	95.167401 
1990.572077  	95.293446 
1991.536502  	95.317652 
1992.500926  	95.225835 
1993.465351  	95.386456 
1994.429775  	95.447066 
1995.394199  	95.364360 
1996.358624  	95.133864 
1997.323048  	94.954252 
1998.287473  	94.902009 
1999.251897  	95.059540 
2000.216322  	95.339175 
2001.180746  	95.807956 
2002.145171  	95.848143 
2003.109595  	95.774407 
2004.074020  	95.733953 
2005.038444  	95.881856 
2006.002868  	95.790654 
2006.967293  	95.679303 
2007.931717  	95.412831 
2008.896142  	95.471607 
2009.860566  	95.471809 
2010.824991  	95.544253 
2011.789415  	95.513491 
2012.753840  	95.515812 
2013.718264  	95.374419 
2014.682689  	95.386051 
2015.647113  	95.615482 
2016.611537  	95.573939 
2017.575962  	95.238761 
2018.540386  	95.408760 
2019.504811  	95.639655 
2020.469235  	95.856314 
2021.433660  	95.921957 
2022.398084  	95.798526 
2023.362509  	95.654289 
2024.326933  	95.712317 
2025.291358  	95.530927 
2026.255782  	95.351695 
2027.220207  	95.409646 
2028.184631  	95.682309 
2029.149055  	96.087171 
2030.113480  	96.176493 
2031.077904  	95.884603 
2032.042329  	95.625856 
2033.006753  	95.347140 
2033.971178  	95.376780 
2034.935602  	95.550180 
2035.900027  	95.462845 
2036.864451  	95.087097 
2037.828876  	95.216773 
2038.793300  	95.438099 
2039.757724  	95.260587 
2040.722149  	95.024965 
2041.686573  	95.107965 
2042.650998  	95.058596 
2043.615422  	94.737604 
2044.579847  	94.810738 
2045.544271  	95.156045 
2046.508696  	95.235965 
2047.473120  	95.293366 
2048.437545  	95.312135 
2049.401969  	95.170977 
2050.366393  	94.871640 
2051.330818  	94.805535 
2052.295242  	95.015708 
2053.259667  	95.433633 
2054.224091  	95.299719 
2055.188516  	94.847260 
2056.152940  	94.838512 
2057.117365  	94.888325 
2058.081789  	94.851862 
2059.046214  	94.962829 
2060.010638  	94.834779 
2060.975062  	94.755252 
2061.939487  	94.845023 
2062.903911  	94.882508 
2063.868336  	94.866527 
2064.832760  	94.864006 
2065.797185  	94.870269 
2066.761609  	94.934394 
2067.726034  	95.010839 
2068.690458  	95.073006 
2069.654883  	95.001101 
2070.619307  	94.992679 
2071.583731  	94.975656 
2072.548156  	94.844852 
2073.512580  	94.780249 
2074.477005  	94.732092 
2075.441429  	94.704529 
2076.405854  	94.665465 
2077.370278  	94.633854 
2078.334703  	94.764502 
2079.299127  	94.820502 
2080.263552  	94.746198 
2081.227976  	94.730079 
2082.192401  	94.742626 
2083.156825  	94.633388 
2084.121249  	94.664174 
2085.085674  	94.823130 
2086.050098  	94.981841 
2087.014523  	94.985343 
2087.978947  	94.883999 
2088.943372  	94.798209 
2089.907796  	94.748112 
2090.872221  	94.761444 
2091.836645  	95.026262 
2092.801070  	95.076047 
2093.765494  	95.042672 
2094.729918  	95.111789 
2095.694343  	95.016681 
2096.658767  	94.739759 
2097.623192  	94.700038 
2098.587616  	94.668111 
2099.552041  	94.706978 
2100.516465  	94.766470 
2101.480890  	94.989548 
2102.445314  	94.974525 
2103.409739  	94.899035 
2104.374163  	94.776993 
2105.338587  	94.734298 
2106.303012  	94.775197 
2107.267436  	94.871867 
2108.231861  	94.750552 
2109.196285  	94.612989 
2110.160710  	94.790446 
2111.125134  	95.065572 
2112.089559  	94.931865 
2113.053983  	94.761266 
2114.018408  	94.788075 
2114.982832  	94.842206 
2115.947256  	94.750765 
2116.911681  	94.798714 
2117.876105  	94.918805 
2118.840530  	94.947081 
2119.804954  	94.987308 
2120.769379  	94.979794 
2121.733803  	94.877279 
2122.698228  	94.966967 
2123.662652  	95.043237 
2124.627077  	94.936778 
2125.591501  	94.886156 
2126.555925  	95.078148 
2127.520350  	95.162676 
2128.484774  	95.228783 
2129.449199  	95.265314 
2130.413623  	95.202678 
2131.378048  	95.211350 
2132.342472  	95.432218 
2133.306897  	95.459384 
2134.271321  	95.401958 
2135.235746  	95.021547 
2136.200170  	94.820663 
2137.164594  	95.075362 
2138.129019  	95.389941 
2139.093443  	95.438710 
2140.057868  	95.400722 
2141.022292  	95.212205 
2141.986717  	95.175040 
2142.951141  	95.322126 
2143.915566  	95.667836 
2144.879990  	95.389906 
2145.844415  	95.371747 
2146.808839  	95.581442 
2147.773264  	95.714079 
2148.737688  	95.799448 
2149.702112  	95.677907 
2150.666537  	95.404896 
2151.630961  	95.425263 
2152.595386  	95.569015 
2153.559810  	95.673955 
2154.524235  	95.732579 
2155.488659  	95.901343 
2156.453084  	96.130820 
2157.417508  	96.127066 
2158.381933  	95.925672 
2159.346357  	95.270775 
2160.310781  	94.509606 
2161.275206  	94.563191 
2162.239630  	94.832512 
2163.204055  	94.891238 
2164.168479  	94.729316 
2165.132904  	94.670315 
2166.097328  	94.629569 
2167.061753  	94.710285 
2168.026177  	94.803397 
2168.990602  	94.793712 
2169.955026  	94.752102 
2170.919450  	95.092084 
2171.883875  	95.215662 
2172.848299  	95.152251 
2173.812724  	95.097327 
2174.777148  	95.305492 
2175.741573  	95.296383 
2176.705997  	95.066972 
2177.670422  	95.021116 
2178.634846  	95.162379 
2179.599271  	95.059424 
2180.563695  	95.151738 
2181.528119  	95.141105 
2182.492544  	94.830471 
2183.456968  	94.642807 
2184.421393  	94.594611 
2185.385817  	94.897817 
2186.350242  	95.132608 
2187.314666  	94.780534 
2188.279091  	94.628527 
2189.243515  	94.605413 
2190.207940  	94.792424 
2191.172364  	95.167360 
2192.136788  	95.140954 
2193.101213  	95.125520 
2194.065637  	94.993954 
2195.030062  	94.736269 
2195.994486  	94.570873 
2196.958911  	94.588100 
2197.923335  	94.816575 
2198.887760  	94.837049 
2199.852184  	94.878430 
2200.816609  	94.717964 
2201.781033  	94.750113 
2202.745458  	94.774680 
2203.709882  	94.869423 
2204.674306  	94.780950 
2205.638731  	94.685515 
2206.603155  	94.625049 
2207.567580  	94.572850 
2208.532004  	94.588912 
2209.496429  	94.669942 
2210.460853  	94.771719 
2211.425278  	94.916615 
2212.389702  	94.850823 
2213.354127  	94.703039 
2214.318551  	94.683526 
2215.282975  	94.660739 
2216.247400  	94.665740 
2217.211824  	94.881915 
2218.176249  	94.889514 
2219.140673  	94.887782 
2220.105098  	94.727595 
2221.069522  	94.706947 
2222.033947  	94.803355 
2222.998371  	94.950198 
2223.962796  	94.866847 
2224.927220  	94.792541 
2225.891644  	94.718816 
2226.856069  	94.834744 
2227.820493  	94.929501 
2228.784918  	94.875126 
2229.749342  	94.793921 
2230.713767  	94.754573 
2231.678191  	94.620717 
2232.642616  	94.590543 
2233.607040  	94.766397 
2234.571465  	94.779891 
2235.535889  	94.662314 
2236.500313  	94.658074 
2237.464738  	94.713264 
2238.429162  	94.788176 
2239.393587  	94.635154 
2240.358011  	94.673074 
2241.322436  	94.910805 
2242.286860  	94.842419 
2243.251285  	94.749348 
2244.215709  	94.770874 
2245.180134  	94.630428 
2246.144558  	94.569138 
2247.108982  	94.680887 
2248.073407  	94.783849 
2249.037831  	94.834423 
2250.002256  	94.710176 
2250.966680  	94.651015 
2251.931105  	94.748430 
2252.895529  	94.692795 
2253.859954  	94.565833 
2254.824378  	94.497695 
2255.788803  	94.662548 
2256.753227  	94.744491 
2257.717651  	94.763623 
2258.682076  	94.547485 
2259.646500  	94.511920 
2260.610925  	94.519205 
2261.575349  	94.462363 
2262.539774  	94.499214 
2263.504198  	94.663625 
2264.468623  	94.684536 
2265.433047  	94.683118 
2266.397472  	94.605075 
2267.361896  	94.483235 
2268.326321  	94.505060 
2269.290745  	94.585435 
2270.255169  	94.613126 
2271.219594  	94.584188 
2272.184018  	94.574346 
2273.148443  	94.602720 
2274.112867  	94.570952 
2275.077292  	94.569312 
2276.041716  	94.451934 
2277.006141  	94.479057 
2277.970565  	94.556503 
2278.934990  	94.546248 
2279.899414  	94.465737 
2280.863838  	94.453265 
2281.828263  	94.475261 
2282.792687  	94.413500 
2283.757112  	94.384076 
2284.721536  	94.391050 
2285.685961  	94.372149 
2286.650385  	94.404051 
2287.614810  	94.389378 
2288.579234  	94.375121 
2289.543659  	94.376734 
2290.508083  	94.431151 
2291.472507  	94.431192 
2292.436932  	94.499483 
2293.401356  	94.471467 
2294.365781  	94.392336 
2295.330205  	94.390503 
2296.294630  	94.448805 
2297.259054  	94.448459 
2298.223479  	94.449988 
2299.187903  	94.484166 
2300.152328  	94.522540 
2301.116752  	94.477832 
2302.081176  	94.435978 
2303.045601  	94.391628 
2304.010025  	94.425857 
2304.974450  	94.407003 
2305.938874  	94.406716 
2306.903299  	94.424884 
2307.867723  	94.417682 
2308.832148  	94.337538 
2309.796572  	94.416723 
2310.760997  	94.468925 
2311.725421  	94.441508 
2312.689845  	94.472610 
2313.654270  	94.508873 
2314.618694  	94.462325 
2315.583119  	94.516791 
2316.547543  	94.494469 
2317.511968  	94.506112 
2318.476392  	94.574241 
2319.440817  	94.564073 
2320.405241  	94.469235 
2321.369666  	94.525477 
2322.334090  	94.524454 
2323.298515  	94.490817 
2324.262939  	94.393396 
2325.227363  	94.664204 
2326.191788  	94.943708 
2327.156212  	95.082923 
2328.120637  	95.031520 
2329.085061  	95.058644 
2330.049486  	95.167359 
2331.013910  	95.171434 
2331.978335  	95.181477 
2332.942759  	95.279953 
2333.907184  	95.337889 
2334.871608  	95.401905 
2335.836032  	95.470328 
2336.800457  	95.499026 
2337.764881  	95.390760 
2338.729306  	95.381757 
2339.693730  	95.363687 
2340.658155  	95.460044 
2341.622579  	95.565639 
2342.587004  	95.601297 
2343.551428  	95.514805 
2344.515853  	95.391700 
2345.480277  	95.280200 
2346.444701  	95.176450 
2347.409126  	95.057495 
2348.373550  	94.912538 
2349.337975  	94.885954 
2350.302399  	95.021625 
2351.266824  	95.187061 
2352.231248  	95.386882 
2353.195673  	95.398659 
2354.160097  	95.454483 
2355.124522  	95.621258 
2356.088946  	95.773911 
2357.053370  	95.798520 
2358.017795  	95.780534 
2358.982219  	95.791837 
2359.946644  	96.034156 
2360.911068  	96.070740 
2361.875493  	95.934464 
2362.839917  	95.885321 
2363.804342  	95.900579 
2364.768766  	95.844477 
2365.733191  	96.007619 
2366.697615  	95.963930 
2367.662039  	95.821031 
2368.626464  	95.666507 
2369.590888  	95.487923 
2370.555313  	95.317315 
2371.519737  	95.237235 
2372.484162  	95.135537 
2373.448586  	95.108592 
2374.413011  	95.034125 
2375.377435  	94.908406 
2376.341860  	94.854214 
2377.306284  	94.812157 
2378.270708  	94.737297 
2379.235133  	94.686633 
2380.199557  	94.723904 
2381.163982  	94.745830 
2382.128406  	94.713952 
2383.092831  	94.708582 
2384.057255  	94.635517 
2385.021680  	94.640845 
2385.986104  	94.696771 
2386.950529  	94.724649 
2387.914953  	94.709609 
2388.879378  	94.686476 
2389.843802  	94.739827 
2390.808226  	94.776031 
2391.772651  	94.719872 
2392.737075  	94.687865 
2393.701500  	94.707377 
2394.665924  	94.735950 
2395.630349  	94.732545 
2396.594773  	94.739142 
2397.559198  	94.727342 
2398.523622  	94.760846 
2399.488047  	94.766671 
2400.452471  	94.717261 
2401.416895  	94.684481 
2402.381320  	94.705400 
2403.345744  	94.765817 
2404.310169  	94.804680 
2405.274593  	94.766506 
2406.239018  	94.750772 
2407.203442  	94.718459 
2408.167867  	94.715187 
2409.132291  	94.721325 
2410.096716  	94.705232 
2411.061140  	94.668705 
2412.025564  	94.683871 
2412.989989  	94.647387 
2413.954413  	94.623937 
2414.918838  	94.694437 
2415.883262  	94.693715 
2416.847687  	94.605750 
2417.812111  	94.655807 
2418.776536  	94.655142 
2419.740960  	94.626541 
2420.705385  	94.670224 
2421.669809  	94.683583 
2422.634233  	94.682794 
2423.598658  	94.675535 
2424.563082  	94.648613 
2425.527507  	94.681132 
2426.491931  	94.671944 
2427.456356  	94.601355 
2428.420780  	94.610935 
2429.385205  	94.625042 
2430.349629  	94.592835 
2431.314054  	94.564908 
2432.278478  	94.602153 
2433.242902  	94.637799 
2434.207327  	94.610645 
2435.171751  	94.631871 
2436.136176  	94.673597 
2437.100600  	94.716797 
2438.065025  	94.661734 
2439.029449  	94.644126 
2439.993874  	94.668489 
2440.958298  	94.683347 
2441.922723  	94.633438 
2442.887147  	94.597577 
2443.851572  	94.634824 
2444.815996  	94.649737 
2445.780420  	94.605063 
2446.744845  	94.542842 
2447.709269  	94.526640 
2448.673694  	94.584057 
2449.638118  	94.570910 
2450.602543  	94.536571 
2451.566967  	94.537069 
2452.531392  	94.546216 
2453.495816  	94.552670 
2454.460241  	94.567645 
2455.424665  	94.593214 
2456.389089  	94.572395 
2457.353514  	94.558731 
2458.317938  	94.592080 
2459.282363  	94.597443 
2460.246787  	94.603379 
2461.211212  	94.568378 
2462.175636  	94.528011 
2463.140061  	94.528467 
2464.104485  	94.540712 
2465.068910  	94.521749 
2466.033334  	94.536188 
2466.997758  	94.567782 
2467.962183  	94.591007 
2468.926607  	94.545829 
2469.891032  	94.571079 
2470.855456  	94.595450 
2471.819881  	94.593675 
2472.784305  	94.595037 
2473.748730  	94.613961 
2474.713154  	94.617711 
2475.677579  	94.563048 
2476.642003  	94.496171 
2477.606427  	94.512578 
2478.570852  	94.585230 
2479.535276  	94.601097 
2480.499701  	94.522148 
2481.464125  	94.533952 
2482.428550  	94.573211 
2483.392974  	94.588593 
2484.357399  	94.589829 
2485.321823  	94.530506 
2486.286248  	94.450241 
2487.250672  	94.450781 
2488.215096  	94.494594 
2489.179521  	94.500902 
2490.143945  	94.455583 
2491.108370  	94.446742 
2492.072794  	94.534748 
2493.037219  	94.559527 
2494.001643  	94.510460 
2494.966068  	94.598101 
2495.930492  	94.669472 
2496.894917  	94.567667 
2497.859341  	94.518589 
2498.823765  	94.555787 
2499.788190  	94.592156 
2500.752614  	94.577391 
2501.717039  	94.500162 
2502.681463  	94.494715 
2503.645888  	94.529210 
2504.610312  	94.520941 
2505.574737  	94.482801 
2506.539161  	94.498894 
2507.503586  	94.551395 
2508.468010  	94.562036 
2509.432435  	94.515326 
2510.396859  	94.515156 
2511.361283  	94.505332 
2512.325708  	94.476966 
2513.290132  	94.472016 
2514.254557  	94.500746 
2515.218981  	94.515166 
2516.183406  	94.514150 
2517.147830  	94.561042 
2518.112255  	94.533920 
2519.076679  	94.503418 
2520.041104  	94.551172 
2521.005528  	94.526464 
2521.969952  	94.452474 
2522.934377  	94.448337 
2523.898801  	94.523320 
2524.863226  	94.562822 
2525.827650  	94.499829 
2526.792075  	94.499173 
2527.756499  	94.506841 
2528.720924  	94.464326 
2529.685348  	94.432015 
2530.649773  	94.446367 
2531.614197  	94.485069 
2532.578621  	94.504661 
2533.543046  	94.552850 
2534.507470  	94.541964 
2535.471895  	94.483949 
2536.436319  	94.477385 
2537.400744  	94.462917 
2538.365168  	94.425544 
2539.329593  	94.446953 
2540.294017  	94.422206 
2541.258442  	94.439804 
2542.222866  	94.457866 
2543.187290  	94.457490 
2544.151715  	94.478400 
2545.116139  	94.511772 
2546.080564  	94.505463 
2547.044988  	94.437770 
2548.009413  	94.351053 
2548.973837  	94.358270 
2549.938262  	94.351517 
2550.902686  	94.362430 
2551.867111  	94.376924 
2552.831535  	94.377972 
2553.795959  	94.348131 
2554.760384  	94.412632 
2555.724808  	94.381653 
2556.689233  	94.264925 
2557.653657  	94.251630 
2558.618082  	94.313239 
2559.582506  	94.376782 
2560.546931  	94.349541 
2561.511355  	94.294821 
2562.475780  	94.298756 
2563.440204  	94.272207 
2564.404629  	94.311917 
2565.369053  	94.325900 
2566.333477  	94.308647 
2567.297902  	94.365748 
2568.262326  	94.372681 
2569.226751  	94.246707 
2570.191175  	94.198151 
2571.155600  	94.264794 
2572.120024  	94.284245 
2573.084449  	94.266088 
2574.048873  	94.206396 
2575.013298  	94.094889 
2575.977722  	94.114080 
2576.942146  	94.185143 
2577.906571  	94.191407 
2578.870995  	94.184522 
2579.835420  	94.170163 
2580.799844  	94.157076 
2581.764269  	94.144832 
2582.728693  	94.181313 
2583.693118  	94.187732 
2584.657542  	94.141055 
2585.621967  	94.145878 
2586.586391  	94.107928 
2587.550815  	94.099240 
2588.515240  	94.118244 
2589.479664  	94.138893 
2590.444089  	94.116184 
2591.408513  	94.112102 
2592.372938  	94.093175 
2593.337362  	94.063418 
2594.301787  	94.052807 
2595.266211  	94.057421 
2596.230636  	94.081785 
2597.195060  	94.107060 
2598.159484  	94.128206 
2599.123909  	94.156233 
2600.088333  	94.113713 
2601.052758  	94.050491 
2602.017182  	94.040053 
2602.981607  	94.075421 
2603.946031  	94.053967 
2604.910456  	94.034316 
2605.874880  	94.050328 
2606.839305  	94.054421 
2607.803729  	94.053711 
2608.768153  	94.094421 
2609.732578  	94.070633 
2610.697002  	94.064957 
2611.661427  	94.071238 
2612.625851  	94.088038 
2613.590276  	94.099952 
2614.554700  	94.092580 
2615.519125  	94.058107 
2616.483549  	94.073261 
2617.447974  	94.055438 
2618.412398  	94.052802 
2619.376822  	94.051291 
2620.341247  	94.059558 
2621.305671  	94.062472 
2622.270096  	94.056658 
2623.234520  	94.062728 
2624.198945  	94.043570 
2625.163369  	94.054122 
2626.127794  	94.040697 
2627.092218  	94.014810 
2628.056643  	94.008165 
2629.021067  	94.007705 
2629.985492  	94.057057 
2630.949916  	94.083157 
2631.914340  	94.045840 
2632.878765  	94.009706 
2633.843189  	94.026606 
2634.807614  	94.026529 
2635.772038  	94.009432 
2636.736463  	93.977797 
2637.700887  	93.990581 
2638.665312  	94.017343 
2639.629736  	94.018004 
2640.594161  	93.999222 
2641.558585  	94.006909 
2642.523009  	93.977519 
2643.487434  	93.959585 
2644.451858  	93.962930 
2645.416283  	93.957237 
2646.380707  	93.947231 
2647.345132  	93.939690 
2648.309556  	93.946164 
2649.273981  	93.945235 
2650.238405  	93.951703 
2651.202830  	93.959831 
2652.167254  	93.921635 
2653.131678  	93.909199 
2654.096103  	93.919075 
2655.060527  	93.935783 
2656.024952  	93.937820 
2656.989376  	93.910976 
2657.953801  	93.875481 
2658.918225  	93.876408 
2659.882650  	93.881204 
2660.847074  	93.897257 
2661.811499  	93.930262 
2662.775923  	93.942177 
2663.740347  	93.967550 
2664.704772  	93.984764 
2665.669196  	93.986259 
2666.633621  	93.977678 
2667.598045  	93.978363 
2668.562470  	93.971178 
2669.526894  	93.942059 
2670.491319  	93.923196 
2671.455743  	93.942139 
2672.420168  	93.972007 
2673.384592  	93.966220 
2674.349016  	93.948583 
2675.313441  	93.927774 
2676.277865  	93.928352 
2677.242290  	93.930455 
2678.206714  	93.912480 
2679.171139  	93.903889 
2680.135563  	93.905177 
2681.099988  	93.917287 
2682.064412  	93.924469 
2683.028837  	93.909763 
2683.993261  	93.895689 
2684.957686  	93.903219 
2685.922110  	93.910031 
2686.886534  	93.868408 
2687.850959  	93.829703 
2688.815383  	93.850597 
2689.779808  	93.864863 
2690.744232  	93.830470 
2691.708657  	93.831060 
2692.673081  	93.853754 
2693.637506  	93.832232 
2694.601930  	93.837670 
2695.566355  	93.854274 
2696.530779  	93.828238 
2697.495203  	93.826089 
2698.459628  	93.832770 
2699.424052  	93.824112 
2700.388477  	93.805967 
2701.352901  	93.795985 
2702.317326  	93.796272 
2703.281750  	93.818122 
2704.246175  	93.813862 
2705.210599  	93.802442 
2706.175024  	93.786017 
2707.139448  	93.760169 
2708.103872  	93.743532 
2709.068297  	93.765920 
2710.032721  	93.744531 
2710.997146  	93.728155 
2711.961570  	93.719882 
2712.925995  	93.755137 
2713.890419  	93.745583 
2714.854844  	93.715497 
2715.819268  	93.735698 
2716.783693  	93.727315 
2717.748117  	93.696294 
2718.712541  	93.699255 
2719.676966  	93.693656 
2720.641390  	93.679508 
2721.605815  	93.654022 
2722.570239  	93.642122 
2723.534664  	93.636660 
2724.499088  	93.596759 
2725.463513  	93.553426 
2726.427937  	93.543667 
2727.392362  	93.537967 
2728.356786  	93.507065 
2729.321210  	93.473647 
2730.285635  	93.474149 
2731.250059  	93.455867 
2732.214484  	93.420748 
2733.178908  	93.409582 
2734.143333  	93.416860 
2735.107757  	93.381714 
2736.072182  	93.371421 
2737.036606  	93.347277 
2738.001031  	93.305090 
2738.965455  	93.266806 
2739.929879  	93.273219 
2740.894304  	93.272568 
2741.858728  	93.269925 
2742.823153  	93.245992 
2743.787577  	93.217959 
2744.752002  	93.197819 
2745.716426  	93.182250 
2746.680851  	93.162040 
2747.645275  	93.178190 
2748.609700  	93.183036 
2749.574124  	93.199994 
2750.538549  	93.211658 
2751.502973  	93.152834 
2752.467397  	93.120051 
2753.431822  	93.117076 
2754.396246  	93.116712 
2755.360671  	93.138621 
2756.325095  	93.153373 
2757.289520  	93.133600 
2758.253944  	93.104557 
2759.218369  	93.106762 
2760.182793  	93.091870 
2761.147218  	93.049259 
2762.111642  	93.010189 
2763.076066  	93.039126 
2764.040491  	93.063330 
2765.004915  	93.053588 
2765.969340  	93.038989 
2766.933764  	93.023878 
2767.898189  	93.003404 
2768.862613  	92.986601 
2769.827038  	92.967580 
2770.791462  	92.953715 
2771.755887  	92.926422 
2772.720311  	92.933174 
2773.684735  	92.918430 
2774.649160  	92.906181 
2775.613584  	92.907382 
2776.578009  	92.891554 
2777.542433  	92.862700 
2778.506858  	92.860405 
2779.471282  	92.850223 
2780.435707  	92.829933 
2781.400131  	92.798214 
2782.364556  	92.794778 
2783.328980  	92.789195 
2784.293404  	92.784414 
2785.257829  	92.791781 
2786.222253  	92.777139 
2787.186678  	92.743005 
2788.151102  	92.716695 
2789.115527  	92.757873 
2790.079951  	92.713580 
2791.044376  	92.654259 
2792.008800  	92.644574 
2792.973225  	92.594243 
2793.937649  	92.540443 
2794.902073  	92.510405 
2795.866498  	92.498973 
2796.830922  	92.463859 
2797.795347  	92.436471 
2798.759771  	92.397756 
2799.724196  	92.345428 
2800.688620  	92.285050 
2801.653045  	92.233297 
2802.617469  	92.207152 
2803.581894  	92.188248 
2804.546318  	92.147830 
2805.510743  	92.129106 
2806.475167  	92.101355 
2807.439591  	92.038369 
2808.404016  	91.980437 
2809.368440  	91.953421 
2810.332865  	91.950280 
2811.297289  	91.881219 
2812.261714  	91.806201 
2813.226138  	91.778657 
2814.190563  	91.702293 
2815.154987  	91.667243 
2816.119412  	91.619452 
2817.083836  	91.534704 
2818.048260  	91.461350 
2819.012685  	91.414658 
2819.977109  	91.369275 
2820.941534  	91.312305 
2821.905958  	91.248060 
2822.870383  	91.171212 
2823.834807  	91.110401 
2824.799232  	91.027730 
2825.763656  	90.969843 
2826.728081  	90.928341 
2827.692505  	90.880368 
2828.656929  	90.823983 
2829.621354  	90.762567 
2830.585778  	90.719946 
2831.550203  	90.666521 
2832.514627  	90.531663 
2833.479052  	90.412814 
2834.443476  	90.345361 
2835.407901  	90.237048 
2836.372325  	90.087095 
2837.336750  	89.907488 
2838.301174  	89.660621 
2839.265598  	89.378040 
2840.230023  	89.099780 
2841.194447  	88.795733 
2842.158872  	88.408022 
2843.123296  	87.952505 
2844.087721  	87.411690 
2845.052145  	86.800706 
2846.016570  	86.128613 
2846.980994  	85.355435 
2847.945419  	84.523682 
2848.909843  	83.660217 
2849.874267  	82.813506 
2850.838692  	82.092356 
2851.803116  	81.498815 
2852.767541  	80.969909 
2853.731965  	80.479017 
2854.696390  	80.022104 
2855.660814  	79.621429 
2856.625239  	79.271266 
2857.589663  	79.010833 
2858.554088  	78.854425 
2859.518512  	78.823908 
2860.482936  	78.895316 
2861.447361  	78.987153 
2862.411785  	79.153886 
2863.376210  	79.413684 
2864.340634  	79.670853 
2865.305059  	79.952832 
2866.269483  	80.238255 
2867.233908  	80.431575 
2868.198332  	80.590352 
2869.162757  	80.766868 
2870.127181  	80.938361 
2871.091606  	81.062763 
2872.056030  	81.185602 
2873.020454  	81.373873 
2873.984879  	81.605587 
2874.949303  	81.817185 
2875.913728  	82.076985 
2876.878152  	82.443620 
2877.842577  	82.833574 
2878.807001  	83.247672 
2879.771426  	83.670554 
2880.735850  	84.029424 
2881.700275  	84.409239 
2882.664699  	84.824884 
2883.629123  	85.145175 
2884.593548  	85.394535 
2885.557972  	85.587759 
2886.522397  	85.717769 
2887.486821  	85.837956 
2888.451246  	85.905422 
2889.415670  	85.907521 
2890.380095  	85.869270 
2891.344519  	85.783901 
2892.308944  	85.657272 
2893.273368  	85.484119 
2894.237792  	85.263436 
2895.202217  	84.999452 
2896.166641  	84.781833 
2897.131066  	84.489590 
2898.095490  	84.170908 
2899.059915  	83.844242 
2900.024339  	83.477164 
2900.988764  	83.110808 
2901.953188  	82.763586 
2902.917613  	82.379032 
2903.882037  	81.990718 
2904.846461  	81.625747 
2905.810886  	81.260198 
2906.775310  	80.913692 
2907.739735  	80.590573 
2908.704159  	80.268682 
2909.668584  	79.955268 
2910.633008  	79.615246 
2911.597433  	79.273612 
2912.561857  	78.904245 
2913.526282  	78.473160 
2914.490706  	77.988761 
2915.455130  	77.491977 
2916.419555  	77.042855 
2917.383979  	76.625242 
2918.348404  	76.194550 
2919.312828  	75.835391 
2920.277253  	75.454142 
2921.241677  	75.030045 
2922.206102  	74.676699 
2923.170526  	74.349154 
2924.134951  	74.015975 
2925.099375  	73.665346 
2926.063800  	73.302794 
2927.028224  	72.960128 
2927.992648  	72.598891 
2928.957073  	72.318152 
2929.921497  	72.073434 
2930.885922  	71.849993 
2931.850346  	71.681750 
2932.814771  	71.592727 
2933.779195  	71.625881 
2934.743620  	71.763633 
2935.708044  	71.988577 
2936.672469  	72.325114 
2937.636893  	72.779615 
2938.601317  	73.323283 
2939.565742  	73.916390 
2940.530166  	74.521242 
2941.494591  	75.107575 
2942.459015  	75.707535 
2943.423440  	76.239110 
2944.387864  	76.726163 
2945.352289  	77.241168 
2946.316713  	77.863351 
2947.281138  	78.591756 
2948.245562  	79.340605 
2949.209986  	80.055526 
2950.174411  	80.810644 
2951.138835  	81.640643 
2952.103260  	82.414268 
2953.067684  	83.093687 
2954.032109  	83.762486 
2954.996533  	84.406583 
2955.960958  	84.985314 
2956.925382  	85.511438 
2957.889807  	86.012400 
2958.854231  	86.445211 
2959.818655  	86.821227 
2960.783080  	87.198283 
2961.747504  	87.545846 
2962.711929  	87.856765 
2963.676353  	88.140183 
2964.640778  	88.383261 
2965.605202  	88.644527 
2966.569627  	88.891951 
2967.534051  	89.223013 
2968.498476  	89.570593 
2969.462900  	89.827265 
2970.427324  	90.028984 
2971.391749  	90.273376 
2972.356173  	90.549426 
2973.320598  	90.803691 
2974.285022  	91.029644 
2975.249447  	91.221552 
2976.213871  	91.369974 
2977.178296  	91.524975 
2978.142720  	91.683689 
2979.107145  	91.834088 
2980.071569  	92.010745 
2981.035993  	92.128845 
2982.000418  	92.256578 
2982.964842  	92.395869 
2983.929267  	92.480108 
2984.893691  	92.578573 
2985.858116  	92.619092 
2986.822540  	92.685512 
2987.786965  	92.763278 
2988.751389  	92.789372 
2989.715814  	92.845573 
2990.680238  	92.942229 
2991.644663  	93.000772 
2992.609087  	93.040298 
2993.573511  	93.064156 
2994.537936  	93.096511 
2995.502360  	93.131535 
2996.466785  	93.127887 
2997.431209  	93.138300 
2998.395634  	93.170749 
2999.360058  	93.192578 
3000.324483  	93.198275 
3001.288907  	93.160369 
3002.253332  	93.169207 
3003.217756  	93.179009 
3004.182180  	93.141541 
3005.146605  	93.128295 
3006.111029  	93.171478 
3007.075454  	93.177926 
3008.039878  	93.193116 
3009.004303  	93.210866 
3009.968727  	93.196686 
3010.933152  	93.133639 
3011.897576  	93.066744 
3012.862001  	93.038409 
3013.826425  	93.084794 
3014.790849  	93.090710 
3015.755274  	93.039229 
3016.719698  	92.993577 
3017.684123  	92.970964 
3018.648547  	92.958863 
3019.612972  	92.931436 
3020.577396  	92.911093 
3021.541821  	92.893277 
3022.506245  	92.854070 
3023.470670  	92.801298 
3024.435094  	92.777885 
3025.399518  	92.721856 
3026.363943  	92.663959 
3027.328367  	92.648001 
3028.292792  	92.608101 
3029.257216  	92.581253 
3030.221641  	92.499985 
3031.186065  	92.354008 
3032.150490  	92.271418 
3033.114914  	92.306551 
3034.079339  	92.259621 
3035.043763  	92.170755 
3036.008187  	92.079656 
3036.972612  	92.002324 
3037.937036  	91.934589 
3038.901461  	91.845489 
3039.865885  	91.790737 
3040.830310  	91.756746 
3041.794734  	91.657562 
3042.759159  	91.539394 
3043.723583  	91.449674 
3044.688008  	91.370215 
3045.652432  	91.268389 
3046.616857  	91.127952 
3047.581281  	90.948549 
3048.545705  	90.796484 
3049.510130  	90.713623 
3050.474554  	90.622475 
3051.438979  	90.521615 
3052.403403  	90.390144 
3053.367828  	90.231543 
3054.332252  	90.109103 
3055.296677  	90.001642 
3056.261101  	89.880314 
3057.225526  	89.820662 
3058.189950  	89.840911 
3059.154374  	89.779781 
3060.118799  	89.716913 
3061.083223  	89.683008 
3062.047648  	89.661006 
3063.012072  	89.610900 
3063.976497  	89.523066 
3064.940921  	89.451547 
3065.905346  	89.486511 
3066.869770  	89.508101 
3067.834195  	89.499466 
3068.798619  	89.462515 
3069.763043  	89.470813 
3070.727468  	89.515794 
3071.691892  	89.533030 
3072.656317  	89.472775 
3073.620741  	89.447327 
3074.585166  	89.450873 
3075.549590  	89.484275 
3076.514015  	89.518136 
3077.478439  	89.514873 
3078.442864  	89.538363 
3079.407288  	89.561792 
3080.371712  	89.565302 
3081.336137  	89.593535 
3082.300561  	89.608411 
3083.264986  	89.658047 
3084.229410  	89.702075 
3085.193835  	89.696768 
3086.158259  	89.711509 
3087.122684  	89.735177 
3088.087108  	89.712562 
3089.051533  	89.774949 
3090.015957  	89.841342 
3090.980381  	89.888054 
3091.944806  	89.987365 
3092.909230  	90.057388 
3093.873655  	90.077999 
3094.838079  	90.105650 
3095.802504  	90.163219 
3096.766928  	90.261286 
3097.731353  	90.330392 
3098.695777  	90.396991 
3099.660202  	90.476796 
3100.624626  	90.559307 
3101.589050  	90.563347 
3102.553475  	90.586794 
3103.517899  	90.672054 
3104.482324  	90.750876 
3105.446748  	90.834580 
3106.411173  	90.871374 
3107.375597  	90.948085 
3108.340022  	91.092885 
3109.304446  	91.157302 
3110.268871  	91.163846 
3111.233295  	91.192867 
3112.197720  	91.227946 
3113.162144  	91.234892 
3114.126568  	91.320671 
3115.090993  	91.420012 
3116.055417  	91.489846 
3117.019842  	91.497251 
3117.984266  	91.525980 
3118.948691  	91.507652 
3119.913115  	91.568385 
3120.877540  	91.660081 
3121.841964  	91.662233 
3122.806389  	91.631907 
3123.770813  	91.634401 
3124.735237  	91.654164 
3125.699662  	91.668865 
3126.664086  	91.646730 
3127.628511  	91.715248 
3128.592935  	91.766321 
3129.557360  	91.744030 
3130.521784  	91.702082 
3131.486209  	91.704014 
3132.450633  	91.661123 
3133.415058  	91.648860 
3134.379482  	91.743431 
3135.343906  	91.772629 
3136.308331  	91.755313 
3137.272755  	91.744122 
3138.237180  	91.713992 
3139.201604  	91.723369 
3140.166029  	91.752186 
3141.130453  	91.746346 
3142.094878  	91.652312 
3143.059302  	91.591482 
3144.023727  	91.595854 
3144.988151  	91.634351 
3145.952575  	91.568526 
3146.917000  	91.465201 
3147.881424  	91.458063 
3148.845849  	91.517079 
3149.810273  	91.514459 
3150.774698  	91.467036 
3151.739122  	91.431616 
3152.703547  	91.388357 
3153.667971  	91.341564 
3154.632396  	91.316748 
3155.596820  	91.233760 
3156.561244  	91.139978 
3157.525669  	91.103073 
3158.490093  	91.047653 
3159.454518  	91.001580 
3160.418942  	90.962024 
3161.383367  	90.874250 
3162.347791  	90.787850 
3163.312216  	90.731281 
3164.276640  	90.679574 
3165.241065  	90.623278 
3166.205489  	90.562656 
3167.169914  	90.510067 
3168.134338  	90.432769 
3169.098762  	90.326746 
3170.063187  	90.226228 
3171.027611  	90.147215 
3171.992036  	90.096341 
3172.956460  	90.012190 
3173.920885  	89.921327 
3174.885309  	89.867463 
3175.849734  	89.801160 
3176.814158  	89.736480 
3177.778583  	89.662072 
3178.743007  	89.557438 
3179.707431  	89.472005 
3180.671856  	89.420249 
3181.636280  	89.406547 
3182.600705  	89.358425 
3183.565129  	89.292686 
3184.529554  	89.201828 
3185.493978  	89.113905 
3186.458403  	89.061937 
3187.422827  	89.026579 
3188.387252  	88.923314 
3189.351676  	88.873195 
3190.316100  	88.857944 
3191.280525  	88.795863 
3192.244949  	88.729003 
3193.209374  	88.700572 
3194.173798  	88.650150 
3195.138223  	88.590768 
3196.102647  	88.472608 
3197.067072  	88.390189 
3198.031496  	88.326975 
3198.995921  	88.303226 
3199.960345  	88.286068 
3200.924769  	88.270169 
3201.889194  	88.217092 
3202.853618  	88.174551 
3203.818043  	88.078382 
3204.782467  	88.014881 
3205.746892  	87.968764 
3206.711316  	87.918489 
3207.675741  	87.895267 
3208.640165  	87.870874 
3209.604590  	87.812528 
3210.569014  	87.725085 
3211.533438  	87.679707 
3212.497863  	87.664468 
3213.462287  	87.620616 
3214.426712  	87.554427 
3215.391136  	87.495497 
3216.355561  	87.448560 
3217.319985  	87.315191 
3218.284410  	87.252583 
3219.248834  	87.248913 
3220.213259  	87.197273 
3221.177683  	87.090094 
3222.142107  	86.994371 
3223.106532  	86.898279 
3224.070956  	86.788801 
3225.035381  	86.696672 
3225.999805  	86.619236 
3226.964230  	86.478168 
3227.928654  	86.327990 
3228.893079  	86.225649 
3229.857503  	86.125970 
3230.821928  	85.982459 
3231.786352  	85.856776 
3232.750777  	85.760846 
3233.715201  	85.605919 
3234.679625  	85.367027 
3235.644050  	85.184995 
3236.608474  	85.042903 
3237.572899  	84.897063 
3238.537323  	84.701164 
3239.501748  	84.524708 
3240.466172  	84.343174 
3241.430597  	84.185194 
3242.395021  	83.957868 
3243.359446  	83.696329 
3244.323870  	83.467756 
3245.288294  	83.295490 
3246.252719  	83.132845 
3247.217143  	82.968497 
3248.181568  	82.728228 
3249.145992  	82.469134 
3250.110417  	82.244095 
3251.074841  	82.026746 
3252.039266  	81.742110 
3253.003690  	81.470471 
3253.968115  	81.214111 
3254.932539  	80.950220 
3255.896963  	80.685595 
3256.861388  	80.407525 
3257.825812  	80.145835 
3258.790237  	79.887394 
3259.754661  	79.577912 
3260.719086  	79.302964 
3261.683510  	78.978181 
3262.647935  	78.695494 
3263.612359  	78.415522 
3264.576784  	78.065068 
3265.541208  	77.751811 
3266.505632  	77.483675 
3267.470057  	77.130036 
3268.434481  	76.836601 
3269.398906  	76.592513 
3270.363330  	76.333298 
3271.327755  	76.011557 
3272.292179  	75.708476 
3273.256604  	75.330976 
3274.221028  	74.920107 
3275.185453  	74.606448 
3276.149877  	74.292968 
3277.114301  	73.892043 
3278.078726  	73.499958 
3279.043150  	73.092132 
3280.007575  	72.677930 
3280.971999  	72.257676 
3281.936424  	71.858109 
3282.900848  	71.468582 
3283.865273  	71.051336 
3284.829697  	70.644632 
3285.794122  	70.224698 
3286.758546  	69.799552 
3287.722971  	69.442727 
3288.687395  	69.108226 
3289.651819  	68.803202 
3290.616244  	68.464351 
3291.580668  	68.186562 
3292.545093  	67.973259 
3293.509517  	67.829577 
3294.473942  	67.735727 
3295.438366  	67.667198 
3296.402791  	67.605562 
3297.367215  	67.593562 
3298.331640  	67.669227 
3299.296064  	67.842379 
3300.260488  	68.101751 
3301.224913  	68.399679 
3302.189337  	68.760609 
3303.153762  	69.142650 
3304.118186  	69.597922 
3305.082611  	70.094763 
3306.047035  	70.604663 
3307.011460  	71.185893 
3307.975884  	71.750164 
3308.940309  	72.386413 
3309.904733  	73.092962 
3310.869157  	73.760489 
3311.833582  	74.386816 
3312.798006  	75.081830 
3313.762431  	75.805188 
3314.726855  	76.542677 
3315.691280  	77.224812 
3316.655704  	77.821505 
3317.620129  	78.411559 
3318.584553  	78.984681 
3319.548978  	79.543956 
3320.513402  	80.133221 
3321.477826  	80.630028 
3322.442251  	81.116987 
3323.406675  	81.642069 
3324.371100  	82.101370 
3325.335524  	82.556603 
3326.299949  	82.977555 
3327.264373  	83.334890 
3328.228798  	83.721322 
3329.193222  	84.010076 
3330.157647  	84.305272 
3331.122071  	84.629144 
3332.086495  	85.005281 
3333.050920  	85.244812 
3334.015344  	85.443067 
3334.979769  	85.682311 
3335.944193  	85.971606 
3336.908618  	86.215275 
3337.873042  	86.422470 
3338.837467  	86.660486 
3339.801891  	86.954663 
3340.766316  	87.173503 
3341.730740  	87.261935 
3342.695164  	87.379672 
3343.659589  	87.627134 
3344.624013  	87.936533 
3345.588438  	88.123257 
3346.552862  	88.236544 
3347.517287  	88.304366 
3348.481711  	88.371742 
3349.446136  	88.527763 
3350.410560  	88.692794 
3351.374985  	88.857807 
3352.339409  	88.985387 
3353.303834  	89.078895 
3354.268258  	89.224287 
3355.232682  	89.354348 
3356.197107  	89.381719 
3357.161531  	89.488063 
3358.125956  	89.617476 
3359.090380  	89.696752 
3360.054805  	89.614978 
3361.019229  	89.660174 
3361.983654  	89.783409 
3362.948078  	89.896689 
3363.912503  	89.949383 
3364.876927  	89.960599 
3365.841351  	90.085674 
3366.805776  	90.206029 
3367.770200  	90.239791 
3368.734625  	90.266562 
3369.699049  	90.318268 
3370.663474  	90.438789 
3371.627898  	90.525064 
3372.592323  	90.516820 
3373.556747  	90.540500 
3374.521172  	90.618717 
3375.485596  	90.657757 
3376.450020  	90.687026 
3377.414445  	90.712888 
3378.378869  	90.774635 
3379.343294  	90.886901 
3380.307718  	90.924413 
3381.272143  	90.968762 
3382.236567  	91.010771 
3383.200992  	91.032629 
3384.165416  	91.001383 
3385.129841  	91.005026 
3386.094265  	91.101261 
3387.058689  	91.148138 
3388.023114  	91.181606 
3388.987538  	91.212018 
3389.951963  	91.219030 
3390.916387  	91.176994 
3391.880812  	91.162521 
3392.845236  	91.164285 
3393.809661  	91.247711 
3394.774085  	91.285431 
3395.738510  	91.274593 
3396.702934  	91.303584 
3397.667358  	91.283736 
3398.631783  	91.330950 
3399.596207  	91.449014 
3400.560632  	91.487719 
3401.525056  	91.477255 
3402.489481  	91.451113 
3403.453905  	91.477005 
3404.418330  	91.560457 
3405.382754  	91.595659 
3406.347179  	91.638071 
3407.311603  	91.663398 
3408.276028  	91.624823 
3409.240452  	91.598010 
3410.204876  	91.546496 
3411.169301  	91.545725 
3412.133725  	91.585550 
3413.098150  	91.653445 
3414.062574  	91.673274 
3415.026999  	91.694150 
3415.991423  	91.679570 
3416.955848  	91.724339 
3417.920272  	91.717441 
3418.884697  	91.664759 
3419.849121  	91.589951 
3420.813545  	91.529944 
3421.777970  	91.508892 
3422.742394  	91.525968 
3423.706819  	91.695533 
3424.671243  	91.823292 
3425.635668  	91.831936 
3426.600092  	91.833552 
3427.564517  	91.825884 
3428.528941  	91.861269 
3429.493366  	91.877576 
3430.457790  	91.818273 
3431.422214  	91.792989 
3432.386639  	91.873723 
3433.351063  	91.915351 
3434.315488  	91.923569 
3435.279912  	91.918169 
3436.244337  	91.945197 
3437.208761  	91.913278 
3438.173186  	91.908596 
3439.137610  	91.926221 
3440.102035  	91.945811 
3441.066459  	91.956090 
3442.030883  	91.968238 
3442.995308  	91.936999 
3443.959732  	91.992614 
3444.924157  	91.998198 
3445.888581  	91.987521 
3446.853006  	91.876458 
3447.817430  	91.781727 
3448.781855  	91.922772 
3449.746279  	92.035804 
3450.710704  	92.063567 
3451.675128  	92.113614 
3452.639552  	92.174998 
3453.603977  	92.173454 
3454.568401  	92.177898 
3455.532826  	92.213066 
3456.497250  	92.241079 
3457.461675  	92.193257 
3458.426099  	92.176343 
3459.390524  	92.243091 
3460.354948  	92.235585 
3461.319373  	92.159238 
3462.283797  	92.176989 
3463.248221  	92.239432 
3464.212646  	92.289715 
3465.177070  	92.309394 
3466.141495  	92.275502 
3467.105919  	92.169245 
3468.070344  	92.168913 
3469.034768  	92.251349 
3469.999193  	92.277107 
3470.963617  	92.309603 
3471.928042  	92.306998 
3472.892466  	92.316347 
3473.856891  	92.351090 
3474.821315  	92.365129 
3475.785739  	92.387919 
3476.750164  	92.423017 
3477.714588  	92.459369 
3478.679013  	92.482378 
3479.643437  	92.485621 
3480.607862  	92.373441 
3481.572286  	92.235725 
3482.536711  	92.200599 
3483.501135  	92.375907 
3484.465560  	92.493754 
3485.429984  	92.440670 
3486.394408  	92.443971 
3487.358833  	92.448863 
3488.323257  	92.332603 
3489.287682  	92.325217 
3490.252106  	92.534279 
3491.216531  	92.625687 
3492.180955  	92.678724 
3493.145380  	92.725882 
3494.109804  	92.739492 
3495.074229  	92.687651 
3496.038653  	92.560464 
3497.003077  	92.459718 
3497.967502  	92.542727 
3498.931926  	92.669421 
3499.896351  	92.666145 
3500.860775  	92.664971 
3501.825200  	92.632583 
3502.789624  	92.464103 
3503.754049  	92.356897 
3504.718473  	92.500675 
3505.682898  	92.648767 
3506.647322  	92.752655 
3507.611746  	92.858917 
3508.576171  	92.791847 
3509.540595  	92.550663 
3510.505020  	92.635846 
3511.469444  	92.886691 
3512.433869  	92.932508 
3513.398293  	92.920452 
3514.362718  	93.037133 
3515.327142  	93.151232 
3516.291567  	93.115228 
3517.255991  	93.068456 
3518.220415  	93.099159 
3519.184840  	93.188315 
3520.149264  	93.183260 
3521.113689  	93.205498 
3522.078113  	93.137796 
3523.042538  	92.827694 
3524.006962  	92.743890 
3524.971387  	92.986234 
3525.935811  	93.031007 
3526.900236  	92.985567 
3527.864660  	93.015347 
3528.829085  	93.105982 
3529.793509  	93.183536 
3530.757933  	93.310799 
3531.722358  	93.322549 
3532.686782  	93.478422 
3533.651207  	93.617689 
3534.615631  	93.610685 
3535.580056  	93.521249 
3536.544480  	93.375665 
3537.508905  	93.476605 
3538.473329  	93.644448 
3539.437754  	93.655114 
3540.402178  	93.722558 
3541.366602  	93.770870 
3542.331027  	93.784656 
3543.295451  	93.702819 
3544.259876  	93.586633 
3545.224300  	93.311096 
3546.188725  	93.260223 
3547.153149  	93.282375 
3548.117574  	93.522989 
3549.081998  	93.807774 
3550.046423  	93.917468 
3551.010847  	93.906903 
3551.975271  	93.715556 
3552.939696  	93.622864 
3553.904120  	93.798493 
3554.868545  	94.009486 
3555.832969  	94.152576 
3556.797394  	94.070618 
3557.761818  	94.106047 
3558.726243  	94.222536 
3559.690667  	94.052882 
3560.655092  	93.908420 
3561.619516  	94.133286 
3562.583940  	94.105366 
3563.548365  	94.037014 
3564.512789  	94.045905 
3565.477214  	93.713451 
3566.441638  	92.817366 
3567.406063  	92.832278 
3568.370487  	93.162586 
3569.334912  	93.791502 
3570.299336  	94.243410 
3571.263761  	94.294158 
3572.228185  	94.392885 
3573.192609  	94.388033 
3574.157034  	94.385328 
3575.121458  	94.407981 
3576.085883  	94.458606 
3577.050307  	94.430403 
3578.014732  	94.407968 
3578.979156  	94.488554 
3579.943581  	94.357515 
3580.908005  	94.387363 
3581.872430  	94.633705 
3582.836854  	94.704556 
3583.801278  	94.590953 
3584.765703  	94.576357 
3585.730127  	94.430953 
3586.694552  	93.858138 
3587.658976  	93.485951 
3588.623401  	93.681146 
3589.587825  	94.094645 
3590.552250  	94.646758 
3591.516674  	94.830580 
3592.481099  	94.790156 
3593.445523  	94.484596 
3594.409948  	94.514518 
3595.374372  	94.444694 
3596.338796  	94.405908 
3597.303221  	94.681450 
3598.267645  	94.728934 
3599.232070  	94.557296 
3600.196494  	94.541756 
3601.160919  	94.481408 
3602.125343  	94.711818 
3603.089768  	94.879151 
3604.054192  	95.004768 
3605.018617  	95.092658 
3605.983041  	94.962365 
3606.947465  	94.455829 
3607.911890  	94.320627 
3608.876314  	94.537681 
3609.840739  	94.405341 
3610.805163  	94.707488 
3611.769588  	94.704754 
3612.734012  	94.243144 
3613.698437  	94.392494 
3614.662861  	94.619759 
3615.627286  	94.593188 
3616.591710  	94.927083 
3617.556134  	94.695488 
3618.520559  	94.309442 
3619.484983  	94.312265 
3620.449408  	94.413890 
3621.413832  	94.805276 
3622.378257  	95.136594 
3623.342681  	95.339489 
3624.307106  	95.369888 
3625.271530  	95.272574 
3626.235955  	95.022102 
3627.200379  	94.900889 
3628.164803  	94.554098 
3629.129228  	93.502017 
3630.093652  	93.827221 
3631.058077  	94.826930 
3632.022501  	95.195860 
3632.986926  	95.186742 
3633.951350  	94.820579 
3634.915775  	94.962588 
3635.880199  	95.282412 
3636.844624  	95.385658 
3637.809048  	95.377168 
3638.773472  	95.351604 
3639.737897  	95.407136 
3640.702321  	95.406051 
3641.666746  	95.338502 
3642.631170  	95.216932 
3643.595595  	95.257487 
3644.560019  	95.375959 
3645.524444  	95.253221 
3646.488868  	94.802759 
3647.453293  	93.953106 
3648.417717  	93.930951 
3649.382142  	93.980631 
3650.346566  	93.836262 
3651.310990  	93.967959 
3652.275415  	94.761900 
3653.239839  	95.359285 
3654.204264  	95.531028 
3655.168688  	95.478401 
3656.133113  	95.109624 
3657.097537  	94.903525 
3658.061962  	95.419431 
3659.026386  	95.581596 
3659.990811  	95.518491 
3660.955235  	95.570445 
3661.919659  	95.649433 
3662.884084  	95.619496 
3663.848508  	95.649338 
3664.812933  	95.673818 
3665.777357  	95.688335 
3666.741782  	95.668514 
3667.706206  	95.584486 
3668.670631  	95.187053 
3669.635055  	94.801315 
3670.599480  	94.636262 
3671.563904  	94.717389 
3672.528328  	95.254156 
3673.492753  	95.390207 
3674.457177  	94.875556 
3675.421602  	93.625743 
3676.386026  	93.903932 
3677.350451  	94.811606 
3678.314875  	95.187217 
3679.279300  	95.179689 
3680.243724  	95.169238 
3681.208149  	95.522792 
3682.172573  	95.717919 
3683.136997  	95.771975 
3684.101422  	95.791053 
3685.065846  	95.727384 
3686.030271  	95.676874 
3686.994695  	95.592660 
3687.959120  	95.302246 
3688.923544  	94.762617 
3689.887969  	94.995797 
3690.852393  	94.978521 
3691.816818  	94.963103 
3692.781242  	95.550630 
3693.745666  	95.779244 
3694.710091  	95.823967 
3695.674515  	95.818341 
3696.638940  	95.700325 
3697.603364  	95.756206 
3698.567789  	95.846738 
3699.532213  	95.782800 
3700.496638  	95.791674 
3701.461062  	95.614368 
3702.425487  	95.351647 
3703.389911  	95.648277 
3704.354335  	95.853323 
3705.318760  	95.811172 
3706.283184  	95.804288 
3707.247609  	95.809023 
3708.212033  	95.776204 
3709.176458  	95.476028 
3710.140882  	95.110432 
3711.105307  	95.064296 
3712.069731  	94.740005 
3713.034156  	94.760693 
3713.998580  	95.409221 
3714.963005  	95.547578 
3715.927429  	95.613377 
3716.891853  	95.791224 
3717.856278  	95.809363 
3718.820702  	95.503904 
3719.785127  	95.369358 
3720.749551  	95.655820 
3721.713976  	95.539184 
3722.678400  	94.986030 
3723.642825  	95.252532 
3724.607249  	95.515797 
3725.571674  	95.233463 
3726.536098  	95.005074 
3727.500522  	95.117119 
3728.464947  	95.637109 
3729.429371  	95.886163 
3730.393796  	95.754359 
3731.358220  	95.484565 
3732.322645  	95.064639 
3733.287069  	95.161283 
3734.251494  	95.060161 
3735.215918  	93.837946 
3736.180343  	93.920156 
3737.144767  	94.553360 
3738.109191  	94.954121 
3739.073616  	95.195220 
3740.038040  	95.489477 
3741.002465  	95.328347 
3741.966889  	95.177249 
3742.931314  	95.401860 
3743.895738  	95.058277 
3744.860163  	93.610408 
3745.824587  	94.531648 
3746.789012  	95.190856 
3747.753436  	95.228567 
3748.717860  	95.126781 
3749.682285  	94.719572 
3750.646709  	94.447380 
3751.611134  	94.536121 
3752.575558  	94.311112 
3753.539983  	94.978163 
3754.504407  	95.419760 
3755.468832  	95.637312 
3756.433256  	95.544903 
3757.397681  	95.492310 
3758.362105  	95.586652 
3759.326529  	95.229434 
3760.290954  	94.948255 
3761.255378  	95.499249 
3762.219803  	95.727090 
3763.184227  	95.741016 
3764.148652  	95.741345 
3765.113076  	95.601755 
3766.077501  	95.233831 
3767.041925  	95.490071 
3768.006350  	95.762625 
3768.970774  	95.645223 
3769.935199  	95.235112 
3770.899623  	95.257942 
3771.864047  	95.606179 
3772.828472  	95.804534 
3773.792896  	95.870814 
3774.757321  	95.890140 
3775.721745  	95.961952 
3776.686170  	95.983237 
3777.650594  	95.906068 
3778.615019  	95.673166 
3779.579443  	95.340194 
3780.543868  	95.414967 
3781.508292  	95.795483 
3782.472716  	95.834556 
3783.437141  	95.816831 
3784.401565  	95.678176 
3785.365990  	95.516544 
3786.330414  	95.652586 
3787.294839  	95.787949 
3788.259263  	95.863961 
3789.223688  	95.891183 
3790.188112  	95.929071 
3791.152537  	95.990810 
3792.116961  	95.952498 
3793.081385  	95.928967 
3794.045810  	95.909334 
3795.010234  	95.823196 
3795.974659  	95.597862 
3796.939083  	95.251083 
3797.903508  	95.333772 
3798.867932  	95.579856 
3799.832357  	95.632114 
3800.796781  	95.204688 
3801.761206  	94.535122 
3802.725630  	94.877896 
3803.690054  	95.401453 
3804.654479  	95.736795 
3805.618903  	95.749278 
3806.583328  	95.458299 
3807.547752  	95.069146 
3808.512177  	95.514011 
3809.476601  	95.846568 
3810.441026  	95.896535 
3811.405450  	95.899859 
3812.369875  	95.895559 
3813.334299  	95.860255 
3814.298723  	95.794751 
3815.263148  	95.589406 
3816.227572  	95.040199 
3817.191997  	95.197512 
3818.156421  	95.618614 
3819.120846  	95.559675 
3820.085270  	95.207984 
3821.049695  	94.451891 
3822.014119  	94.340392 
3822.978544  	95.186572 
3823.942968  	95.570852 
3824.907392  	95.710036 
3825.871817  	95.680295 
3826.836241  	95.353815 
3827.800666  	95.331467 
3828.765090  	95.654168 
3829.729515  	95.859965 
3830.693939  	95.842333 
3831.658364  	95.469108 
3832.622788  	95.361283 
3833.587213  	95.681984 
3834.551637  	95.550377 
3835.516062  	95.221805 
3836.480486  	95.460034 
3837.444910  	95.295338 
3838.409335  	94.635093 
3839.373759  	94.996731 
3840.338184  	94.974901 
3841.302608  	94.972299 
3842.267033  	95.434007 
3843.231457  	95.523284 
3844.195882  	95.201112 
3845.160306  	95.505406 
3846.124731  	95.779459 
3847.089155  	95.854677 
3848.053579  	95.878504 
3849.018004  	95.762484 
3849.982428  	95.486557 
3850.946853  	95.428853 
3851.911277  	95.086383 
3852.875702  	94.443987 
3853.840126  	94.363026 
3854.804551  	94.487509 
3855.768975  	95.216762 
3856.733400  	95.447999 
3857.697824  	95.333735 
3858.662248  	95.646036 
3859.626673  	95.878073 
3860.591097  	95.887662 
3861.555522  	95.654110 
3862.519946  	95.347453 
3863.484371  	95.451857 
3864.448795  	95.182815 
3865.413220  	94.684370 
3866.377644  	95.236731 
3867.342069  	95.717422 
3868.306493  	95.741220 
3869.270917  	95.208482 
3870.235342  	94.308150 
3871.199766  	94.848880 
3872.164191  	95.446693 
3873.128615  	95.610605 
3874.093040  	95.139415 
3875.057464  	95.071162 
3876.021889  	95.746245 
3876.986313  	95.955119 
3877.950738  	95.935700 
3878.915162  	95.854028 
3879.879586  	95.486599 
3880.844011  	94.747643 
3881.808435  	95.223385 
3882.772860  	95.628752 
3883.737284  	95.505235 
3884.701709  	95.473659 
3885.666133  	95.196447 
3886.630558  	94.982778 
3887.594982  	95.637372 
3888.559407  	95.889930 
3889.523831  	95.844228 
3890.488256  	95.598423 
3891.452680  	95.109980 
3892.417104  	95.114411 
3893.381529  	95.623360 
3894.345953  	95.678546 
3895.310378  	95.736235 
3896.274802  	95.883618 
3897.239227  	95.885613 
3898.203651  	95.595336 
3899.168076  	95.178080 
3900.132500  	95.115247 
3901.096925  	95.459143 
3902.061349  	94.961860 
3903.025773  	94.834821 
3903.990198  	95.063412 
3904.954622  	94.990953 
3905.919047  	95.121483 
3906.883471  	95.472402 
3907.847896  	95.898893 
3908.812320  	96.023509 
3909.776745  	96.013807 
3910.741169  	95.977855 
3911.705594  	95.958934 
3912.670018  	95.957171 
3913.634442  	95.928276 
3914.598867  	95.903699 
3915.563291  	95.860446 
3916.527716  	95.527731 
3917.492140  	95.192843 
3918.456565  	95.558186 
3919.420989  	95.729925 
3920.385414  	95.467615 
3921.349838  	95.615799 
3922.314263  	95.887526 
3923.278687  	95.776030 
3924.243111  	95.481467 
3925.207536  	95.328846 
3926.171960  	95.586591 
3927.136385  	95.918936 
3928.100809  	95.953981 
3929.065234  	95.838228 
3930.029658  	95.704212 
3930.994083  	95.634340 
3931.958507  	95.463047 
3932.922932  	95.358767 
3933.887356  	95.706035 
3934.851780  	95.847475 
3935.816205  	95.889196 
3936.780629  	95.906031 
3937.745054  	95.896455 
3938.709478  	95.851103 
3939.673903  	95.901366 
3940.638327  	95.900474 
3941.602752  	95.854013 
3942.567176  	95.617489 
3943.531601  	95.496675 
3944.496025  	95.784666 
3945.460449  	95.924935 
3946.424874  	95.915120 
3947.389298  	95.670726 
3948.353723  	95.528340 
3949.318147  	95.644501 
3950.282572  	95.543167 
3951.246996  	95.662815 
3952.211421  	95.903424 
3953.175845  	95.879720 
3954.140270  	95.898924 
3955.104694  	95.933106 
3956.069119  	95.911831 
3957.033543  	95.864806 
3957.997967  	95.869988 
3958.962392  	95.915338 
3959.926816  	95.915431 
3960.891241  	95.860415 
3961.855665  	95.705973 
3962.820090  	95.727178 
3963.784514  	95.962855 
3964.748939  	95.955379 
3965.713363  	95.922237 
3966.677788  	95.970104 
3967.642212  	95.969019 
3968.606636  	95.917790 
3969.571061  	95.851019 
3970.535485  	95.881157 
3971.499910  	95.885737 
3972.464334  	95.774793 
3973.428759  	95.848172 
3974.393183  	95.934695 
3975.357608  	95.891193 
3976.322032  	95.817968 
3977.286457  	95.804698 
3978.250881  	95.902036 
3979.215305  	95.967490 
3980.179730  	96.003316 
3981.144154  	95.964945 
3982.108579  	95.891193 
3983.073003  	95.858499 
3984.037428  	95.938479 
3985.001852  	95.982609 
3985.966277  	95.994298 
3986.930701  	96.010167 
3987.895126  	95.997216 
3988.859550  	96.001621 
3989.823974  	95.973368 
3990.788399  	95.839277 
3991.752823  	95.831276 
3992.717248  	95.866102 
3993.681672  	95.858329 
3994.646097  	95.798706 
3995.610521  	95.752220 
3996.574946  	95.844788 
3997.539370  	95.940513 
3998.503795  	95.940151 
3999.468219  	95.954145 
4000.432643  	95.986351 
4001.397068  	95.977759 
4002.361492  	95.944558 
4003.325917  	95.913454 
4004.290341  	95.921135 
4005.254766  	95.918858 
4006.219190  	95.914589 
4007.183615  	95.897437 
4008.148039  	95.875048 
4009.112464  	95.825691 
4010.076888  	95.887621 
4011.041313  	95.955955 
4012.005737  	95.987318 
4012.970161  	95.964178 
4013.934586  	95.947493 
4014.899010  	95.937576 
4015.863435  	95.916024 
4016.827859  	95.926731 
4017.792284  	95.961944 
4018.756708  	95.984761 
4019.721133  	95.963196 
4020.685557  	95.916049 
4021.649982  	95.910966 
4022.614406  	95.941744 
4023.578830  	95.938504 
4024.543255  	95.911561 
4025.507679  	95.873314 
4026.472104  	95.891806 
4027.436528  	95.953255 
4028.400953  	95.935837 
4029.365377  	95.896475 
4030.329802  	95.912473 
4031.294226  	95.925458 
4032.258651  	95.954968 
4033.223075  	96.015558 
4034.187499  	96.047783 
4035.151924  	96.020382 
4036.116348  	96.013717 
4037.080773  	96.017736 
4038.045197  	96.028012 
4039.009622  	96.031529 
4039.974046  	96.021217 
4040.938471  	96.018364 
4041.902895  	95.991964 
4042.867320  	95.996966 
4043.831744  	95.963295 
4044.796168  	95.925333 
4045.760593  	95.899615 
4046.725017  	95.914940 
4047.689442  	95.957016 
4048.653866  	95.952656 
4049.618291  	95.972361 
4050.582715  	96.016654 
4051.547140  	95.988619 
4052.511564  	95.942166 
4053.475989  	95.965765 
4054.440413  	95.991493 
4055.404837  	95.990314 
4056.369262  	95.978403 
4057.333686  	95.996548 
4058.298111  	96.000982 
4059.262535  	95.998532 
4060.226960  	95.989709 
4061.191384  	95.999456 
4062.155809  	96.003370 
4063.120233  	96.015611 
4064.084658  	96.008369 
4065.049082  	96.004764 
4066.013506  	96.046239 
4066.977931  	96.022481 
4067.942355  	96.005056 
4068.906780  	96.039886 
4069.871204  	96.073905 
4070.835629  	96.063976 
4071.800053  	96.048972 
4072.764478  	96.019164 
4073.728902  	96.005076 
4074.693327  	96.064031 
4075.657751  	96.123836 
4076.622176  	96.064796 
4077.586600  	96.018951 
4078.551024  	96.040819 
4079.515449  	96.033076 
4080.479873  	96.062727 
4081.444298  	96.086180 
4082.408722  	96.080418 
4083.373147  	96.021063 
4084.337571  	96.002942 
4085.301996  	96.064475 
4086.266420  	96.014049 
4087.230845  	96.004047 
4088.195269  	96.079730 
4089.159693  	96.084840 
4090.124118  	96.044211 
4091.088542  	96.002684 
4092.052967  	96.040521 
4093.017391  	96.075586 
4093.981816  	96.066009 
4094.946240  	96.092697 
4095.910665  	96.118465 
4096.875089  	96.106109 
4097.839514  	96.028367 
4098.803938  	95.963581 
4099.768362  	95.991113 
4100.732787  	96.046302 
4101.697211  	96.087154 
4102.661636  	96.078129 
4103.626060  	96.084854 
4104.590485  	96.061266 
4105.554909  	96.049658 
4106.519334  	96.042809 
4107.483758  	96.021234 
4108.448183  	96.059005 
4109.412607  	96.051802 
4110.377031  	96.002216 
4111.341456  	96.049680 
4112.305880  	96.092623 
4113.270305  	96.082237 
4114.234729  	96.063274 
4115.199154  	96.067082 
4116.163578  	96.019767 
4117.128003  	96.023459 
4118.092427  	96.063463 
4119.056852  	96.049470 
4120.021276  	96.003161 
4120.985700  	96.047887 
4121.950125  	96.076738 
4122.914549  	96.036372 
4123.878974  	96.046312 
4124.843398  	96.046945 
4125.807823  	96.065661 
4126.772247  	96.043064 
4127.736672  	96.025349 
4128.701096  	96.027733 
4129.665521  	96.027314 
4130.629945  	96.034584 
4131.594370  	96.038962 
4132.558794  	96.072836 
4133.523218  	96.057006 
4134.487643  	96.074488 
4135.452067  	96.087943 
4136.416492  	96.073076 
4137.380916  	96.064563 
4138.345341  	96.052270 
4139.309765  	96.034951 
4140.274190  	96.047614 
4141.238614  	96.023519 
4142.203039  	96.013451 
4143.167463  	96.098585 
4144.131887  	96.079461 
4145.096312  	96.041159 
4146.060736  	96.021777 
4147.025161  	96.035364 
4147.989585  	96.034248 
4148.954010  	95.963134 
4149.918434  	95.989248 
4150.882859  	96.048577 
4151.847283  	96.045987 
4152.811708  	96.002301 
4153.776132  	96.048254 
4154.740556  	96.116890 
4155.704981  	96.088562 
4156.669405  	96.023526 
4157.633830  	96.041386 
4158.598254  	96.067698 
4159.562679  	96.066286 
4160.527103  	96.021669 
4161.491528  	95.991342 
4162.455952  	96.007271 
4163.420377  	96.043703 
4164.384801  	96.054994 
4165.349225  	96.061086 
4166.313650  	96.017394 
4167.278074  	95.955351 
4168.242499  	95.979388 
4169.206923  	96.046866 
4170.171348  	96.091170 
4171.135772  	96.115644 
4172.100197  	96.093889 
4173.064621  	96.089810 
4174.029046  	96.064331 
4174.993470  	96.019315 
4175.957894  	96.040118 
4176.922319  	96.103176 
4177.886743  	96.106865 
4178.851168  	96.047998 
4179.815592  	95.973594 
4180.780017  	95.987438 
4181.744441  	96.078718 
4182.708866  	96.107471 
4183.673290  	96.104744 
4184.637715  	96.071071 
4185.602139  	96.008674 
4186.566563  	95.971764 
4187.530988  	96.000242 
4188.495412  	96.010713 
4189.459837  	96.058748 
4190.424261  	96.075056 
4191.388686  	96.062273 
4192.353110  	96.076104 
4193.317535  	96.017736 
4194.281959  	95.991597 
4195.246384  	96.023932 
4196.210808  	96.035532 
4197.175233  	96.028412 
4198.139657  	96.037375 
4199.104081  	96.040973 
4200.068506  	96.034633 
4201.032930  	96.000042 
4201.997355  	96.060688 
4202.961779  	96.109083 
4203.926204  	96.047989 
4204.890628  	96.013218 
4205.855053  	96.026447 
4206.819477  	95.999039 
4207.783902  	95.976021 
4208.748326  	95.971143 
4209.712750  	96.038349 
4210.677175  	96.063368 
4211.641599  	96.014542 
4212.606024  	96.001520 
4213.570448  	96.050163 
4214.534873  	96.058511 
4215.499297  	96.032723 
4216.463722  	96.049085 
4217.428146  	96.026614 
4218.392571  	96.041513 
4219.356995  	96.036733 
4220.321419  	96.048258 
4221.285844  	96.125489 
4222.250268  	96.136754 
4223.214693  	95.997078 
4224.179117  	95.948550 
4225.143542  	96.054040 
4226.107966  	96.122120 
4227.072391  	96.136401 
4228.036815  	96.052061 
4229.001240  	95.982222 
4229.965664  	95.969441 
4230.930088  	96.013198 
4231.894513  	96.075884 
4232.858937  	96.098698 
4233.823362  	96.088990 
4234.787786  	96.091437 
4235.752211  	96.062272 
4236.716635  	96.078179 
4237.681060  	96.150600 
4238.645484  	96.138154 
4239.609909  	96.085081 
4240.574333  	96.065416 
4241.538757  	96.094741 
4242.503182  	96.154962 
4243.467606  	96.195309 
4244.432031  	96.118354 
4245.396455  	96.059083 
4246.360880  	96.108154 
4247.325304  	96.114632 
4248.289729  	96.089385 
4249.254153  	96.137946 
4250.218578  	96.187523 
4251.183002  	96.165854 
4252.147427  	96.116681 
4253.111851  	96.095681 
4254.076275  	96.098658 
4255.040700  	96.119110 
4256.005124  	96.110784 
4256.969549  	96.147508 
4257.933973  	96.154393 
4258.898398  	96.051859 
4259.862822  	96.022912 
4260.827247  	96.057829 
4261.791671  	96.072653 
4262.756096  	96.076519 
4263.720520  	96.079244 
4264.684944  	96.082805 
4265.649369  	96.073921 
4266.613793  	96.095668 
4267.578218  	96.076790 
4268.542642  	96.072841 
4269.507067  	96.082042 
4270.471491  	96.077492 
4271.435916  	96.107958 
4272.400340  	96.114740 
4273.364765  	96.099820 
4274.329189  	96.125487 
4275.293613  	96.141812 
4276.258038  	96.157391 
4277.222462  	96.154903 
4278.186887  	96.114521 
4279.151311  	96.071314 
4280.115736  	96.046028 
4281.080160  	96.141221 
4282.044585  	96.123888 
4283.009009  	96.045986 
4283.973434  	96.062712 
4284.937858  	96.114705 
4285.902282  	96.116547 
4286.866707  	96.123158 
4287.831131  	96.166511 
4288.795556  	96.233412 
4289.759980  	96.201155 
4290.724405  	96.153729 
4291.688829  	96.164067 
4292.653254  	96.165658 
4293.617678  	96.197180 
4294.582103  	96.230667 
4295.546527  	96.188637 
4296.510951  	96.190730 
4297.475376  	96.228490 
4298.439800  	96.202102 
4299.404225  	96.209280 
4300.368649  	96.232024 
4301.333074  	96.154265 
4302.297498  	96.021756 
4303.261923  	96.015434 
4304.226347  	96.179180 
4305.190772  	96.331698 
4306.155196  	96.290660 
4307.119620  	96.197249 
4308.084045  	96.127157 
4309.048469  	96.148085 
4310.012894  	96.156928 
4310.977318  	96.121449 
4311.941743  	96.140515 
4312.906167  	96.138219 
4313.870592  	96.090737 
4314.835016  	96.136291 
4315.799441  	96.148107 
4316.763865  	96.120316 
4317.728290  	96.161640 
4318.692714  	96.205550 
4319.657138  	96.188080 
4320.621563  	96.138836 
4321.585987  	96.101431 
4322.550412  	96.136924 
4323.514836  	96.086127 
4324.479261  	96.060545 
4325.443685  	96.101403 
4326.408110  	96.149639 
4327.372534  	96.174329 
4328.336959  	96.205415 
4329.301383  	96.197136 
4330.265807  	96.151111 
4331.230232  	96.123001 
4332.194656  	96.096157 
4333.159081  	96.146387 
4334.123505  	96.164453 
4335.087930  	96.132140 
4336.052354  	96.067679 
4337.016779  	96.045610 
4337.981203  	96.082172 
4338.945628  	96.052367 
4339.910052  	96.016901 
4340.874476  	96.036571 
4341.838901  	96.098956 
4342.803325  	96.055520 
4343.767750  	95.984946 
4344.732174  	95.998497 
4345.696599  	95.966921 
4346.661023  	95.970170 
4347.625448  	95.943001 
4348.589872  	95.933777 
4349.554297  	96.004938 
4350.518721  	96.092952 
4351.483145  	96.128364 
4352.447570  	96.054616 
4353.411994  	96.004901 
4354.376419  	95.969401 
4355.340843  	95.996289 
4356.305268  	96.066494 
4357.269692  	96.054669 
4358.234117  	96.017511 
4359.198541  	96.039087 
4360.162966  	96.055185 
4361.127390  	96.012522 
4362.091814  	96.041834 
4363.056239  	96.074911 
4364.020663  	96.072407 
4364.985088  	96.050302 
4365.949512  	95.990458 
4366.913937  	95.952575 
4367.878361  	95.980584 
4368.842786  	96.014247 
4369.807210  	96.096338 
4370.771635  	96.109003 
4371.736059  	96.057908 
4372.700484  	96.045343 
4373.664908  	96.102803 
4374.629332  	96.144529 
4375.593757  	96.145034 
4376.558181  	96.133183 
4377.522606  	96.146401 
4378.487030  	96.090973 
4379.451455  	96.047124 
4380.415879  	96.038872 
4381.380304  	96.072367 
4382.344728  	96.156759 
4383.309153  	96.197648 
4384.273577  	96.196085 
4385.238001  	96.232600 
4386.202426  	96.267650 
4387.166850  	96.250062 
4388.131275  	96.233522 
4389.095699  	96.214938 
4390.060124  	96.169024 
4391.024548  	96.216220 
4391.988973  	96.294991 
4392.953397  	96.312544 
4393.917822  	96.275777 
4394.882246  	96.220156 
4395.846670  	96.180969 
4396.811095  	96.179336 
4397.775519  	96.238753 
4398.739944  	96.314076 
4399.704368  	96.344121 
4400.668793  	96.380484 
4401.633217  	96.241487 
4402.597642  	96.142894 
4403.562066  	96.234451 
4404.526491  	96.304496 
4405.490915  	96.323856 
4406.455339  	96.273148 
4407.419764  	96.215658 
4408.384188  	96.299771 
4409.348613  	96.383898 
4410.313037  	96.405247 
4411.277462  	96.351650 
4412.241886  	96.302829 
4413.206311  	96.302561 
4414.170735  	96.309992 
4415.135160  	96.311151 
4416.099584  	96.315165 
4417.064008  	96.285358 
4418.028433  	96.220697 
4418.992857  	96.230385 
4419.957282  	96.254933 
4420.921706  	96.252235 
4421.886131  	96.276100 
4422.850555  	96.286697 
4423.814980  	96.235456 
4424.779404  	96.238046 
4425.743829  	96.266821 
4426.708253  	96.268364 
4427.672677  	96.207797 
4428.637102  	96.211910 
4429.601526  	96.290977 
4430.565951  	96.282984 
4431.530375  	96.231215 
4432.494800  	96.190967 
4433.459224  	96.181730 
4434.423649  	96.250631 
4435.388073  	96.322470 
4436.352498  	96.374861 
4437.316922  	96.373230 
4438.281347  	96.371426 
4439.245771  	96.335138 
4440.210195  	96.317868 
4441.174620  	96.365912 
4442.139044  	96.359492 
4443.103469  	96.366264 
4444.067893  	96.373209 
4445.032318  	96.434736 
4445.996742  	96.485267 
4446.961167  	96.401218 
4447.925591  	96.319857 
4448.890016  	96.289128 
4449.854440  	96.208123 
4450.818864  	96.289905 
4451.783289  	96.372464 
4452.747713  	96.318484 
4453.712138  	96.344657 
4454.676562  	96.318220 
4455.640987  	96.299436 
4456.605411  	96.339503 
4457.569836  	96.309722 
4458.534260  	96.243340 
4459.498685  	96.211732 
4460.463109  	96.215791 
4461.427533  	96.287421 
4462.391958  	96.321298 
4463.356382  	96.298158 
4464.320807  	96.333048 
4465.285231  	96.369055 
4466.249656  	96.357881 
4467.214080  	96.362244 
4468.178505  	96.312136 
4469.142929  	96.283818 
4470.107354  	96.370674 
4471.071778  	96.398743 
4472.036202  	96.409499 
4473.000627  	96.412438 
4473.965051  	96.350777 
4474.929476  	96.287215 
4475.893900  	96.295440 
4476.858325  	96.339435 
4477.822749  	96.387566 
4478.787174  	96.377430 
4479.751598  	96.420272 
4480.716023  	96.443744 
4481.680447  	96.390018 
4482.644871  	96.309043 
4483.609296  	96.340991 
4484.573720  	96.422112 
4485.538145  	96.426239 
4486.502569  	96.369370 
4487.466994  	96.327125 
4488.431418  	96.382033 
4489.395843  	96.350810 
4490.360267  	96.325372 
4491.324692  	96.361679 
4492.289116  	96.324803 
4493.253541  	96.344531 
4494.217965  	96.348474 
4495.182389  	96.327680 
4496.146814  	96.300118 
4497.111238  	96.295192 
4498.075663  	96.312235 
4499.040087  	96.326148 
4500.004512  	96.331986 
4500.968936  	96.342393 
4501.933361  	96.303399 
4502.897785  	96.321390 
4503.862210  	96.385009 
4504.826634  	96.435743 
4505.791058  	96.357063 
4506.755483  	96.279799 
4507.719907  	96.258397 
4508.684332  	96.310382 
4509.648756  	96.353653 
4510.613181  	96.338346 
4511.577605  	96.347905 
4512.542030  	96.345722 
4513.506454  	96.293878 
4514.470879  	96.260115 
4515.435303  	96.266441 
4516.399727  	96.300499 
4517.364152  	96.313581 
4518.328576  	96.364018 
4519.293001  	96.376062 
4520.257425  	96.317650 
4521.221850  	96.322185 
4522.186274  	96.431267 
4523.150699  	96.409029 
4524.115123  	96.345405 
4525.079548  	96.306391 
4526.043972  	96.314592 
4527.008396  	96.325078 
4527.972821  	96.284885 
4528.937245  	96.270544 
4529.901670  	96.254399 
4530.866094  	96.263716 
4531.830519  	96.369813 
4532.794943  	96.364994 
4533.759368  	96.340943 
4534.723792  	96.370212 
4535.688217  	96.371855 
4536.652641  	96.361980 
4537.617065  	96.395482 
4538.581490  	96.422593 
4539.545914  	96.378348 
4540.510339  	96.355714 
4541.474763  	96.306342 
4542.439188  	96.274731 
4543.403612  	96.329653 
4544.368037  	96.291950 
4545.332461  	96.269868 
4546.296886  	96.315562 
4547.261310  	96.355497 
4548.225734  	96.393876 
4549.190159  	96.431199 
4550.154583  	96.451460 
4551.119008  	96.393473 
4552.083432  	96.338697 
4553.047857  	96.330230 
4554.012281  	96.369443 
4554.976706  	96.338628 
4555.941130  	96.299798 
4556.905555  	96.361389 
4557.869979  	96.414542 
4558.834404  	96.459640 
4559.798828  	96.426373 
4560.763252  	96.299763 
4561.727677  	96.244076 
4562.692101  	96.314264 
4563.656526  	96.375432 
4564.620950  	96.373586 
4565.585375  	96.323208 
4566.549799  	96.364102 
4567.514224  	96.451850 
4568.478648  	96.444960 
4569.443073  	96.333633 
4570.407497  	96.272852 
4571.371921  	96.333990 
4572.336346  	96.326946 
4573.300770  	96.350265 
4574.265195  	96.350941 
4575.229619  	96.267762 
4576.194044  	96.256491 
4577.158468  	96.306161 
4578.122893  	96.388354 
4579.087317  	96.424253 
4580.051742  	96.408382 
4581.016166  	96.396180 
4581.980590  	96.450531 
4582.945015  	96.448349 
4583.909439  	96.378758 
4584.873864  	96.308891 
4585.838288  	96.304511 
4586.802713  	96.438531 
4587.767137  	96.381125 
4588.731562  	96.304513 
4589.695986  	96.340084 
4590.660411  	96.335086 
4591.624835  	96.335370 
4592.589259  	96.382036 
4593.553684  	96.421634 
4594.518108  	96.379575 
4595.482533  	96.350808 
4596.446957  	96.326929 
4597.411382  	96.308276 
4598.375806  	96.328894 
4599.340231  	96.424404 
4600.304655  	96.513412 
4601.269080  	96.501748 
4602.233504  	96.445566 
4603.197928  	96.413814 
4604.162353  	96.405867 
4605.126777  	96.382418 
4606.091202  	96.369684 
4607.055626  	96.407553 
4608.020051  	96.449677 
4608.984475  	96.467707 
4609.948900  	96.404060 
4610.913324  	96.399958 
4611.877749  	96.422009 
4612.842173  	96.366464 
4613.806598  	96.387947 
4614.771022  	96.379364 
4615.735446  	96.407775 
4616.699871  	96.418746 
4617.664295  	96.354907 
4618.628720  	96.349057 
4619.593144  	96.368378 
4620.557569  	96.490099 
4621.521993  	96.484325 
4622.486418  	96.337020 
4623.450842  	96.373465 
4624.415267  	96.433728 
4625.379691  	96.463926 
4626.344115  	96.430753 
4627.308540  	96.472561 
4628.272964  	96.477262 
4629.237389  	96.388846 
4630.201813  	96.346682 
4631.166238  	96.369898 
4632.130662  	96.385686 
4633.095087  	96.312454 
4634.059511  	96.320680 
4635.023936  	96.460517 
4635.988360  	96.499127 
4636.952784  	96.436203 
4637.917209  	96.461306 
4638.881633  	96.447033 
4639.846058  	96.427226 
4640.810482  	96.484825 
4641.774907  	96.473928 
4642.739331  	96.384076 
4643.703756  	96.319902 
4644.668180  	96.326641 
4645.632605  	96.302032 
4646.597029  	96.338246 
4647.561453  	96.368872 
4648.525878  	96.416274 
4649.490302  	96.480179 
4650.454727  	96.457764 
4651.419151  	96.420012 
4652.383576  	96.423330 
4653.348000  	96.487906 
4654.312425  	96.493409 
4655.276849  	96.511344 
4656.241274  	96.501970 
4657.205698  	96.461603 
4658.170122  	96.388976 
4659.134547  	96.393699 
4660.098971  	96.411077 
4661.063396  	96.464469 
4662.027820  	96.529966 
4662.992245  	96.434320 
4663.956669  	96.416843 
4664.921094  	96.473275 
4665.885518  	96.477179 
4666.849943  	96.507740 
4667.814367  	96.500844 
4668.778791  	96.557931 
4669.743216  	96.540856 
4670.707640  	96.526819 
4671.672065  	96.514821 
4672.636489  	96.427903 
4673.600914  	96.379314 
4674.565338  	96.412607 
4675.529763  	96.448572 
4676.494187  	96.481092 
4677.458612  	96.491749 
4678.423036  	96.501773 
4679.387461  	96.545137 
4680.351885  	96.573148 
4681.316309  	96.515983 
4682.280734  	96.435618 
4683.245158  	96.289299 
4684.209583  	96.272687 
4685.174007  	96.389022 
4686.138432  	96.434035 
4687.102856  	96.468495 
4688.067281  	96.447422 
4689.031705  	96.385821 
4689.996130  	96.462157 
4690.960554  	96.512447 
4691.924978  	96.495495 
4692.889403  	96.443698 
4693.853827  	96.368884 
4694.818252  	96.444482 
4695.782676  	96.532532 
4696.747101  	96.448679 
4697.711525  	96.462413 
4698.675950  	96.504025 
4699.640374  	96.431160 