##TITLE=No Description
##DATA TYPE=INFRARED SPECTRUM
##XUNITS=1/CM
##YUNITS=%T
400.236149  	135.362792 
401.200574  	122.664267 
402.164998  	89.970370 
403.129423  	80.682446 
404.093847  	87.362966 
405.058272  	83.730198 
406.022696  	82.843584 
406.987120  	89.121685 
407.951545  	89.203956 
408.915969  	83.631585 
409.880394  	76.714408 
410.844818  	75.325431 
411.809243  	84.354057 
412.773667  	90.394596 
413.738092  	87.794153 
414.702516  	79.945513 
415.666941  	78.275456 
416.631365  	86.375362 
417.595789  	86.902798 
418.560214  	85.169866 
419.524638  	83.303225 
420.489063  	85.165888 
421.453487  	83.772109 
422.417912  	83.766446 
423.382336  	83.964365 
424.346761  	81.384740 
425.311185  	76.717990 
426.275610  	78.748574 
427.240034  	79.425273 
428.204458  	80.147959 
429.168883  	81.118821 
430.133307  	81.350445 
431.097732  	80.319753 
432.062156  	78.856225 
433.026581  	78.351251 
433.991005  	79.635434 
434.955430  	80.852529 
435.919854  	79.635976 
436.884279  	78.007674 
437.848703  	78.588387 
438.813127  	79.281903 
439.777552  	78.999279 
440.741976  	78.715645 
441.706401  	78.512682 
442.670825  	79.132774 
443.635250  	78.584318 
444.599674  	79.288090 
445.564099  	79.145348 
446.528523  	77.639485 
447.492948  	78.401324 
448.457372  	80.111840 
449.421796  	79.589434 
450.386221  	77.879302 
451.350645  	78.100775 
452.315070  	77.769863 
453.279494  	77.213625 
454.243919  	76.991669 
455.208343  	77.268736 
456.172768  	76.249826 
457.137192  	74.535215 
458.101617  	74.762437 
459.066041  	76.931518 
460.030466  	77.250377 
460.994890  	77.260850 
461.959314  	76.650905 
462.923739  	75.919496 
463.888163  	75.739580 
464.852588  	76.192761 
465.817012  	76.551529 
466.781437  	76.720011 
467.745861  	75.773699 
468.710286  	75.858267 
469.674710  	75.467179 
470.639135  	74.874488 
471.603559  	74.476670 
472.567983  	73.914100 
473.532408  	74.599392 
474.496832  	74.875221 
475.461257  	74.844416 
476.425681  	74.718448 
477.390106  	74.622948 
478.354530  	74.570350 
479.318955  	73.920329 
480.283379  	73.540920 
481.247804  	74.285875 
482.212228  	74.136248 
483.176652  	74.768364 
484.141077  	75.358931 
485.105501  	74.607196 
486.069926  	74.064131 
487.034350  	73.945802 
487.998775  	74.058445 
488.963199  	74.112764 
489.927624  	74.737511 
490.892048  	74.735715 
491.856473  	74.057236 
492.820897  	73.502887 
493.785321  	73.242471 
494.749746  	72.615612 
495.714170  	72.491814 
496.678595  	72.676589 
497.643019  	73.058039 
498.607444  	73.133869 
499.571868  	72.176332 
500.536293  	71.860877 
501.500717  	71.379809 
502.465142  	71.316556 
503.429566  	72.128039 
504.393990  	71.906701 
505.358415  	71.386817 
506.322839  	71.061839 
507.287264  	71.047849 
508.251688  	71.242124 
509.216113  	71.713165 
510.180537  	71.320607 
511.144962  	71.012003 
512.109386  	71.028660 
513.073811  	71.091129 
514.038235  	70.900025 
515.002660  	70.582195 
515.967084  	69.882667 
516.931508  	69.526541 
517.895933  	69.630475 
518.860357  	69.768727 
519.824782  	69.742925 
520.789206  	70.005610 
521.753631  	70.084254 
522.718055  	69.993376 
523.682480  	69.654722 
524.646904  	68.998465 
525.611329  	68.436509 
526.575753  	68.352215 
527.540177  	68.816558 
528.504602  	68.881742 
529.469026  	68.489928 
530.433451  	68.090963 
531.397875  	67.981952 
532.362300  	67.935913 
533.326724  	68.007051 
534.291149  	67.862554 
535.255573  	68.174987 
536.219998  	68.643459 
537.184422  	68.814222 
538.148846  	69.033258 
539.113271  	69.468664 
540.077695  	69.594873 
541.042120  	70.147371 
542.006544  	70.702787 
542.970969  	70.603778 
543.935393  	70.555697 
544.899818  	70.349934 
545.864242  	70.216836 
546.828667  	69.919827 
547.793091  	69.266142 
548.757515  	69.196647 
549.721940  	69.662832 
550.686364  	69.432877 
551.650789  	69.471236 
552.615213  	69.151682 
553.579638  	68.745584 
554.544062  	68.540839 
555.508487  	68.539420 
556.472911  	68.274266 
557.437336  	67.940466 
558.401760  	67.531353 
559.366184  	67.569068 
560.330609  	67.537355 
561.295033  	67.262817 
562.259458  	66.490012 
563.223882  	65.653502 
564.188307  	65.186918 
565.152731  	64.883630 
566.117156  	64.242902 
567.081580  	63.700056 
568.046005  	63.364898 
569.010429  	62.733469 
569.974853  	62.142124 
570.939278  	61.798570 
571.903702  	61.295131 
572.868127  	60.645052 
573.832551  	59.989424 
574.796976  	59.684411 
575.761400  	59.126219 
576.725825  	59.098246 
577.690249  	59.319721 
578.654674  	59.598975 
579.619098  	60.043026 
580.583523  	60.686750 
581.547947  	61.655168 
582.512371  	62.604265 
583.476796  	63.402412 
584.441220  	64.305409 
585.405645  	65.283620 
586.370069  	66.516087 
587.334494  	66.995569 
588.298918  	67.388861 
589.263343  	68.049655 
590.227767  	68.758210 
591.192192  	68.952765 
592.156616  	69.192315 
593.121040  	69.795299 
594.085465  	70.242864 
595.049889  	70.523402 
596.014314  	70.713976 
596.978738  	70.779431 
597.943163  	70.982500 
598.907587  	71.131237 
599.872012  	70.951892 
600.836436  	71.173127 
601.800861  	71.626384 
602.765285  	71.759549 
603.729709  	71.845768 
604.694134  	71.819248 
605.658558  	71.873718 
606.622983  	72.055041 
607.587407  	72.030514 
608.551832  	72.108879 
609.516256  	72.289058 
610.480681  	72.369842 
611.445105  	72.347867 
612.409530  	72.190001 
613.373954  	72.188734 
614.338378  	71.968031 
615.302803  	71.924180 
616.267227  	72.107841 
617.231652  	72.510052 
618.196076  	72.575258 
619.160501  	72.265501 
620.124925  	72.044803 
621.089350  	72.133882 
622.053774  	72.174641 
623.018199  	72.482839 
623.982623  	72.394671 
624.947047  	72.400261 
625.911472  	72.238984 
626.875896  	72.168973 
627.840321  	72.185680 
628.804745  	72.439311 
629.769170  	72.379211 
630.733594  	72.181703 
631.698019  	72.182060 
632.662443  	72.007601 
633.626868  	71.788003 
634.591292  	71.854556 
635.555717  	71.781174 
636.520141  	71.852702 
637.484565  	71.713568 
638.448990  	71.756228 
639.413414  	71.656486 
640.377839  	71.549444 
641.342263  	71.441290 
642.306688  	71.200589 
643.271112  	71.065830 
644.235537  	70.955342 
645.199961  	70.782552 
646.164386  	70.735117 
647.128810  	70.527307 
648.093234  	70.319210 
649.057659  	70.244978 
650.022083  	70.130373 
650.986508  	69.846443 
651.950932  	69.522386 
652.915357  	69.321005 
653.879781  	69.147435 
654.844206  	68.952251 
655.808630  	68.739947 
656.773055  	68.418591 
657.737479  	68.234439 
658.701903  	67.850791 
659.666328  	67.528927 
660.630752  	67.326012 
661.595177  	67.070936 
662.559601  	66.811593 
663.524026  	66.508062 
664.488450  	66.224300 
665.452875  	65.995044 
666.417299  	65.726266 
667.381724  	65.309709 
668.346148  	64.882291 
669.310572  	64.541558 
670.274997  	64.349721 
671.239421  	64.306203 
672.203846  	64.117523 
673.168270  	63.833840 
674.132695  	63.341064 
675.097119  	63.065850 
676.061544  	62.858004 
677.025968  	62.756304 
677.990393  	62.641337 
678.954817  	62.446602 
679.919241  	62.316775 
680.883666  	62.352551 
681.848090  	62.232190 
682.812515  	62.197722 
683.776939  	62.167786 
684.741364  	62.103388 
685.705788  	62.039309 
686.670213  	62.287360 
687.634637  	62.401498 
688.599062  	62.647290 
689.563486  	62.970521 
690.527910  	63.442919 
691.492335  	63.965601 
692.456759  	64.582195 
693.421184  	65.020400 
694.385608  	65.497189 
695.350033  	65.972909 
696.314457  	66.375780 
697.278882  	66.754992 
698.243306  	67.264395 
699.207731  	67.800585 
700.172155  	68.242124 
701.136580  	68.626190 
702.101004  	68.849410 
703.065428  	69.107665 
704.029853  	69.504409 
704.994277  	69.846727 
705.958702  	70.180116 
706.923126  	70.404613 
707.887551  	70.661679 
708.851975  	70.945552 
709.816400  	71.099514 
710.780824  	71.304163 
711.745249  	71.540091 
712.709673  	71.732884 
713.674097  	71.864095 
714.638522  	71.969112 
715.602946  	71.996905 
716.567371  	71.905871 
717.531795  	72.020890 
718.496220  	72.088698 
719.460644  	72.024912 
720.425069  	72.040188 
721.389493  	72.163378 
722.353918  	72.243178 
723.318342  	72.244794 
724.282766  	72.168174 
725.247191  	72.015753 
726.211615  	71.950220 
727.176040  	72.039210 
728.140464  	71.967344 
729.104889  	71.936772 
730.069313  	72.116191 
731.033738  	72.611228 
731.998162  	73.227117 
732.962587  	73.963774 
733.927011  	74.752327 
734.891435  	75.425981 
735.855860  	76.116082 
736.820284  	76.874456 
737.784709  	77.592651 
738.749133  	78.137400 
739.713558  	78.626473 
740.677982  	79.086687 
741.642407  	79.364916 
742.606831  	79.669728 
743.571256  	80.003343 
744.535680  	80.200428 
745.500104  	80.364655 
746.464529  	80.549940 
747.428953  	80.502500 
748.393378  	80.521111 
749.357802  	80.650877 
750.322227  	80.759146 
751.286651  	80.866560 
752.251076  	80.988990 
753.215500  	81.149505 
754.179925  	81.298664 
755.144349  	81.337070 
756.108774  	81.454360 
757.073198  	81.582831 
758.037622  	81.670203 
759.002047  	81.673451 
759.966471  	81.845782 
760.930896  	81.972670 
761.895320  	82.031401 
762.859745  	82.187172 
763.824169  	82.471630 
764.788594  	82.611454 
765.753018  	82.661847 
766.717443  	82.750625 
767.681867  	82.855720 
768.646291  	82.975445 
769.610716  	83.138608 
770.575140  	83.286243 
771.539565  	83.499282 
772.503989  	83.539543 
773.468414  	83.501720 
774.432838  	83.596050 
775.397263  	83.754975 
776.361687  	83.916203 
777.326112  	84.026730 
778.290536  	83.983560 
779.254960  	84.223570 
780.219385  	84.619781 
781.183809  	84.961936 
782.148234  	84.791821 
783.112658  	84.791563 
784.077083  	84.744321 
785.041507  	84.725724 
786.005932  	84.811755 
786.970356  	84.772237 
787.934781  	84.760419 
788.899205  	84.801898 
789.863629  	84.980140 
790.828054  	85.059868 
791.792478  	85.024526 
792.756903  	84.953296 
793.721327  	84.985741 
794.685752  	84.899563 
795.650176  	84.944540 
796.614601  	85.129099 
797.579025  	85.310039 
798.543450  	85.309569 
799.507874  	85.386557 
800.472298  	85.590402 
801.436723  	85.700516 
802.401147  	85.857271 
803.365572  	86.028875 
804.329996  	86.227320 
805.294421  	86.331056 
806.258845  	86.339362 
807.223270  	86.421459 
808.187694  	86.498433 
809.152119  	86.593125 
810.116543  	86.616987 
811.080967  	86.609343 
812.045392  	86.632425 
813.009816  	86.816023 
813.974241  	86.940743 
814.938665  	87.043704 
815.903090  	87.173004 
816.867514  	87.197968 
817.831939  	87.257718 
818.796363  	87.467197 
819.760788  	87.609819 
820.725212  	87.638719 
821.689637  	87.607142 
822.654061  	87.707828 
823.618485  	87.783370 
824.582910  	87.778451 
825.547334  	87.786888 
826.511759  	87.920531 
827.476183  	88.003829 
828.440608  	88.026517 
829.405032  	87.991248 
830.369457  	88.085508 
831.333881  	88.243705 
832.298306  	88.331655 
833.262730  	88.337407 
834.227154  	88.319514 
835.191579  	88.344434 
836.156003  	88.411164 
837.120428  	88.436874 
838.084852  	88.352737 
839.049277  	88.409823 
840.013701  	88.499472 
840.978126  	88.512940 
841.942550  	88.659438 
842.906975  	88.708612 
843.871399  	88.651891 
844.835823  	88.652574 
845.800248  	88.658043 
846.764672  	88.676163 
847.729097  	88.715632 
848.693521  	88.683169 
849.657946  	88.702014 
850.622370  	88.733984 
851.586795  	88.777980 
852.551219  	88.736504 
853.515644  	88.785194 
854.480068  	88.881423 
855.444492  	88.841128 
856.408917  	88.759109 
857.373341  	88.785464 
858.337766  	88.974932 
859.302190  	89.093190 
860.266615  	89.015053 
861.231039  	89.011670 
862.195464  	89.052237 
863.159888  	89.053928 
864.124313  	89.091905 
865.088737  	89.094642 
866.053161  	89.059941 
867.017586  	89.106335 
867.982010  	89.152550 
868.946435  	89.164597 
869.910859  	89.126994 
870.875284  	89.084633 
871.839708  	89.057046 
872.804133  	89.137708 
873.768557  	89.204888 
874.732982  	89.105169 
875.697406  	89.003965 
876.661831  	88.958367 
877.626255  	88.934186 
878.590679  	88.969252 
879.555104  	88.985468 
880.519528  	88.894556 
881.483953  	88.843805 
882.448377  	88.811727 
883.412802  	88.815107 
884.377226  	88.795038 
885.341651  	88.803886 
886.306075  	88.791903 
887.270500  	88.789697 
888.234924  	88.789756 
889.199348  	88.693790 
890.163773  	88.584280 
891.128197  	88.565827 
892.092622  	88.540973 
893.057046  	88.436237 
894.021471  	88.387103 
894.985895  	88.437928 
895.950320  	88.348801 
896.914744  	88.164514 
897.879169  	88.046045 
898.843593  	87.891057 
899.808017  	87.651862 
900.772442  	87.346908 
901.736866  	86.965174 
902.701291  	86.633539 
903.665715  	86.364659 
904.630140  	86.038662 
905.594564  	85.846715 
906.558989  	85.916511 
907.523413  	86.164027 
908.487838  	86.403289 
909.452262  	86.664441 
910.416686  	86.999524 
911.381111  	87.212014 
912.345535  	87.224256 
913.309960  	87.126471 
914.274384  	86.990858 
915.238809  	86.924029 
916.203233  	86.791986 
917.167658  	86.674034 
918.132082  	86.589167 
919.096507  	86.508206 
920.060931  	86.375958 
921.025355  	86.162069 
921.989780  	85.913066 
922.954204  	85.647235 
923.918629  	85.361871 
924.883053  	85.052807 
925.847478  	84.694442 
926.811902  	84.267045 
927.776327  	83.777371 
928.740751  	83.174930 
929.705176  	82.521201 
930.669600  	81.794011 
931.634024  	81.036753 
932.598449  	80.324821 
933.562873  	79.796637 
934.527298  	79.586015 
935.491722  	79.750682 
936.456147  	80.392938 
937.420571  	81.347881 
938.384996  	82.384184 
939.349420  	83.374486 
940.313845  	84.260700 
941.278269  	85.014206 
942.242694  	85.577088 
943.207118  	85.965845 
944.171542  	86.337201 
945.135967  	86.662039 
946.100391  	86.901570 
947.064816  	87.036432 
948.029240  	87.192381 
948.993665  	87.362627 
949.958089  	87.479880 
950.922514  	87.579342 
951.886938  	87.710753 
952.851363  	87.797812 
953.815787  	87.844633 
954.780211  	87.925048 
955.744636  	88.020999 
956.709060  	88.074564 
957.673485  	88.105671 
958.637909  	88.112959 
959.602334  	88.130204 
960.566758  	88.134872 
961.531183  	88.128428 
962.495607  	88.151113 
963.460032  	88.212169 
964.424456  	88.270612 
965.388880  	88.245762 
966.353305  	88.270108 
967.317729  	88.336632 
968.282154  	88.359812 
969.246578  	88.338887 
970.211003  	88.341444 
971.175427  	88.325405 
972.139852  	88.277336 
973.104276  	88.246937 
974.068701  	88.238216 
975.033125  	88.212280 
975.997549  	88.199974 
976.961974  	88.169374 
977.926398  	88.123918 
978.890823  	88.109733 
979.855247  	88.069196 
980.819672  	88.005355 
981.784096  	87.944023 
982.748521  	87.867750 
983.712945  	87.753835 
984.677370  	87.577444 
985.641794  	87.414661 
986.606218  	87.363925 
987.570643  	87.349627 
988.535067  	87.288626 
989.499492  	87.290514 
990.463916  	87.291122 
991.428341  	87.251656 
992.392765  	87.177107 
993.357190  	87.115599 
994.321614  	87.076291 
995.286039  	87.030534 
996.250463  	86.942034 
997.214888  	86.904787 
998.179312  	86.907148 
999.143736  	86.813819 
1000.108161  	86.696392 
1001.072585  	86.670018 
1002.037010  	86.643509 
1003.001434  	86.551298 
1003.965859  	86.461248 
1004.930283  	86.418483 
1005.894708  	86.343640 
1006.859132  	86.205260 
1007.823557  	86.088818 
1008.787981  	85.993264 
1009.752405  	85.901898 
1010.716830  	85.821094 
1011.681254  	85.724729 
1012.645679  	85.687617 
1013.610103  	85.661739 
1014.574528  	85.563808 
1015.538952  	85.496836 
1016.503377  	85.516067 
1017.467801  	85.552728 
1018.432226  	85.560514 
1019.396650  	85.534807 
1020.361074  	85.529712 
1021.325499  	85.545436 
1022.289923  	85.493675 
1023.254348  	85.424652 
1024.218772  	85.356392 
1025.183197  	85.239645 
1026.147621  	85.135636 
1027.112046  	85.080473 
1028.076470  	85.044287 
1029.040895  	84.951367 
1030.005319  	84.883918 
1030.969743  	84.853171 
1031.934168  	84.828796 
1032.898592  	84.789525 
1033.863017  	84.675167 
1034.827441  	84.582125 
1035.791866  	84.527217 
1036.756290  	84.471923 
1037.720715  	84.372264 
1038.685139  	84.294966 
1039.649564  	84.293941 
1040.613988  	84.237132 
1041.578412  	84.194043 
1042.542837  	84.194563 
1043.507261  	84.247113 
1044.471686  	84.353805 
1045.436110  	84.478264 
1046.400535  	84.585281 
1047.364959  	84.666823 
1048.329384  	84.703386 
1049.293808  	84.757184 
1050.258233  	84.865991 
1051.222657  	84.935259 
1052.187081  	84.929715 
1053.151506  	84.897265 
1054.115930  	84.919336 
1055.080355  	84.900460 
1056.044779  	84.829503 
1057.009204  	84.761842 
1057.973628  	84.766849 
1058.938053  	84.756301 
1059.902477  	84.636125 
1060.866902  	84.518176 
1061.831326  	84.491877 
1062.795751  	84.503589 
1063.760175  	84.434652 
1064.724599  	84.374612 
1065.689024  	84.383746 
1066.653448  	84.463520 
1067.617873  	84.582287 
1068.582297  	84.713143 
1069.546722  	84.890295 
1070.511146  	85.120986 
1071.475571  	85.291930 
1072.439995  	85.343363 
1073.404420  	85.390299 
1074.368844  	85.448953 
1075.333268  	85.448442 
1076.297693  	85.407104 
1077.262117  	85.377609 
1078.226542  	85.426810 
1079.190966  	85.454034 
1080.155391  	85.436642 
1081.119815  	85.407261 
1082.084240  	85.309943 
1083.048664  	85.245142 
1084.013089  	85.257923 
1084.977513  	85.266348 
1085.941937  	85.145536 
1086.906362  	85.012372 
1087.870786  	84.946439 
1088.835211  	84.898237 
1089.799635  	84.788589 
1090.764060  	84.668320 
1091.728484  	84.681214 
1092.692909  	84.709714 
1093.657333  	84.634624 
1094.621758  	84.522668 
1095.586182  	84.561630 
1096.550606  	84.597698 
1097.515031  	84.584033 
1098.479455  	84.577811 
1099.443880  	84.562810 
1100.408304  	84.553385 
1101.372729  	84.570102 
1102.337153  	84.560567 
1103.301578  	84.597929 
1104.266002  	84.618944 
1105.230427  	84.621711 
1106.194851  	84.670584 
1107.159275  	84.706885 
1108.123700  	84.704868 
1109.088124  	84.659121 
1110.052549  	84.650402 
1111.016973  	84.698255 
1111.981398  	84.675895 
1112.945822  	84.671353 
1113.910247  	84.697175 
1114.874671  	84.683388 
1115.839096  	84.639353 
1116.803520  	84.639410 
1117.767945  	84.599566 
1118.732369  	84.559797 
1119.696793  	84.537898 
1120.661218  	84.469702 
1121.625642  	84.313879 
1122.590067  	84.232889 
1123.554491  	84.182225 
1124.518916  	84.088456 
1125.483340  	84.013730 
1126.447765  	83.936666 
1127.412189  	83.809718 
1128.376614  	83.662826 
1129.341038  	83.476275 
1130.305462  	83.310208 
1131.269887  	83.075321 
1132.234311  	82.717108 
1133.198736  	82.343191 
1134.163160  	81.934793 
1135.127585  	81.393822 
1136.092009  	80.830645 
1137.056434  	80.402374 
1138.020858  	80.123844 
1138.985283  	79.977369 
1139.949707  	79.960278 
1140.914131  	80.055717 
1141.878556  	80.146624 
1142.842980  	80.140955 
1143.807405  	80.150290 
1144.771829  	80.175604 
1145.736254  	80.177714 
1146.700678  	80.178404 
1147.665103  	80.209263 
1148.629527  	80.287379 
1149.593952  	80.444031 
1150.558376  	80.652367 
1151.522800  	80.837707 
1152.487225  	81.053930 
1153.451649  	81.279450 
1154.416074  	81.492403 
1155.380498  	81.666344 
1156.344923  	81.833534 
1157.309347  	81.990126 
1158.273772  	82.080727 
1159.238196  	82.084925 
1160.202621  	82.101144 
1161.167045  	82.089767 
1162.131469  	81.973354 
1163.095894  	81.826822 
1164.060318  	81.703819 
1165.024743  	81.533535 
1165.989167  	81.314859 
1166.953592  	81.124397 
1167.918016  	80.874806 
1168.882441  	80.538877 
1169.846865  	80.178375 
1170.811290  	79.744447 
1171.775714  	79.261485 
1172.740138  	78.764041 
1173.704563  	78.184136 
1174.668987  	77.499247 
1175.633412  	76.916090 
1176.597836  	76.430878 
1177.562261  	76.005488 
1178.526685  	75.713315 
1179.491110  	75.587819 
1180.455534  	75.613387 
1181.419959  	75.764714 
1182.384383  	75.968309 
1183.348808  	76.195725 
1184.313232  	76.440358 
1185.277656  	76.616343 
1186.242081  	76.667207 
1187.206505  	76.633943 
1188.170930  	76.506925 
1189.135354  	76.198371 
1190.099779  	75.733090 
1191.064203  	75.184871 
1192.028628  	74.483503 
1192.993052  	73.601402 
1193.957477  	72.669689 
1194.921901  	71.782082 
1195.886325  	71.023833 
1196.850750  	70.556092 
1197.815174  	70.596747 
1198.779599  	71.151477 
1199.744023  	72.079660 
1200.708448  	73.212827 
1201.672872  	74.416982 
1202.637297  	75.569331 
1203.601721  	76.564270 
1204.566146  	77.431815 
1205.530570  	78.163681 
1206.494994  	78.764784 
1207.459419  	79.240917 
1208.423843  	79.585632 
1209.388268  	79.834027 
1210.352692  	79.992975 
1211.317117  	80.038959 
1212.281541  	80.051871 
1213.245966  	80.128908 
1214.210390  	80.169604 
1215.174815  	80.125521 
1216.139239  	80.052885 
1217.103663  	79.980751 
1218.068088  	79.857275 
1219.032512  	79.636129 
1219.996937  	79.349549 
1220.961361  	79.002815 
1221.925786  	78.608204 
1222.890210  	78.188708 
1223.854635  	77.853959 
1224.819059  	77.733122 
1225.783484  	77.876621 
1226.747908  	78.149119 
1227.712332  	78.367361 
1228.676757  	78.423341 
1229.641181  	78.346074 
1230.605606  	78.206800 
1231.570030  	78.009404 
1232.534455  	77.817629 
1233.498879  	77.635962 
1234.463304  	77.454607 
1235.427728  	77.245605 
1236.392153  	77.108559 
1237.356577  	77.033328 
1238.321002  	76.915659 
1239.285426  	76.813893 
1240.249850  	76.721102 
1241.214275  	76.598759 
1242.178699  	76.466218 
1243.143124  	76.313670 
1244.107548  	76.155049 
1245.071973  	76.078916 
1246.036397  	75.947839 
1247.000822  	75.782887 
1247.965246  	75.676557 
1248.929671  	75.561404 
1249.894095  	75.402310 
1250.858519  	75.240462 
1251.822944  	75.049753 
1252.787368  	74.843988 
1253.751793  	74.652570 
1254.716217  	74.459321 
1255.680642  	74.247351 
1256.645066  	74.021693 
1257.609491  	73.767415 
1258.573915  	73.461245 
1259.538340  	73.091029 
1260.502764  	72.707619 
1261.467188  	72.504160 
1262.431613  	72.261908 
1263.396037  	71.919443 
1264.360462  	71.610691 
1265.324886  	71.315994 
1266.289311  	70.972266 
1267.253735  	70.671922 
1268.218160  	70.362806 
1269.182584  	70.039784 
1270.147009  	69.729713 
1271.111433  	69.517629 
1272.075857  	69.348439 
1273.040282  	69.327306 
1274.004706  	69.343058 
1274.969131  	69.467530 
1275.933555  	69.713149 
1276.897980  	70.105208 
1277.862404  	70.655927 
1278.826829  	71.322498 
1279.791253  	72.020362 
1280.755678  	72.773992 
1281.720102  	73.549107 
1282.684526  	74.276264 
1283.648951  	74.919756 
1284.613375  	75.492049 
1285.577800  	76.050845 
1286.542224  	76.477851 
1287.506649  	76.724823 
1288.471073  	77.034430 
1289.435498  	77.447244 
1290.399922  	77.746339 
1291.364347  	77.977867 
1292.328771  	78.206245 
1293.293195  	78.365328 
1294.257620  	78.465083 
1295.222044  	78.512560 
1296.186469  	78.487393 
1297.150893  	78.519833 
1298.115318  	78.670088 
1299.079742  	78.679728 
1300.044167  	78.644961 
1301.008591  	78.628757 
1301.973016  	78.645895 
1302.937440  	78.693085 
1303.901865  	78.766323 
1304.866289  	78.870810 
1305.830713  	78.988411 
1306.795138  	79.088274 
1307.759562  	79.150749 
1308.723987  	79.311779 
1309.688411  	79.566518 
1310.652836  	79.688077 
1311.617260  	79.671406 
1312.581685  	79.455860 
1313.546109  	79.578089 
1314.510534  	79.797016 
1315.474958  	79.995250 
1316.439382  	79.926851 
1317.403807  	79.816268 
1318.368231  	79.774948 
1319.332656  	79.641378 
1320.297080  	79.874589 
1321.261505  	80.007352 
1322.225929  	80.078977 
1323.190354  	79.967614 
1324.154778  	79.895293 
1325.119203  	79.838136 
1326.083627  	79.737342 
1327.048051  	79.624130 
1328.012476  	79.566902 
1328.976900  	79.516939 
1329.941325  	79.464968 
1330.905749  	79.510928 
1331.870174  	79.572395 
1332.834598  	79.516463 
1333.799023  	79.464294 
1334.763447  	79.393420 
1335.727872  	79.068926 
1336.692296  	78.513724 
1337.656720  	78.334845 
1338.621145  	77.672642 
1339.585569  	76.974033 
1340.549994  	77.128609 
1341.514418  	78.107839 
1342.478843  	78.499408 
1343.443267  	78.393773 
1344.407692  	78.255317 
1345.372116  	78.103513 
1346.336541  	77.943238 
1347.300965  	77.771647 
1348.265389  	77.542587 
1349.229814  	77.236036 
1350.194238  	77.083346 
1351.158663  	76.957226 
1352.123087  	76.749399 
1353.087512  	76.541211 
1354.051936  	76.180308 
1355.016361  	75.742252 
1355.980785  	75.723866 
1356.945210  	75.594526 
1357.909634  	75.286394 
1358.874059  	75.119923 
1359.838483  	74.895479 
1360.802907  	74.154316 
1361.767332  	73.549103 
1362.731756  	72.667414 
1363.696181  	72.624546 
1364.660605  	73.468123 
1365.625030  	73.494370 
1366.589454  	73.319452 
1367.553879  	72.912537 
1368.518303  	72.309657 
1369.482728  	72.245830 
1370.447152  	72.553301 
1371.411576  	72.603412 
1372.376001  	72.550329 
1373.340425  	72.141720 
1374.304850  	72.079217 
1375.269274  	72.908016 
1376.233699  	74.012506 
1377.198123  	74.500512 
1378.162548  	74.681197 
1379.126972  	75.129197 
1380.091397  	75.598970 
1381.055821  	76.070953 
1382.020245  	76.364749 
1382.984670  	76.596667 
1383.949094  	76.809505 
1384.913519  	76.993479 
1385.877943  	76.781784 
1386.842368  	76.036746 
1387.806792  	76.161069 
1388.771217  	77.364038 
1389.735641  	77.887015 
1390.700066  	78.076399 
1391.664490  	78.358514 
1392.628914  	78.621538 
1393.593339  	78.261515 
1394.557763  	77.386647 
1395.522188  	77.520135 
1396.486612  	78.333704 
1397.451037  	78.404526 
1398.415461  	77.882376 
1399.379886  	77.837693 
1400.344310  	78.652207 
1401.308735  	79.013525 
1402.273159  	78.907606 
1403.237583  	78.609569 
1404.202008  	77.829169 
1405.166432  	76.938537 
1406.130857  	77.150900 
1407.095281  	77.068492 
1408.059706  	76.439796 
1409.024130  	75.574401 
1409.988555  	74.420323 
1410.952979  	73.174653 
1411.917404  	71.717866 
1412.881828  	70.442818 
1413.846252  	69.044195 
1414.810677  	67.656994 
1415.775101  	66.499161 
1416.739526  	66.043654 
1417.703950  	66.537786 
1418.668375  	67.122248 
1419.632799  	68.837546 
1420.597224  	71.849448 
1421.561648  	72.944308 
1422.526073  	73.585215 
1423.490497  	73.303330 
1424.454922  	73.674954 
1425.419346  	74.905267 
1426.383770  	75.406545 
1427.348195  	75.480936 
1428.312619  	75.272724 
1429.277044  	74.755830 
1430.241468  	74.356148 
1431.205893  	74.645445 
1432.170317  	74.432015 
1433.134742  	74.038844 
1434.099166  	74.034171 
1435.063591  	73.675087 
1436.028015  	72.322246 
1436.992439  	71.733498 
1437.956864  	73.175540 
1438.921288  	73.678522 
1439.885713  	73.803122 
1440.850137  	73.908605 
1441.814562  	74.022318 
1442.778986  	74.129566 
1443.743411  	74.160505 
1444.707835  	74.139983 
1445.672260  	74.084588 
1446.636684  	73.887420 
1447.601108  	73.134897 
1448.565533  	73.117764 
1449.529957  	73.674121 
1450.494382  	73.552508 
1451.458806  	72.884541 
1452.423231  	72.246340 
1453.387655  	72.211031 
1454.352080  	71.480556 
1455.316504  	70.161405 
1456.280929  	68.936370 
1457.245353  	68.008029 
1458.209777  	67.738870 
1459.174202  	67.932999 
1460.138626  	68.385622 
1461.103051  	68.226246 
1462.067475  	67.466645 
1463.031900  	66.693884 
1463.996324  	65.714150 
1464.960749  	65.146337 
1465.925173  	66.545138 
1466.889598  	67.882356 
1467.854022  	69.044260 
1468.818446  	69.990347 
1469.782871  	70.312316 
1470.747295  	69.683943 
1471.711720  	67.789383 
1472.676144  	65.878902 
1473.640569  	65.655188 
1474.604993  	66.450487 
1475.569418  	66.400613 
1476.533842  	66.807027 
1477.498267  	68.909695 
1478.462691  	70.456252 
1479.427116  	71.804364 
1480.391540  	72.874796 
1481.355964  	73.753271 
1482.320389  	75.384356 
1483.284813  	76.533202 
1484.249238  	77.223326 
1485.213662  	77.416200 
1486.178087  	77.063235 
1487.142511  	76.559591 
1488.106936  	76.626508 
1489.071360  	75.583289 
1490.035785  	74.128293 
1491.000209  	75.067525 
1491.964633  	76.283167 
1492.929058  	76.493189 
1493.893482  	76.166121 
1494.857907  	75.451801 
1495.822331  	74.150747 
1496.786756  	73.578083 
1497.751180  	73.723671 
1498.715605  	72.907732 
1499.680029  	72.866024 
1500.644454  	72.803711 
1501.608878  	72.091016 
1502.573302  	71.719460 
1503.537727  	71.433581 
1504.502151  	70.439683 
1505.466576  	68.507453 
1506.431000  	65.067215 
1507.395425  	63.487422 
1508.359849  	64.356818 
1509.324274  	64.876292 
1510.288698  	65.002567 
1511.253123  	65.086291 
1512.217547  	64.143708 
1513.181971  	63.769372 
1514.146396  	63.222165 
1515.110820  	61.632829 
1516.075245  	59.934186 
1517.039669  	58.104124 
1518.004094  	58.380063 
1518.968518  	58.339856 
1519.932943  	56.738556 
1520.897367  	54.049465 
1521.861792  	53.381379 
1522.826216  	53.302946 
1523.790640  	53.018597 
1524.755065  	51.838753 
1525.719489  	50.626264 
1526.683914  	50.090480 
1527.648338  	49.117989 
1528.612763  	48.667002 
1529.577187  	48.756522 
1530.541612  	48.439266 
1531.506036  	47.687690 
1532.470461  	47.151319 
1533.434885  	46.631222 
1534.399309  	47.588472 
1535.363734  	48.443149 
1536.328158  	49.153517 
1537.292583  	49.695654 
1538.257007  	49.276270 
1539.221432  	48.169260 
1540.185856  	49.809359 
1541.150281  	51.275446 
1542.114705  	51.952069 
1543.079130  	53.383339 
1544.043554  	53.934369 
1545.007979  	54.379969 
1545.972403  	56.402219 
1546.936827  	58.015142 
1547.901252  	58.795065 
1548.865676  	59.011684 
1549.830101  	58.476902 
1550.794525  	59.932933 
1551.758950  	61.479773 
1552.723374  	61.978404 
1553.687799  	61.673487 
1554.652223  	61.956778 
1555.616648  	63.453574 
1556.581072  	63.716229 
1557.545496  	62.814698 
1558.509921  	60.714675 
1559.474345  	60.879071 
1560.438770  	64.595656 
1561.403194  	67.062498 
1562.367619  	68.037737 
1563.332043  	68.700682 
1564.296468  	68.887908 
1565.260892  	69.384849 
1566.225317  	70.561955 
1567.189741  	71.221827 
1568.154165  	71.299426 
1569.118590  	70.516183 
1570.083014  	71.435977 
1571.047439  	73.205492 
1572.011863  	73.891741 
1572.976288  	74.361486 
1573.940712  	74.838445 
1574.905137  	74.785990 
1575.869561  	74.066235 
1576.833986  	74.491372 
1577.798410  	75.706987 
1578.762834  	76.477311 
1579.727259  	76.985476 
1580.691683  	77.284111 
1581.656108  	77.520221 
1582.620532  	77.613562 
1583.584957  	77.711719 
1584.549381  	77.789890 
1585.513806  	77.856357 
1586.478230  	77.854220 
1587.442655  	77.861695 
1588.407079  	77.741241 
1589.371503  	77.487017 
1590.335928  	77.214561 
1591.300352  	77.066165 
1592.264777  	76.784612 
1593.229201  	76.502512 
1594.193626  	75.895361 
1595.158050  	75.443904 
1596.122475  	75.032724 
1597.086899  	74.627856 
1598.051324  	74.144983 
1599.015748  	73.508984 
1599.980173  	72.742612 
1600.944597  	71.852114 
1601.909021  	70.885186 
1602.873446  	69.838669 
1603.837870  	68.867079 
1604.802295  	68.117662 
1605.766719  	67.099603 
1606.731144  	65.961506 
1607.695568  	64.964688 
1608.659993  	64.145735 
1609.624417  	62.972299 
1610.588842  	62.273648 
1611.553266  	61.358338 
1612.517690  	60.262220 
1613.482115  	59.079096 
1614.446539  	57.879487 
1615.410964  	56.349288 
1616.375388  	54.478910 
1617.339813  	53.010065 
1618.304237  	52.740590 
1619.268662  	51.876905 
1620.233086  	50.968919 
1621.197511  	50.013166 
1622.161935  	48.975831 
1623.126359  	47.511555 
1624.090784  	47.032169 
1625.055208  	46.861386 
1626.019633  	46.361998 
1626.984057  	45.476262 
1627.948482  	44.664133 
1628.912906  	44.378951 
1629.877331  	44.132674 
1630.841755  	43.791012 
1631.806180  	43.766283 
1632.770604  	43.896754 
1633.735028  	44.056588 
1634.699453  	43.586803 
1635.663877  	44.089361 
1636.628302  	45.992498 
1637.592726  	47.016656 
1638.557151  	48.812541 
1639.521575  	50.206102 
1640.486000  	51.441938 
1641.450424  	52.842086 
1642.414849  	54.145294 
1643.379273  	55.654991 
1644.343697  	56.814370 
1645.308122  	57.225162 
1646.272546  	57.847586 
1647.236971  	59.157504 
1648.201395  	60.833082 
1649.165820  	63.350162 
1650.130244  	64.793779 
1651.094669  	65.573823 
1652.059093  	65.290170 
1653.023518  	63.818345 
1653.987942  	66.063375 
1654.952366  	69.155195 
1655.916791  	71.181986 
1656.881215  	72.344791 
1657.845640  	73.558908 
1658.810064  	74.764839 
1659.774489  	75.724614 
1660.738913  	76.404151 
1661.703338  	76.788893 
1662.667762  	77.167812 
1663.632187  	78.791702 
1664.596611  	80.139469 
1665.561036  	81.093863 
1666.525460  	81.993116 
1667.489884  	82.344246 
1668.454309  	81.758119 
1669.418733  	81.947140 
1670.383158  	83.649773 
1671.347582  	83.964786 
1672.312007  	84.989442 
1673.276431  	86.103809 
1674.240856  	86.140177 
1675.205280  	85.431923 
1676.169705  	86.625624 
1677.134129  	87.842848 
1678.098553  	88.351997 
1679.062978  	88.324572 
1680.027402  	87.458155 
1680.991827  	88.053763 
1681.956251  	89.105911 
1682.920676  	88.310103 
1683.885100  	85.174364 
1684.849525  	85.725318 
1685.813949  	89.361291 
1686.778374  	90.339896 
1687.742798  	90.095237 
1688.707222  	89.837222 
1689.671647  	90.289450 
1690.636071  	90.653717 
1691.600496  	91.411563 
1692.564920  	91.639737 
1693.529345  	91.607133 
1694.493769  	91.089624 
1695.458194  	89.776806 
1696.422618  	88.996815 
1697.387043  	90.026032 
1698.351467  	90.421280 
1699.315891  	89.918188 
1700.280316  	87.354312 
1701.244740  	89.484680 
1702.209165  	90.771480 
1703.173589  	91.067412 
1704.138014  	90.594070 
1705.102438  	90.416315 
1706.066863  	90.410643 
1707.031287  	90.484916 
1707.995712  	91.365716 
1708.960136  	91.688058 
1709.924560  	91.230998 
1710.888985  	91.249791 
1711.853409  	91.680330 
1712.817834  	91.341587 
1713.782258  	90.430907 
1714.746683  	89.401580 
1715.711107  	89.531918 
1716.675532  	89.616965 
1717.639956  	88.090304 
1718.604381  	87.916659 
1719.568805  	90.120973 
1720.533230  	90.973793 
1721.497654  	91.037939 
1722.462078  	90.870703 
1723.426503  	90.427136 
1724.390927  	90.543973 
1725.355352  	90.897283 
1726.319776  	90.864003 
1727.284201  	90.802515 
1728.248625  	90.697186 
1729.213050  	89.947708 
1730.177474  	88.781680 
1731.141899  	89.609703 
1732.106323  	89.772350 
1733.070747  	88.521772 
1734.035172  	86.545916 
1734.999596  	88.231934 
1735.964021  	90.056509 
1736.928445  	90.529527 
1737.892870  	90.539226 
1738.857294  	90.340693 
1739.821719  	89.742602 
1740.786143  	90.672192 
1741.750568  	91.287790 
1742.714992  	90.597351 
1743.679416  	89.780913 
1744.643841  	90.639114 
1745.608265  	91.171607 
1746.572690  	90.946783 
1747.537114  	90.509543 
1748.501539  	90.217456 
1749.465963  	90.432587 
1750.430388  	90.693266 
1751.394812  	89.933473 
1752.359237  	91.259133 
1753.323661  	92.309059 
1754.288085  	92.737458 
1755.252510  	92.756249 
1756.216934  	92.090401 
1757.181359  	91.484187 
1758.145783  	92.159337 
1759.110208  	92.576088 
1760.074632  	92.779701 
1761.039057  	92.159690 
1762.003481  	91.278564 
1762.967906  	92.209884 
1763.932330  	92.871787 
1764.896754  	93.026553 
1765.861179  	93.103265 
1766.825603  	92.872790 
1767.790028  	91.924875 
1768.754452  	91.735924 
1769.718877  	92.716888 
1770.683301  	92.359986 
1771.647726  	91.303362 
1772.612150  	90.916400 
1773.576575  	92.047216 
1774.540999  	92.597491 
1775.505423  	92.236261 
1776.469848  	92.551991 
1777.434272  	93.181752 
1778.398697  	92.977596 
1779.363121  	92.670435 
1780.327546  	92.191678 
1781.291970  	92.184285 
1782.256395  	92.890222 
1783.220819  	93.207598 
1784.185244  	92.809382 
1785.149668  	92.293967 
1786.114093  	92.848237 
1787.078517  	93.240074 
1788.042941  	93.226145 
1789.007366  	93.178440 
1789.971790  	92.814602 
1790.936215  	91.874199 
1791.900639  	91.414196 
1792.865064  	91.440031 
1793.829488  	92.415136 
1794.793913  	92.742021 
1795.758337  	92.085210 
1796.722762  	92.205831 
1797.687186  	92.987161 
1798.651610  	92.965763 
1799.616035  	92.340248 
1800.580459  	92.338147 
1801.544884  	92.116461 
1802.509308  	91.982492 
1803.473733  	92.774753 
1804.438157  	93.252965 
1805.402582  	93.227464 
1806.367006  	93.182649 
1807.331431  	92.881920 
1808.295855  	92.797231 
1809.260279  	93.094452 
1810.224704  	92.649362 
1811.189128  	92.264200 
1812.153553  	92.624111 
1813.117977  	92.966624 
1814.082402  	93.341930 
1815.046826  	93.406041 
1816.011251  	93.441232 
1816.975675  	93.129341 
1817.940100  	92.933674 
1818.904524  	93.210632 
1819.868948  	93.369231 
1820.833373  	93.292410 
1821.797797  	93.207461 
1822.762222  	92.993817 
1823.726646  	92.948783 
1824.691071  	92.268411 
1825.655495  	91.760955 
1826.619920  	92.790286 
1827.584344  	93.140494 
1828.548769  	92.666602 
1829.513193  	91.580515 
1830.477617  	91.658363 
1831.442042  	92.778001 
1832.406466  	93.040041 
1833.370891  	92.922905 
1834.335315  	93.146921 
1835.299740  	93.341154 
1836.264164  	93.119786 
1837.228589  	92.636909 
1838.193013  	92.841214 
1839.157438  	93.206215 
1840.121862  	93.231233 
1841.086287  	93.183263 
1842.050711  	92.821178 
1843.015135  	92.437563 
1843.979560  	91.642134 
1844.943984  	91.652804 
1845.908409  	92.468689 
1846.872833  	92.671102 
1847.837258  	92.199433 
1848.801682  	92.516331 
1849.766107  	93.076733 
1850.730531  	93.252949 
1851.694956  	93.227994 
1852.659380  	93.251794 
1853.623804  	93.272682 
1854.588229  	93.235995 
1855.552653  	93.240804 
1856.517078  	93.261837 
1857.481502  	93.170747 
1858.445927  	92.987737 
1859.410351  	92.949412 
1860.374776  	93.053442 
1861.339200  	92.952948 
1862.303625  	93.009127 
1863.268049  	93.115597 
1864.232473  	93.140651 
1865.196898  	93.114065 
1866.161322  	92.789114 
1867.125747  	92.408329 
1868.090171  	91.886587 
1869.054596  	91.438047 
1870.019020  	91.960878 
1870.983445  	92.609984 
1871.947869  	93.044686 
1872.912294  	93.248693 
1873.876718  	93.281160 
1874.841142  	93.220085 
1875.805567  	93.190178 
1876.769991  	93.189019 
1877.734416  	93.223291 
1878.698840  	93.111696 
1879.663265  	93.014671 
1880.627689  	93.139749 
1881.592114  	93.190367 
1882.556538  	93.129145 
1883.520963  	93.134506 
1884.485387  	93.032934 
1885.449811  	92.938988 
1886.414236  	93.053690 
1887.378660  	93.197949 
1888.343085  	92.940294 
1889.307509  	92.102729 
1890.271934  	92.128220 
1891.236358  	92.858876 
1892.200783  	93.042926 
1893.165207  	93.130302 
1894.129632  	92.997469 
1895.094056  	92.572141 
1896.058480  	92.752570 
1897.022905  	93.184408 
1897.987329  	93.132622 
1898.951754  	93.095228 
1899.916178  	93.111920 
1900.880603  	93.066541 
1901.845027  	92.927921 
1902.809452  	93.063602 
1903.773876  	93.088548 
1904.738301  	93.100646 
1905.702725  	93.110208 
1906.667150  	93.084723 
1907.631574  	92.849545 
1908.595998  	92.792519 
1909.560423  	92.663815 
1910.524847  	92.695045 
1911.489272  	93.094241 
1912.453696  	93.168488 
1913.418121  	93.160896 
1914.382545  	93.122913 
1915.346970  	93.161947 
1916.311394  	93.167049 
1917.275819  	92.650587 
1918.240243  	91.961924 
1919.204667  	92.537023 
1920.169092  	92.938152 
1921.133516  	92.831252 
1922.097941  	92.298537 
1923.062365  	91.741563 
1924.026790  	92.621815 
1924.991214  	93.177235 
1925.955639  	93.065605 
1926.920063  	93.077608 
1927.884488  	93.170667 
1928.848912  	93.224289 
1929.813336  	93.250798 
1930.777761  	93.252074 
1931.742185  	93.239884 
1932.706610  	93.198206 
1933.671034  	93.229437 
1934.635459  	93.259659 
1935.599883  	93.253833 
1936.564308  	93.279042 
1937.528732  	93.184026 
1938.493157  	93.095601 
1939.457581  	93.300256 
1940.422005  	93.335457 
1941.386430  	92.871343 
1942.350854  	91.878949 
1943.315279  	92.258847 
1944.279703  	93.133618 
1945.244128  	93.092785 
1946.208552  	93.012424 
1947.172977  	93.156115 
1948.137401  	93.224712 
1949.101826  	93.305623 
1950.066250  	93.422690 
1951.030674  	93.367585 
1951.995099  	93.258053 
1952.959523  	93.370333 
1953.923948  	93.226195 
1954.888372  	93.137583 
1955.852797  	93.126893 
1956.817221  	93.325455 
1957.781646  	93.375809 
1958.746070  	93.330768 
1959.710495  	93.480165 
1960.674919  	93.460984 
1961.639344  	93.201142 
1962.603768  	93.026697 
1963.568192  	93.057703 
1964.532617  	93.583675 
1965.497041  	93.789897 
1966.461466  	93.483782 
1967.425890  	93.009177 
1968.390315  	93.353571 
1969.354739  	93.608173 
1970.319164  	93.668346 
1971.283588  	93.738502 
1972.248013  	93.846868 
1973.212437  	93.868505 
1974.176861  	93.719271 
1975.141286  	93.320228 
1976.105710  	93.358487 
1977.070135  	93.567199 
1978.034559  	93.513348 
1978.998984  	92.921289 
1979.963408  	92.728467 
1980.927833  	92.898043 
1981.892257  	93.159646 
1982.856682  	93.120308 
1983.821106  	93.022206 
1984.785530  	92.852700 
1985.749955  	93.003594 
1986.714379  	93.368091 
1987.678804  	93.099214 
1988.643228  	92.621168 
1989.607653  	92.930064 
1990.572077  	93.083199 
1991.536502  	92.839149 
1992.500926  	92.585689 
1993.465351  	92.725666 
1994.429775  	92.934904 
1995.394199  	93.072231 
1996.358624  	93.256938 
1997.323048  	93.141820 
1998.287473  	92.916100 
1999.251897  	93.244440 
2000.216322  	93.386206 
2001.180746  	93.620027 
2002.145171  	93.621356 
2003.109595  	93.720172 
2004.074020  	93.834800 
2005.038444  	93.660811 
2006.002868  	93.418782 
2006.967293  	93.585590 
2007.931717  	93.303776 
2008.896142  	93.297573 
2009.860566  	93.505168 
2010.824991  	93.534694 
2011.789415  	93.432080 
2012.753840  	93.422931 
2013.718264  	93.294045 
2014.682689  	93.205058 
2015.647113  	93.378224 
2016.611537  	93.387749 
2017.575962  	93.370107 
2018.540386  	93.569293 
2019.504811  	93.561821 
2020.469235  	93.548216 
2021.433660  	93.741313 
2022.398084  	93.782545 
2023.362509  	93.650534 
2024.326933  	93.618228 
2025.291358  	93.441565 
2026.255782  	93.556995 
2027.220207  	93.501794 
2028.184631  	93.247620 
2029.149055  	93.465758 
2030.113480  	93.707567 
2031.077904  	93.494232 
2032.042329  	93.151160 
2033.006753  	92.896228 
2033.971178  	92.869384 
2034.935602  	92.907472 
2035.900027  	93.306007 
2036.864451  	93.334347 
2037.828876  	93.240701 
2038.793300  	93.206680 
2039.757724  	93.022956 
2040.722149  	92.832302 
2041.686573  	92.886055 
2042.650998  	92.729924 
2043.615422  	92.602770 
2044.579847  	93.014780 
2045.544271  	93.240501 
2046.508696  	93.128721 
2047.473120  	93.145878 
2048.437545  	93.177961 
2049.401969  	93.267078 
2050.366393  	92.897588 
2051.330818  	92.786089 
2052.295242  	93.286046 
2053.259667  	93.620284 
2054.224091  	93.273008 
2055.188516  	92.829082 
2056.152940  	92.859676 
2057.117365  	92.852073 
2058.081789  	92.764783 
2059.046214  	92.853487 
2060.010638  	92.797057 
2060.975062  	92.834804 
2061.939487  	92.998084 
2062.903911  	92.958941 
2063.868336  	92.754648 
2064.832760  	92.645000 
2065.797185  	92.758111 
2066.761609  	92.797490 
2067.726034  	92.892304 
2068.690458  	93.036665 
2069.654883  	93.029943 
2070.619307  	92.909304 
2071.583731  	92.855274 
2072.548156  	92.887788 
2073.512580  	92.808797 
2074.477005  	92.778836 
2075.441429  	92.821486 
2076.405854  	92.808025 
2077.370278  	92.779125 
2078.334703  	92.814110 
2079.299127  	92.840441 
2080.263552  	92.816300 
2081.227976  	92.734753 
2082.192401  	92.795077 
2083.156825  	92.774523 
2084.121249  	92.780558 
2085.085674  	92.839733 
2086.050098  	92.882354 
2087.014523  	92.811233 
2087.978947  	92.834573 
2088.943372  	92.812695 
2089.907796  	92.694763 
2090.872221  	92.692518 
2091.836645  	92.985646 
2092.801070  	93.030651 
2093.765494  	93.091867 
2094.729918  	93.065832 
2095.694343  	92.973519 
2096.658767  	92.799265 
2097.623192  	92.745119 
2098.587616  	92.768042 
2099.552041  	92.840234 
2100.516465  	92.772433 
2101.480890  	92.836341 
2102.445314  	92.892959 
2103.409739  	92.888878 
2104.374163  	92.843069 
2105.338587  	92.777989 
2106.303012  	92.731865 
2107.267436  	92.792954 
2108.231861  	92.676221 
2109.196285  	92.631842 
2110.160710  	92.804852 
2111.125134  	92.985149 
2112.089559  	92.966038 
2113.053983  	93.011152 
2114.018408  	93.003198 
2114.982832  	92.880317 
2115.947256  	92.657670 
2116.911681  	92.753454 
2117.876105  	92.901719 
2118.840530  	92.839721 
2119.804954  	92.873346 
2120.769379  	92.940559 
2121.733803  	92.928811 
2122.698228  	93.018157 
2123.662652  	92.972678 
2124.627077  	92.960943 
2125.591501  	93.092785 
2126.555925  	93.204219 
2127.520350  	93.250105 
2128.484774  	93.332817 
2129.449199  	93.318243 
2130.413623  	93.243496 
2131.378048  	93.155420 
2132.342472  	93.468990 
2133.306897  	93.540538 
2134.271321  	93.322891 
2135.235746  	93.141794 
2136.200170  	93.049238 
2137.164594  	93.245709 
2138.129019  	93.561874 
2139.093443  	93.587703 
2140.057868  	93.490952 
2141.022292  	93.398702 
2141.986717  	93.362777 
2142.951141  	93.313598 
2143.915566  	93.559224 
2144.879990  	93.446511 
2145.844415  	93.207589 
2146.808839  	93.329488 
2147.773264  	93.539111 
2148.737688  	93.439799 
2149.702112  	93.541068 
2150.666537  	93.611065 
2151.630961  	93.380956 
2152.595386  	93.470093 
2153.559810  	93.815165 
2154.524235  	93.661772 
2155.488659  	93.895888 
2156.453084  	94.231617 
2157.417508  	94.256863 
2158.381933  	94.093768 
2159.346357  	93.404718 
2160.310781  	92.959046 
2161.275206  	92.799751 
2162.239630  	92.779635 
2163.204055  	93.103040 
2164.168479  	92.841721 
2165.132904  	92.608351 
2166.097328  	92.754026 
2167.061753  	93.141950 
2168.026177  	93.168449 
2168.990602  	92.838770 
2169.955026  	92.738993 
2170.919450  	92.998117 
2171.883875  	92.856401 
2172.848299  	93.092536 
2173.812724  	93.149053 
2174.777148  	93.095106 
2175.741573  	93.083501 
2176.705997  	92.975508 
2177.670422  	92.993632 
2178.634846  	93.128157 
2179.599271  	93.076236 
2180.563695  	93.067423 
2181.528119  	93.184033 
2182.492544  	93.182703 
2183.456968  	92.732981 
2184.421393  	92.569750 
2185.385817  	92.940031 
2186.350242  	93.191596 
2187.314666  	92.659827 
2188.279091  	92.494722 
2189.243515  	92.766711 
2190.207940  	93.051842 
2191.172364  	93.095570 
2192.136788  	93.100690 
2193.101213  	92.987175 
2194.065637  	92.939991 
2195.030062  	92.875865 
2195.994486  	92.805226 
2196.958911  	92.868858 
2197.923335  	93.076280 
2198.887760  	92.969414 
2199.852184  	92.969606 
2200.816609  	92.893548 
2201.781033  	92.883706 
2202.745458  	92.888847 
2203.709882  	92.957311 
2204.674306  	92.829579 
2205.638731  	92.714779 
2206.603155  	92.891210 
2207.567580  	93.077267 
2208.532004  	92.856256 
2209.496429  	92.820135 
2210.460853  	92.724983 
2211.425278  	92.796576 
2212.389702  	92.811821 
2213.354127  	92.651658 
2214.318551  	92.633174 
2215.282975  	92.744900 
2216.247400  	92.716684 
2217.211824  	92.720089 
2218.176249  	92.834489 
2219.140673  	93.001286 
2220.105098  	92.995822 
2221.069522  	93.071749 
2222.033947  	92.959622 
2222.998371  	92.839820 
2223.962796  	92.761402 
2224.927220  	92.844135 
2225.891644  	92.779542 
2226.856069  	92.724730 
2227.820493  	92.828271 
2228.784918  	92.896733 
2229.749342  	92.789140 
2230.713767  	92.810858 
2231.678191  	92.881388 
2232.642616  	92.864735 
2233.607040  	92.860473 
2234.571465  	92.898065 
2235.535889  	92.812738 
2236.500313  	92.775347 
2237.464738  	92.797231 
2238.429162  	92.847322 
2239.393587  	92.842028 
2240.358011  	92.867590 
2241.322436  	92.991537 
2242.286860  	92.922488 
2243.251285  	92.791461 
2244.215709  	92.725561 
2245.180134  	92.555750 
2246.144558  	92.541695 
2247.108982  	92.613847 
2248.073407  	92.733806 
2249.037831  	92.702834 
2250.002256  	92.772940 
2250.966680  	92.830425 
2251.931105  	92.900258 
2252.895529  	92.857939 
2253.859954  	92.805953 
2254.824378  	92.724160 
2255.788803  	92.728276 
2256.753227  	92.789027 
2257.717651  	92.761631 
2258.682076  	92.619005 
2259.646500  	92.665732 
2260.610925  	92.532093 
2261.575349  	92.495122 
2262.539774  	92.589463 
2263.504198  	92.696745 
2264.468623  	92.677817 
2265.433047  	92.699112 
2266.397472  	92.673743 
2267.361896  	92.633874 
2268.326321  	92.630418 
2269.290745  	92.662852 
2270.255169  	92.731447 
2271.219594  	92.680785 
2272.184018  	92.544133 
2273.148443  	92.541976 
2274.112867  	92.644018 
2275.077292  	92.724128 
2276.041716  	92.547564 
2277.006141  	92.519269 
2277.970565  	92.613289 
2278.934990  	92.586702 
2279.899414  	92.472267 
2280.863838  	92.508718 
2281.828263  	92.538829 
2282.792687  	92.503860 
2283.757112  	92.466071 
2284.721536  	92.459705 
2285.685961  	92.336738 
2286.650385  	92.367065 
2287.614810  	92.356674 
2288.579234  	92.244376 
2289.543659  	92.185983 
2290.508083  	92.329851 
2291.472507  	92.375992 
2292.436932  	92.407284 
2293.401356  	92.288436 
2294.365781  	92.192376 
2295.330205  	92.244707 
2296.294630  	92.255781 
2297.259054  	92.258880 
2298.223479  	92.156535 
2299.187903  	92.135678 
2300.152328  	92.155691 
2301.116752  	92.133338 
2302.081176  	92.179233 
2303.045601  	92.018652 
2304.010025  	92.048862 
2304.974450  	91.917832 
2305.938874  	91.946240 
2306.903299  	91.875104 
2307.867723  	92.031457 
2308.832148  	91.867684 
2309.796572  	91.930147 
2310.760997  	91.874216 
2311.725421  	91.895390 
2312.689845  	92.004244 
2313.654270  	92.028622 
2314.618694  	91.944505 
2315.583119  	91.960716 
2316.547543  	92.066661 
2317.511968  	92.119499 
2318.476392  	92.097422 
2319.440817  	92.054902 
2320.405241  	91.998945 
2321.369666  	92.021530 
2322.334090  	92.067206 
2323.298515  	92.065819 
2324.262939  	92.084088 
2325.227363  	92.353417 
2326.191788  	92.675288 
2327.156212  	92.866734 
2328.120637  	92.921728 
2329.085061  	92.974122 
2330.049486  	93.044584 
2331.013910  	93.013065 
2331.978335  	93.081706 
2332.942759  	93.283466 
2333.907184  	93.404066 
2334.871608  	93.462888 
2335.836032  	93.604181 
2336.800457  	93.704698 
2337.764881  	93.788712 
2338.729306  	93.802492 
2339.693730  	93.665378 
2340.658155  	93.691268 
2341.622579  	93.769493 
2342.587004  	93.628855 
2343.551428  	93.498914 
2344.515853  	93.384786 
2345.480277  	93.179626 
2346.444701  	92.968582 
2347.409126  	92.890002 
2348.373550  	92.667790 
2349.337975  	92.482927 
2350.302399  	92.646275 
2351.266824  	93.011269 
2352.231248  	93.422510 
2353.195673  	93.539413 
2354.160097  	93.551658 
2355.124522  	93.649959 
2356.088946  	93.830064 
2357.053370  	93.959349 
2358.017795  	94.016700 
2358.982219  	94.037388 
2359.946644  	94.395276 
2360.911068  	94.395698 
2361.875493  	94.197143 
2362.839917  	94.181453 
2363.804342  	94.098675 
2364.768766  	93.919108 
2365.733191  	94.005690 
2366.697615  	93.932626 
2367.662039  	93.601905 
2368.626464  	93.410647 
2369.590888  	93.369504 
2370.555313  	93.179173 
2371.519737  	92.957563 
2372.484162  	92.802022 
2373.448586  	92.659520 
2374.413011  	92.558436 
2375.377435  	92.457421 
2376.341860  	92.344734 
2377.306284  	92.345556 
2378.270708  	92.292116 
2379.235133  	92.145807 
2380.199557  	92.131108 
2381.163982  	92.182753 
2382.128406  	92.248473 
2383.092831  	92.362579 
2384.057255  	92.431293 
2385.021680  	92.503709 
2385.986104  	92.578219 
2386.950529  	92.648311 
2387.914953  	92.713181 
2388.879378  	92.719949 
2389.843802  	92.770099 
2390.808226  	92.803814 
2391.772651  	92.752372 
2392.737075  	92.735775 
2393.701500  	92.767607 
2394.665924  	92.792200 
2395.630349  	92.805350 
2396.594773  	92.800222 
2397.559198  	92.760449 
2398.523622  	92.782596 
2399.488047  	92.820116 
2400.452471  	92.774313 
2401.416895  	92.713852 
2402.381320  	92.729845 
2403.345744  	92.802779 
2404.310169  	92.823411 
2405.274593  	92.768143 
2406.239018  	92.688981 
2407.203442  	92.646427 
2408.167867  	92.654438 
2409.132291  	92.703016 
2410.096716  	92.695600 
2411.061140  	92.667091 
2412.025564  	92.701929 
2412.989989  	92.659148 
2413.954413  	92.644137 
2414.918838  	92.735309 
2415.883262  	92.770684 
2416.847687  	92.722505 
2417.812111  	92.703460 
2418.776536  	92.670554 
2419.740960  	92.657884 
2420.705385  	92.700259 
2421.669809  	92.687233 
2422.634233  	92.694807 
2423.598658  	92.678838 
2424.563082  	92.706281 
2425.527507  	92.743958 
2426.491931  	92.680868 
2427.456356  	92.639426 
2428.420780  	92.702213 
2429.385205  	92.717005 
2430.349629  	92.651686 
2431.314054  	92.645953 
2432.278478  	92.699665 
2433.242902  	92.702379 
2434.207327  	92.686123 
2435.171751  	92.712993 
2436.136176  	92.704216 
2437.100600  	92.726975 
2438.065025  	92.719193 
2439.029449  	92.760540 
2439.993874  	92.758648 
2440.958298  	92.678919 
2441.922723  	92.613846 
2442.887147  	92.591758 
2443.851572  	92.636922 
2444.815996  	92.656903 
2445.780420  	92.612615 
2446.744845  	92.532836 
2447.709269  	92.533479 
2448.673694  	92.572126 
2449.638118  	92.607639 
2450.602543  	92.588717 
2451.566967  	92.572357 
2452.531392  	92.584187 
2453.495816  	92.551298 
2454.460241  	92.548124 
2455.424665  	92.590023 
2456.389089  	92.612188 
2457.353514  	92.617095 
2458.317938  	92.631412 
2459.282363  	92.586604 
2460.246787  	92.577178 
2461.211212  	92.578543 
2462.175636  	92.557315 
2463.140061  	92.552713 
2464.104485  	92.611478 
2465.068910  	92.690171 
2466.033334  	92.653849 
2466.997758  	92.573423 
2467.962183  	92.602517 
2468.926607  	92.616648 
2469.891032  	92.595563 
2470.855456  	92.572973 
2471.819881  	92.569857 
2472.784305  	92.593348 
2473.748730  	92.569994 
2474.713154  	92.573019 
2475.677579  	92.580342 
2476.642003  	92.575294 
2477.606427  	92.596231 
2478.570852  	92.629607 
2479.535276  	92.648710 
2480.499701  	92.607356 
2481.464125  	92.591417 
2482.428550  	92.596001 
2483.392974  	92.616813 
2484.357399  	92.663099 
2485.321823  	92.603964 
2486.286248  	92.530880 
2487.250672  	92.538474 
2488.215096  	92.563982 
2489.179521  	92.559296 
2490.143945  	92.526891 
2491.108370  	92.497745 
2492.072794  	92.534987 
2493.037219  	92.573962 
2494.001643  	92.597834 
2494.966068  	92.595398 
2495.930492  	92.585848 
2496.894917  	92.577127 
2497.859341  	92.527153 
2498.823765  	92.507752 
2499.788190  	92.518371 
2500.752614  	92.512616 
2501.717039  	92.489713 
2502.681463  	92.474013 
2503.645888  	92.498939 
2504.610312  	92.488563 
2505.574737  	92.456149 
2506.539161  	92.484801 
2507.503586  	92.539599 
2508.468010  	92.533534 
2509.432435  	92.530287 
2510.396859  	92.547855 
2511.361283  	92.527200 
2512.325708  	92.501520 
2513.290132  	92.491245 
2514.254557  	92.499803 
2515.218981  	92.505900 
2516.183406  	92.503183 
2517.147830  	92.518710 
2518.112255  	92.503222 
2519.076679  	92.462349 
2520.041104  	92.488899 
2521.005528  	92.475722 
2521.969952  	92.409866 
2522.934377  	92.386620 
2523.898801  	92.425084 
2524.863226  	92.478663 
2525.827650  	92.450315 
2526.792075  	92.435200 
2527.756499  	92.481114 
2528.720924  	92.516978 
2529.685348  	92.453532 
2530.649773  	92.415908 
2531.614197  	92.461045 
2532.578621  	92.500562 
2533.543046  	92.522490 
2534.507470  	92.501409 
2535.471895  	92.466624 
2536.436319  	92.432397 
2537.400744  	92.452888 
2538.365168  	92.466366 
2539.329593  	92.472699 
2540.294017  	92.450274 
2541.258442  	92.434624 
2542.222866  	92.442990 
2543.187290  	92.461570 
2544.151715  	92.483519 
2545.116139  	92.475510 
2546.080564  	92.416453 
2547.044988  	92.371974 
2548.009413  	92.306142 
2548.973837  	92.356930 
2549.938262  	92.390335 
2550.902686  	92.385449 
2551.867111  	92.391348 
2552.831535  	92.368955 
2553.795959  	92.381670 
2554.760384  	92.391053 
2555.724808  	92.351862 
2556.689233  	92.313766 
2557.653657  	92.318084 
2558.618082  	92.304915 
2559.582506  	92.353258 
2560.546931  	92.382575 
2561.511355  	92.318590 
2562.475780  	92.338642 
2563.440204  	92.367477 
2564.404629  	92.373139 
2565.369053  	92.317131 
2566.333477  	92.272705 
2567.297902  	92.306668 
2568.262326  	92.332361 
2569.226751  	92.235041 
2570.191175  	92.147588 
2571.155600  	92.167045 
2572.120024  	92.223404 
2573.084449  	92.270972 
2574.048873  	92.258023 
2575.013298  	92.146707 
2575.977722  	92.121695 
2576.942146  	92.177410 
2577.906571  	92.209823 
2578.870995  	92.192191 
2579.835420  	92.199393 
2580.799844  	92.225145 
2581.764269  	92.193238 
2582.728693  	92.188723 
2583.693118  	92.155118 
2584.657542  	92.091759 
2585.621967  	92.080383 
2586.586391  	92.069650 
2587.550815  	92.085421 
2588.515240  	92.076181 
2589.479664  	92.060821 
2590.444089  	92.077450 
2591.408513  	92.118767 
2592.372938  	92.104089 
2593.337362  	92.069096 
2594.301787  	92.062668 
2595.266211  	92.097237 
2596.230636  	92.144873 
2597.195060  	92.172803 
2598.159484  	92.194391 
2599.123909  	92.178010 
2600.088333  	92.157811 
2601.052758  	92.102217 
2602.017182  	92.059921 
2602.981607  	92.065387 
2603.946031  	92.041792 
2604.910456  	92.045015 
2605.874880  	92.068059 
2606.839305  	92.051472 
2607.803729  	92.052541 
2608.768153  	92.076528 
2609.732578  	92.028492 
2610.697002  	91.988734 
2611.661427  	92.016477 
2612.625851  	92.056546 
2613.590276  	92.081043 
2614.554700  	92.064112 
2615.519125  	92.043160 
2616.483549  	92.057197 
2617.447974  	92.039499 
2618.412398  	92.071039 
2619.376822  	92.076017 
2620.341247  	92.042685 
2621.305671  	92.017006 
2622.270096  	91.995126 
2623.234520  	92.010327 
2624.198945  	92.001614 
2625.163369  	92.015741 
2626.127794  	92.007863 
2627.092218  	92.010373 
2628.056643  	92.046007 
2629.021067  	92.040212 
2629.985492  	92.029733 
2630.949916  	92.058600 
2631.914340  	92.015059 
2632.878765  	91.982244 
2633.843189  	92.027163 
2634.807614  	92.015054 
2635.772038  	92.020780 
2636.736463  	91.999447 
2637.700887  	91.996855 
2638.665312  	91.989473 
2639.629736  	91.965143 
2640.594161  	91.986451 
2641.558585  	91.983024 
2642.523009  	91.933018 
2643.487434  	91.940715 
2644.451858  	91.958548 
2645.416283  	91.932045 
2646.380707  	91.934837 
2647.345132  	91.967021 
2648.309556  	91.973865 
2649.273981  	91.945387 
2650.238405  	91.948917 
2651.202830  	91.984135 
2652.167254  	91.959139 
2653.131678  	91.901827 
2654.096103  	91.890116 
2655.060527  	91.889424 
2656.024952  	91.879468 
2656.989376  	91.887779 
2657.953801  	91.884090 
2658.918225  	91.919386 
2659.882650  	91.936924 
2660.847074  	91.950218 
2661.811499  	91.969001 
2662.775923  	91.948037 
2663.740347  	91.958253 
2664.704772  	91.955083 
2665.669196  	91.947505 
2666.633621  	91.959589 
2667.598045  	91.964090 
2668.562470  	91.945618 
2669.526894  	91.939184 
2670.491319  	91.955975 
2671.455743  	91.987422 
2672.420168  	91.982228 
2673.384592  	91.939464 
2674.349016  	91.922484 
2675.313441  	91.912606 
2676.277865  	91.903028 
2677.242290  	91.892720 
2678.206714  	91.875859 
2679.171139  	91.874580 
2680.135563  	91.898767 
2681.099988  	91.910793 
2682.064412  	91.888017 
2683.028837  	91.879898 
2683.993261  	91.880940 
2684.957686  	91.868138 
2685.922110  	91.871924 
2686.886534  	91.866950 
2687.850959  	91.843768 
2688.815383  	91.823458 
2689.779808  	91.829347 
2690.744232  	91.824926 
2691.708657  	91.835009 
2692.673081  	91.861554 
2693.637506  	91.843826 
2694.601930  	91.819060 
2695.566355  	91.822897 
2696.530779  	91.805978 
2697.495203  	91.776427 
2698.459628  	91.778147 
2699.424052  	91.789180 
2700.388477  	91.768981 
2701.352901  	91.743261 
2702.317326  	91.732789 
2703.281750  	91.755738 
2704.246175  	91.781643 
2705.210599  	91.756316 
2706.175024  	91.744893 
2707.139448  	91.744232 
2708.103872  	91.752599 
2709.068297  	91.781772 
2710.032721  	91.761379 
2710.997146  	91.737770 
2711.961570  	91.745711 
2712.925995  	91.738023 
2713.890419  	91.708239 
2714.854844  	91.713123 
2715.819268  	91.716581 
2716.783693  	91.699033 
2717.748117  	91.700441 
2718.712541  	91.686068 
2719.676966  	91.679313 
2720.641390  	91.677912 
2721.605815  	91.664626 
2722.570239  	91.653612 
2723.534664  	91.638579 
2724.499088  	91.592264 
2725.463513  	91.546720 
2726.427937  	91.542954 
2727.392362  	91.544703 
2728.356786  	91.525578 
2729.321210  	91.472897 
2730.285635  	91.442529 
2731.250059  	91.399741 
2732.214484  	91.395811 
2733.178908  	91.398899 
2734.143333  	91.403287 
2735.107757  	91.371609 
2736.072182  	91.354383 
2737.036606  	91.376541 
2738.001031  	91.349139 
2738.965455  	91.302729 
2739.929879  	91.264750 
2740.894304  	91.259441 
2741.858728  	91.280071 
2742.823153  	91.252691 
2743.787577  	91.233818 
2744.752002  	91.227020 
2745.716426  	91.208596 
2746.680851  	91.165846 
2747.645275  	91.166050 
2748.609700  	91.178121 
2749.574124  	91.182261 
2750.538549  	91.173819 
2751.502973  	91.154939 
2752.467397  	91.159328 
2753.431822  	91.149321 
2754.396246  	91.123657 
2755.360671  	91.128083 
2756.325095  	91.140712 
2757.289520  	91.114146 
2758.253944  	91.090697 
2759.218369  	91.083105 
2760.182793  	91.062653 
2761.147218  	91.047708 
2762.111642  	91.051359 
2763.076066  	91.072462 
2764.040491  	91.062983 
2765.004915  	91.033518 
2765.969340  	91.012944 
2766.933764  	91.027053 
2767.898189  	91.002861 
2768.862613  	90.971660 
2769.827038  	90.983283 
2770.791462  	90.962815 
2771.755887  	90.910944 
2772.720311  	90.923599 
2773.684735  	90.925980 
2774.649160  	90.890338 
2775.613584  	90.883556 
2776.578009  	90.906464 
2777.542433  	90.876493 
2778.506858  	90.830728 
2779.471282  	90.823792 
2780.435707  	90.809998 
2781.400131  	90.796622 
2782.364556  	90.783975 
2783.328980  	90.768328 
2784.293404  	90.746491 
2785.257829  	90.733106 
2786.222253  	90.746524 
2787.186678  	90.739565 
2788.151102  	90.699251 
2789.115527  	90.701705 
2790.079951  	90.685433 
2791.044376  	90.660314 
2792.008800  	90.617210 
2792.973225  	90.555710 
2793.937649  	90.536137 
2794.902073  	90.521451 
2795.866498  	90.495344 
2796.830922  	90.447424 
2797.795347  	90.425422 
2798.759771  	90.395123 
2799.724196  	90.309887 
2800.688620  	90.259605 
2801.653045  	90.253910 
2802.617469  	90.205403 
2803.581894  	90.183659 
2804.546318  	90.159262 
2805.510743  	90.138424 
2806.475167  	90.096151 
2807.439591  	90.030680 
2808.404016  	89.988894 
2809.368440  	89.959693 
2810.332865  	89.928110 
2811.297289  	89.869708 
2812.261714  	89.800245 
2813.226138  	89.770653 
2814.190563  	89.716220 
2815.154987  	89.670570 
2816.119412  	89.615165 
2817.083836  	89.532827 
2818.048260  	89.472047 
2819.012685  	89.439039 
2819.977109  	89.413952 
2820.941534  	89.341338 
2821.905958  	89.269576 
2822.870383  	89.188872 
2823.834807  	89.139437 
2824.799232  	89.084185 
2825.763656  	89.056087 
2826.728081  	89.022389 
2827.692505  	88.950101 
2828.656929  	88.896576 
2829.621354  	88.858402 
2830.585778  	88.786074 
2831.550203  	88.704775 
2832.514627  	88.610171 
2833.479052  	88.486530 
2834.443476  	88.371205 
2835.407901  	88.286170 
2836.372325  	88.159730 
2837.336750  	87.972533 
2838.301174  	87.789631 
2839.265598  	87.590162 
2840.230023  	87.327320 
2841.194447  	87.022897 
2842.158872  	86.706774 
2843.123296  	86.285036 
2844.087721  	85.800280 
2845.052145  	85.294657 
2846.016570  	84.708842 
2846.980994  	83.989307 
2847.945419  	83.218512 
2848.909843  	82.437915 
2849.874267  	81.708506 
2850.838692  	81.112559 
2851.803116  	80.569450 
2852.767541  	80.048213 
2853.731965  	79.591345 
2854.696390  	79.174560 
2855.660814  	78.824007 
2856.625239  	78.522286 
2857.589663  	78.277077 
2858.554088  	78.096826 
2859.518512  	78.030515 
2860.482936  	78.063460 
2861.447361  	78.166993 
2862.411785  	78.332706 
2863.376210  	78.562769 
2864.340634  	78.801554 
2865.305059  	79.060281 
2866.269483  	79.318722 
2867.233908  	79.510001 
2868.198332  	79.665942 
2869.162757  	79.803352 
2870.127181  	79.932218 
2871.091606  	80.046248 
2872.056030  	80.180176 
2873.020454  	80.371571 
2873.984879  	80.577683 
2874.949303  	80.742406 
2875.913728  	80.978328 
2876.878152  	81.296430 
2877.842577  	81.636929 
2878.807001  	82.029918 
2879.771426  	82.452363 
2880.735850  	82.803527 
2881.700275  	83.112208 
2882.664699  	83.438775 
2883.629123  	83.746936 
2884.593548  	84.006590 
2885.557972  	84.208332 
2886.522397  	84.338644 
2887.486821  	84.408039 
2888.451246  	84.454634 
2889.415670  	84.477001 
2890.380095  	84.444816 
2891.344519  	84.353527 
2892.308944  	84.232430 
2893.273368  	84.060656 
2894.237792  	83.867420 
2895.202217  	83.624560 
2896.166641  	83.407889 
2897.131066  	83.142406 
2898.095490  	82.858406 
2899.059915  	82.617989 
2900.024339  	82.282938 
2900.988764  	81.901255 
2901.953188  	81.565509 
2902.917613  	81.236407 
2903.882037  	80.897301 
2904.846461  	80.581788 
2905.810886  	80.252924 
2906.775310  	79.927708 
2907.739735  	79.607858 
2908.704159  	79.325175 
2909.668584  	79.053485 
2910.633008  	78.725262 
2911.597433  	78.430581 
2912.561857  	78.166716 
2913.526282  	77.842644 
2914.490706  	77.455908 
2915.455130  	76.997437 
2916.419555  	76.542763 
2917.383979  	76.132379 
2918.348404  	75.735068 
2919.312828  	75.405533 
2920.277253  	75.032618 
2921.241677  	74.656923 
2922.206102  	74.326824 
2923.170526  	73.986413 
2924.134951  	73.683226 
2925.099375  	73.351027 
2926.063800  	72.997318 
2927.028224  	72.675542 
2927.992648  	72.358867 
2928.957073  	72.062199 
2929.921497  	71.753120 
2930.885922  	71.522064 
2931.850346  	71.388631 
2932.814771  	71.336845 
2933.779195  	71.368484 
2934.743620  	71.505502 
2935.708044  	71.714865 
2936.672469  	72.025154 
2937.636893  	72.449029 
2938.601317  	72.933135 
2939.565742  	73.443017 
2940.530166  	74.000222 
2941.494591  	74.516875 
2942.459015  	75.054587 
2943.423440  	75.595497 
2944.387864  	76.052357 
2945.352289  	76.557846 
2946.316713  	77.136926 
2947.281138  	77.765131 
2948.245562  	78.463190 
2949.209986  	79.158459 
2950.174411  	79.865057 
2951.138835  	80.662261 
2952.103260  	81.392369 
2953.067684  	82.035690 
2954.032109  	82.636340 
2954.996533  	83.225517 
2955.960958  	83.787737 
2956.925382  	84.295416 
2957.889807  	84.746497 
2958.854231  	85.135349 
2959.818655  	85.477774 
2960.783080  	85.808416 
2961.747504  	86.104830 
2962.711929  	86.383452 
2963.676353  	86.665536 
2964.640778  	86.902512 
2965.605202  	87.091890 
2966.569627  	87.288419 
2967.534051  	87.593791 
2968.498476  	87.917158 
2969.462900  	88.167938 
2970.427324  	88.413285 
2971.391749  	88.665866 
2972.356173  	88.882927 
2973.320598  	89.108898 
2974.285022  	89.300640 
2975.249447  	89.426310 
2976.213871  	89.583088 
2977.178296  	89.746096 
2978.142720  	89.869041 
2979.107145  	90.016050 
2980.071569  	90.196724 
2981.035993  	90.340645 
2982.000418  	90.451541 
2982.964842  	90.539168 
2983.929267  	90.603378 
2984.893691  	90.688888 
2985.858116  	90.748113 
2986.822540  	90.781358 
2987.786965  	90.820123 
2988.751389  	90.903003 
2989.715814  	90.939411 
2990.680238  	90.980418 
2991.644663  	91.067034 
2992.609087  	91.100235 
2993.573511  	91.100566 
2994.537936  	91.118852 
2995.502360  	91.183280 
2996.466785  	91.219729 
2997.431209  	91.217948 
2998.395634  	91.253986 
2999.360058  	91.288407 
3000.324483  	91.312887 
3001.288907  	91.259554 
3002.253332  	91.223368 
3003.217756  	91.227819 
3004.182180  	91.181485 
3005.146605  	91.197481 
3006.111029  	91.290224 
3007.075454  	91.310348 
3008.039878  	91.261506 
3009.004303  	91.248679 
3009.968727  	91.229955 
3010.933152  	91.152118 
3011.897576  	91.094294 
3012.862001  	91.029848 
3013.826425  	91.095206 
3014.790849  	91.121741 
3015.755274  	91.073095 
3016.719698  	91.085593 
3017.684123  	91.091048 
3018.648547  	91.027517 
3019.612972  	90.971244 
3020.577396  	90.956938 
3021.541821  	90.905521 
3022.506245  	90.847552 
3023.470670  	90.843334 
3024.435094  	90.849843 
3025.399518  	90.761670 
3026.363943  	90.674735 
3027.328367  	90.663907 
3028.292792  	90.615376 
3029.257216  	90.588137 
3030.221641  	90.507291 
3031.186065  	90.343119 
3032.150490  	90.259750 
3033.114914  	90.315409 
3034.079339  	90.276843 
3035.043763  	90.220793 
3036.008187  	90.179803 
3036.972612  	90.114497 
3037.937036  	90.003289 
3038.901461  	89.934373 
3039.865885  	89.886391 
3040.830310  	89.872434 
3041.794734  	89.812583 
3042.759159  	89.729533 
3043.723583  	89.642069 
3044.688008  	89.499476 
3045.652432  	89.390185 
3046.616857  	89.280732 
3047.581281  	89.150348 
3048.545705  	88.991291 
3049.510130  	88.851279 
3050.474554  	88.789446 
3051.438979  	88.720293 
3052.403403  	88.645268 
3053.367828  	88.512021 
3054.332252  	88.359045 
3055.296677  	88.266648 
3056.261101  	88.102650 
3057.225526  	88.011148 
3058.189950  	88.041803 
3059.154374  	87.984726 
3060.118799  	87.927950 
3061.083223  	87.919891 
3062.047648  	87.893552 
3063.012072  	87.833298 
3063.976497  	87.740828 
3064.940921  	87.646086 
3065.905346  	87.720560 
3066.869770  	87.725259 
3067.834195  	87.721371 
3068.798619  	87.741684 
3069.763043  	87.757766 
3070.727468  	87.813082 
3071.691892  	87.827426 
3072.656317  	87.748701 
3073.620741  	87.715147 
3074.585166  	87.724622 
3075.549590  	87.784217 
3076.514015  	87.816918 
3077.478439  	87.791493 
3078.442864  	87.769185 
3079.407288  	87.754637 
3080.371712  	87.750165 
3081.336137  	87.800867 
3082.300561  	87.795239 
3083.264986  	87.850015 
3084.229410  	87.952168 
3085.193835  	87.955636 
3086.158259  	87.984219 
3087.122684  	88.032411 
3088.087108  	88.027630 
3089.051533  	88.076542 
3090.015957  	88.114199 
3090.980381  	88.160797 
3091.944806  	88.237711 
3092.909230  	88.289989 
3093.873655  	88.288733 
3094.838079  	88.299674 
3095.802504  	88.348025 
3096.766928  	88.436886 
3097.731353  	88.530982 
3098.695777  	88.604684 
3099.660202  	88.649500 
3100.624626  	88.687838 
3101.589050  	88.697581 
3102.553475  	88.767765 
3103.517899  	88.850302 
3104.482324  	88.965443 
3105.446748  	88.990847 
3106.411173  	89.022158 
3107.375597  	89.098339 
3108.340022  	89.199920 
3109.304446  	89.248711 
3110.268871  	89.264182 
3111.233295  	89.279868 
3112.197720  	89.307010 
3113.162144  	89.382885 
3114.126568  	89.445148 
3115.090993  	89.456185 
3116.055417  	89.487233 
3117.019842  	89.549177 
3117.984266  	89.561527 
3118.948691  	89.531387 
3119.913115  	89.667947 
3120.877540  	89.749126 
3121.841964  	89.691691 
3122.806389  	89.663065 
3123.770813  	89.722359 
3124.735237  	89.751634 
3125.699662  	89.718388 
3126.664086  	89.686961 
3127.628511  	89.752381 
3128.592935  	89.773843 
3129.557360  	89.740255 
3130.521784  	89.721155 
3131.486209  	89.776604 
3132.450633  	89.755769 
3133.415058  	89.686117 
3134.379482  	89.774204 
3135.343906  	89.876731 
3136.308331  	89.856462 
3137.272755  	89.773561 
3138.237180  	89.744294 
3139.201604  	89.780657 
3140.166029  	89.801359 
3141.130453  	89.765389 
3142.094878  	89.625340 
3143.059302  	89.548678 
3144.023727  	89.592778 
3144.988151  	89.617151 
3145.952575  	89.563747 
3146.917000  	89.523581 
3147.881424  	89.521694 
3148.845849  	89.558297 
3149.810273  	89.523001 
3150.774698  	89.481812 
3151.739122  	89.437290 
3152.703547  	89.396987 
3153.667971  	89.368513 
3154.632396  	89.394605 
3155.596820  	89.355541 
3156.561244  	89.221715 
3157.525669  	89.132820 
3158.490093  	89.140445 
3159.454518  	89.094239 
3160.418942  	89.031290 
3161.383367  	88.967334 
3162.347791  	88.905001 
3163.312216  	88.809533 
3164.276640  	88.771428 
3165.241065  	88.784467 
3166.205489  	88.721904 
3167.169914  	88.604052 
3168.134338  	88.488256 
3169.098762  	88.383288 
3170.063187  	88.310475 
3171.027611  	88.275914 
3171.992036  	88.243361 
3172.956460  	88.178408 
3173.920885  	88.077771 
3174.885309  	87.947920 
3175.849734  	87.903366 
3176.814158  	87.847381 
3177.778583  	87.757029 
3178.743007  	87.670458 
3179.707431  	87.615674 
3180.671856  	87.545209 
3181.636280  	87.549174 
3182.600705  	87.507651 
3183.565129  	87.353386 
3184.529554  	87.280650 
3185.493978  	87.286446 
3186.458403  	87.221271 
3187.422827  	87.116806 
3188.387252  	87.026891 
3189.351676  	87.055305 
3190.316100  	87.043012 
3191.280525  	86.966062 
3192.244949  	86.907942 
3193.209374  	86.857523 
3194.173798  	86.773286 
3195.138223  	86.708834 
3196.102647  	86.594860 
3197.067072  	86.521492 
3198.031496  	86.477847 
3198.995921  	86.549327 
3199.960345  	86.498984 
3200.924769  	86.458875 
3201.889194  	86.444681 
3202.853618  	86.369823 
3203.818043  	86.283286 
3204.782467  	86.268003 
3205.746892  	86.242550 
3206.711316  	86.165027 
3207.675741  	86.120856 
3208.640165  	86.104962 
3209.604590  	85.981554 
3210.569014  	85.937824 
3211.533438  	86.003863 
3212.497863  	86.025444 
3213.462287  	85.908080 
3214.426712  	85.762109 
3215.391136  	85.711021 
3216.355561  	85.669164 
3217.319985  	85.646827 
3218.284410  	85.604056 
3219.248834  	85.489925 
3220.213259  	85.439867 
3221.177683  	85.437088 
3222.142107  	85.324611 
3223.106532  	85.161388 
3224.070956  	85.118301 
3225.035381  	85.059237 
3225.999805  	84.915824 
3226.964230  	84.768887 
3227.928654  	84.606305 
3228.893079  	84.484535 
3229.857503  	84.366974 
3230.821928  	84.229809 
3231.786352  	84.157895 
3232.750777  	84.062786 
3233.715201  	83.959477 
3234.679625  	83.794740 
3235.644050  	83.614128 
3236.608474  	83.434340 
3237.572899  	83.296388 
3238.537323  	83.176544 
3239.501748  	82.985754 
3240.466172  	82.755786 
3241.430597  	82.672444 
3242.395021  	82.494251 
3243.359446  	82.256935 
3244.323870  	82.027049 
3245.288294  	81.796112 
3246.252719  	81.674995 
3247.217143  	81.511441 
3248.181568  	81.284193 
3249.145992  	81.065666 
3250.110417  	80.901480 
3251.074841  	80.755472 
3252.039266  	80.541653 
3253.003690  	80.251897 
3253.968115  	79.901766 
3254.932539  	79.647957 
3255.896963  	79.461015 
3256.861388  	79.205311 
3257.825812  	78.996360 
3258.790237  	78.759313 
3259.754661  	78.489695 
3260.719086  	78.197948 
3261.683510  	77.923258 
3262.647935  	77.679946 
3263.612359  	77.404150 
3264.576784  	77.141014 
3265.541208  	76.851151 
3266.505632  	76.583744 
3267.470057  	76.302094 
3268.434481  	76.038711 
3269.398906  	75.788257 
3270.363330  	75.538102 
3271.327755  	75.248437 
3272.292179  	74.906506 
3273.256604  	74.511864 
3274.221028  	74.202362 
3275.185453  	73.959812 
3276.149877  	73.602052 
3277.114301  	73.208082 
3278.078726  	72.862176 
3279.043150  	72.460110 
3280.007575  	72.086989 
3280.971999  	71.732451 
3281.936424  	71.403736 
3282.900848  	70.987752 
3283.865273  	70.550878 
3284.829697  	70.195872 
3285.794122  	69.863334 
3286.758546  	69.517259 
3287.722971  	69.133051 
3288.687395  	68.752329 
3289.651819  	68.463003 
3290.616244  	68.173232 
3291.580668  	67.893748 
3292.545093  	67.674916 
3293.509517  	67.570448 
3294.473942  	67.457499 
3295.438366  	67.370533 
3296.402791  	67.315339 
3297.367215  	67.350338 
3298.331640  	67.435417 
3299.296064  	67.607059 
3300.260488  	67.843163 
3301.224913  	68.096785 
3302.189337  	68.399628 
3303.153762  	68.753595 
3304.118186  	69.150761 
3305.082611  	69.630512 
3306.047035  	70.126290 
3307.011460  	70.700637 
3307.975884  	71.233121 
3308.940309  	71.742585 
3309.904733  	72.370820 
3310.869157  	73.034851 
3311.833582  	73.744368 
3312.798006  	74.486149 
3313.762431  	75.122808 
3314.726855  	75.756894 
3315.691280  	76.367212 
3316.655704  	76.948603 
3317.620129  	77.547367 
3318.584553  	78.130369 
3319.548978  	78.663190 
3320.513402  	79.217689 
3321.477826  	79.702368 
3322.442251  	80.204967 
3323.406675  	80.660720 
3324.371100  	81.059747 
3325.335524  	81.440473 
3326.299949  	81.814816 
3327.264373  	82.157399 
3328.228798  	82.510750 
3329.193222  	82.824975 
3330.157647  	83.087483 
3331.122071  	83.371326 
3332.086495  	83.693729 
3333.050920  	83.991358 
3334.015344  	84.244044 
3334.979769  	84.427784 
3335.944193  	84.668507 
3336.908618  	84.828018 
3337.873042  	85.034759 
3338.837467  	85.274163 
3339.801891  	85.508920 
3340.766316  	85.684965 
3341.730740  	85.853420 
3342.695164  	86.023845 
3343.659589  	86.249012 
3344.624013  	86.465733 
3345.588438  	86.627471 
3346.552862  	86.729068 
3347.517287  	86.786369 
3348.481711  	86.848831 
3349.446136  	86.978802 
3350.410560  	87.095834 
3351.374985  	87.285510 
3352.339409  	87.474966 
3353.303834  	87.548306 
3354.268258  	87.627835 
3355.232682  	87.680969 
3356.197107  	87.617786 
3357.161531  	87.734199 
3358.125956  	87.949195 
3359.090380  	88.041558 
3360.054805  	87.965387 
3361.019229  	87.943522 
3361.983654  	88.003409 
3362.948078  	88.206249 
3363.912503  	88.286122 
3364.876927  	88.244518 
3365.841351  	88.311713 
3366.805776  	88.432777 
3367.770200  	88.436024 
3368.734625  	88.484051 
3369.699049  	88.599772 
3370.663474  	88.699297 
3371.627898  	88.782486 
3372.592323  	88.820061 
3373.556747  	88.812273 
3374.521172  	88.903135 
3375.485596  	88.978998 
3376.450020  	88.953447 
3377.414445  	88.951038 
3378.378869  	89.057098 
3379.343294  	89.149817 
3380.307718  	89.125422 
3381.272143  	89.217518 
3382.236567  	89.317519 
3383.200992  	89.236473 
3384.165416  	89.144998 
3385.129841  	89.161113 
3386.094265  	89.213883 
3387.058689  	89.344807 
3388.023114  	89.483977 
3388.987538  	89.516762 
3389.951963  	89.503147 
3390.916387  	89.483023 
3391.880812  	89.403787 
3392.845236  	89.195525 
3393.809661  	89.283358 
3394.774085  	89.493023 
3395.738510  	89.530714 
3396.702934  	89.487442 
3397.667358  	89.409511 
3398.631783  	89.577364 
3399.596207  	89.711724 
3400.560632  	89.651379 
3401.525056  	89.595965 
3402.489481  	89.651626 
3403.453905  	89.671121 
3404.418330  	89.652540 
3405.382754  	89.665065 
3406.347179  	89.714175 
3407.311603  	89.696472 
3408.276028  	89.681013 
3409.240452  	89.666554 
3410.204876  	89.668490 
3411.169301  	89.715411 
3412.133725  	89.764160 
3413.098150  	89.819359 
3414.062574  	89.858882 
3415.026999  	89.875638 
3415.991423  	89.821354 
3416.955848  	89.851647 
3417.920272  	89.879590 
3418.884697  	89.885883 
3419.849121  	89.690317 
3420.813545  	89.464318 
3421.777970  	89.511445 
3422.742394  	89.695976 
3423.706819  	89.912573 
3424.671243  	89.990413 
3425.635668  	89.955980 
3426.600092  	89.948960 
3427.564517  	89.960594 
3428.528941  	89.987737 
3429.493366  	90.040174 
3430.457790  	89.999199 
3431.422214  	89.951144 
3432.386639  	89.994271 
3433.351063  	90.060054 
3434.315488  	90.152117 
3435.279912  	90.103872 
3436.244337  	90.026509 
3437.208761  	90.044958 
3438.173186  	90.073626 
3439.137610  	90.038185 
3440.102035  	90.070938 
3441.066459  	90.088059 
3442.030883  	90.040707 
3442.995308  	89.905721 
3443.959732  	90.051099 
3444.924157  	90.126800 
3445.888581  	90.067761 
3446.853006  	89.664105 
3447.817430  	89.363548 
3448.781855  	89.849408 
3449.746279  	90.191816 
3450.710704  	90.245328 
3451.675128  	90.237728 
3452.639552  	90.243588 
3453.603977  	90.266518 
3454.568401  	90.300418 
3455.532826  	90.262912 
3456.497250  	90.245030 
3457.461675  	90.207851 
3458.426099  	90.225442 
3459.390524  	90.308617 
3460.354948  	90.284731 
3461.319373  	90.159868 
3462.283797  	90.104099 
3463.248221  	90.155525 
3464.212646  	90.374717 
3465.177070  	90.419050 
3466.141495  	90.267576 
3467.105919  	90.082250 
3468.070344  	90.209378 
3469.034768  	90.360787 
3469.999193  	90.359226 
3470.963617  	90.356454 
3471.928042  	90.437767 
3472.892466  	90.477496 
3473.856891  	90.450648 
3474.821315  	90.370198 
3475.785739  	90.419791 
3476.750164  	90.520604 
3477.714588  	90.527389 
3478.679013  	90.545764 
3479.643437  	90.483622 
3480.607862  	90.187937 
3481.572286  	90.080230 
3482.536711  	90.073245 
3483.501135  	90.310751 
3484.465560  	90.470753 
3485.429984  	90.435970 
3486.394408  	90.482545 
3487.358833  	90.422294 
3488.323257  	90.178102 
3489.287682  	90.263550 
3490.252106  	90.492187 
3491.216531  	90.526873 
3492.180955  	90.620293 
3493.145380  	90.704974 
3494.109804  	90.744492 
3495.074229  	90.563556 
3496.038653  	90.359342 
3497.003077  	90.296065 
3497.967502  	90.528289 
3498.931926  	90.634247 
3499.896351  	90.522070 
3500.860775  	90.486944 
3501.825200  	90.230133 
3502.789624  	89.736819 
3503.754049  	89.672924 
3504.718473  	90.068448 
3505.682898  	90.444717 
3506.647322  	90.686842 
3507.611746  	90.847643 
3508.576171  	90.616780 
3509.540595  	90.032708 
3510.505020  	90.265349 
3511.469444  	90.762778 
3512.433869  	90.802360 
3513.398293  	90.841032 
3514.362718  	90.977202 
3515.327142  	91.129172 
3516.291567  	91.142076 
3517.255991  	91.036772 
3518.220415  	90.980934 
3519.184840  	90.974646 
3520.149264  	91.036119 
3521.113689  	91.179435 
3522.078113  	90.968986 
3523.042538  	90.273501 
3524.006962  	90.010296 
3524.971387  	90.404022 
3525.935811  	90.527240 
3526.900236  	90.509891 
3527.864660  	90.496245 
3528.829085  	90.585217 
3529.793509  	90.723329 
3530.757933  	90.998274 
3531.722358  	91.033997 
3532.686782  	91.275609 
3533.651207  	91.501496 
3534.615631  	91.588975 
3535.580056  	91.327013 
3536.544480  	90.754791 
3537.508905  	90.967803 
3538.473329  	91.497447 
3539.437754  	91.522382 
3540.402178  	91.559353 
3541.366602  	91.623895 
3542.331027  	91.660484 
3543.295451  	91.406230 
3544.259876  	91.041945 
3545.224300  	90.293570 
3546.188725  	90.106803 
3547.153149  	90.185454 
3548.117574  	90.653437 
3549.081998  	91.480048 
3550.046423  	91.711214 
3551.010847  	91.593983 
3551.975271  	91.134173 
3552.939696  	90.925091 
3553.904120  	91.183878 
3554.868545  	91.582901 
3555.832969  	92.032288 
3556.797394  	91.991355 
3557.761818  	92.001439 
3558.726243  	92.144795 
3559.690667  	91.799491 
3560.655092  	91.380178 
3561.619516  	91.769258 
3562.583940  	91.736953 
3563.548365  	91.581487 
3564.512789  	91.536007 
3565.477214  	90.729669 
3566.441638  	88.645852 
3567.406063  	88.618389 
3568.370487  	89.065631 
3569.334912  	90.494476 
3570.299336  	91.537355 
3571.263761  	91.779432 
3572.228185  	92.201241 
3573.192609  	92.246416 
3574.157034  	92.156332 
3575.121458  	92.077444 
3576.085883  	92.136996 
3577.050307  	92.088811 
3578.014732  	92.085252 
3578.979156  	92.175566 
3579.943581  	91.854167 
3580.908005  	91.850386 
3581.872430  	92.256391 
3582.836854  	92.321720 
3583.801278  	92.217939 
3584.765703  	92.253428 
3585.730127  	91.860704 
3586.694552  	90.331796 
3587.658976  	89.418926 
3588.623401  	89.732815 
3589.587825  	90.819114 
3590.552250  	92.130011 
3591.516674  	92.436327 
3592.481099  	92.305665 
3593.445523  	91.658142 
3594.409948  	91.700838 
3595.374372  	91.262447 
3596.338796  	91.190101 
3597.303221  	92.069003 
3598.267645  	92.149168 
3599.232070  	91.900982 
3600.196494  	91.961114 
3601.160919  	91.681390 
3602.125343  	92.018507 
3603.089768  	92.259047 
3604.054192  	92.587186 
3605.018617  	92.811487 
3605.983041  	92.639748 
3606.947465  	91.575919 
3607.911890  	91.097765 
3608.876314  	91.339221 
3609.840739  	91.156653 
3610.805163  	92.162267 
3611.769588  	92.056663 
3612.734012  	90.843649 
3613.698437  	91.050314 
3614.662861  	91.244090 
3615.627286  	91.331791 
3616.591710  	92.264566 
3617.556134  	91.714775 
3618.520559  	90.964156 
3619.484983  	90.880456 
3620.449408  	90.892654 
3621.413832  	91.626353 
3622.378257  	92.323731 
3623.342681  	92.764866 
3624.307106  	92.917065 
3625.271530  	92.855590 
3626.235955  	92.391093 
3627.200379  	92.188998 
3628.164803  	91.277142 
3629.129228  	88.691988 
3630.093652  	89.361700 
3631.058077  	91.595598 
3632.022501  	92.464087 
3632.986926  	92.508011 
3633.951350  	91.913856 
3634.915775  	92.345234 
3635.880199  	92.960321 
3636.844624  	93.029938 
3637.809048  	92.842256 
3638.773472  	92.783799 
3639.737897  	93.094627 
3640.702321  	93.209412 
3641.666746  	92.886583 
3642.631170  	92.412315 
3643.595595  	92.647134 
3644.560019  	93.083595 
3645.524444  	92.813705 
3646.488868  	91.698781 
3647.453293  	89.966154 
3648.417717  	90.183917 
3649.382142  	90.009284 
3650.346566  	89.175450 
3651.310990  	89.386940 
3652.275415  	91.470170 
3653.239839  	92.700748 
3654.204264  	93.052849 
3655.168688  	92.964600 
3656.133113  	92.067251 
3657.097537  	91.802545 
3658.061962  	92.894271 
3659.026386  	93.152274 
3659.990811  	93.046730 
3660.955235  	93.150660 
3661.919659  	93.388037 
3662.884084  	93.434979 
3663.848508  	93.430374 
3664.812933  	93.367591 
3665.777357  	93.366834 
3666.741782  	93.400804 
3667.706206  	93.289317 
3668.670631  	92.385281 
3669.635055  	91.266705 
3670.599480  	90.523479 
3671.563904  	91.091193 
3672.528328  	92.656423 
3673.492753  	92.874935 
3674.457177  	91.706614 
3675.421602  	89.005603 
3676.386026  	89.537080 
3677.350451  	91.475913 
3678.314875  	92.228509 
3679.279300  	92.209427 
3680.243724  	92.321251 
3681.208149  	93.114495 
3682.172573  	93.423714 
3683.136997  	93.417111 
3684.101422  	93.303924 
3685.065846  	93.199984 
3686.030271  	93.321112 
3686.994695  	93.155333 
3687.959120  	92.348875 
3688.923544  	91.462610 
3689.887969  	91.977169 
3690.852393  	91.317174 
3691.816818  	91.181314 
3692.781242  	92.729627 
3693.745666  	93.114614 
3694.710091  	93.206362 
3695.674515  	93.327220 
3696.638940  	93.213890 
3697.603364  	93.334478 
3698.567789  	93.551376 
3699.532213  	93.461616 
3700.496638  	93.434168 
3701.461062  	92.685179 
3702.425487  	92.130450 
3703.389911  	93.137714 
3704.354335  	93.520751 
3705.318760  	93.355890 
3706.283184  	93.363416 
3707.247609  	93.460565 
3708.212033  	93.388673 
3709.176458  	92.741959 
3710.140882  	92.187866 
3711.105307  	91.929479 
3712.069731  	90.818887 
3713.034156  	91.087050 
3713.998580  	92.427774 
3714.963005  	92.465469 
3715.927429  	92.797154 
3716.891853  	93.446852 
3717.856278  	93.599601 
3718.820702  	92.946959 
3719.785127  	92.669519 
3720.749551  	93.249560 
3721.713976  	92.773600 
3722.678400  	91.484657 
3723.642825  	92.219044 
3724.607249  	92.553581 
3725.571674  	91.818521 
3726.536098  	91.570593 
3727.500522  	91.855498 
3728.464947  	92.788262 
3729.429371  	93.322594 
3730.393796  	93.236967 
3731.358220  	92.869736 
3732.322645  	92.094236 
3733.287069  	92.237014 
3734.251494  	91.578515 
3735.215918  	88.480181 
3736.180343  	88.838031 
3737.144767  	90.545166 
3738.109191  	91.528862 
3739.073616  	92.003234 
3740.038040  	92.510799 
3741.002465  	92.164514 
3741.966889  	92.396494 
3742.931314  	92.947166 
3743.895738  	91.855956 
3744.860163  	88.684192 
3745.824587  	91.023176 
3746.789012  	91.955098 
3747.753436  	91.950681 
3748.717860  	91.702546 
3749.682285  	91.228096 
3750.646709  	91.225050 
3751.611134  	90.736985 
3752.575558  	89.612754 
3753.539983  	91.410361 
3754.504407  	92.409798 
3755.468832  	92.863944 
3756.433256  	92.619440 
3757.397681  	92.693699 
3758.362105  	92.887021 
3759.326529  	91.892341 
3760.290954  	91.513091 
3761.255378  	92.989758 
3762.219803  	93.330890 
3763.184227  	93.370615 
3764.148652  	93.395626 
3765.113076  	92.928431 
3766.077501  	92.093200 
3767.041925  	92.829261 
3768.006350  	93.359218 
3768.970774  	93.003999 
3769.935199  	92.011585 
3770.899623  	92.260224 
3771.864047  	93.043492 
3772.828472  	93.340972 
3773.792896  	93.472900 
3774.757321  	93.603714 
3775.721745  	93.739328 
3776.686170  	93.790496 
3777.650594  	93.655883 
3778.615019  	93.147955 
3779.579443  	92.317513 
3780.543868  	92.591683 
3781.508292  	93.403788 
3782.472716  	93.498725 
3783.437141  	93.525417 
3784.401565  	93.122274 
3785.365990  	92.698016 
3786.330414  	93.048786 
3787.294839  	93.376685 
3788.259263  	93.542516 
3789.223688  	93.610317 
3790.188112  	93.662814 
3791.152537  	93.752715 
3792.116961  	93.715907 
3793.081385  	93.728928 
3794.045810  	93.776098 
3795.010234  	93.629557 
3795.974659  	93.037199 
3796.939083  	92.224402 
3797.903508  	92.532080 
3798.867932  	93.071836 
3799.832357  	93.138614 
3800.796781  	92.125384 
3801.761206  	90.770493 
3802.725630  	91.311874 
3803.690054  	92.256997 
3804.654479  	93.173861 
3805.618903  	93.337572 
3806.583328  	92.610344 
3807.547752  	91.939468 
3808.512177  	92.967229 
3809.476601  	93.340183 
3810.441026  	93.382143 
3811.405450  	93.527593 
3812.369875  	93.624374 
3813.334299  	93.665926 
3814.298723  	93.562367 
3815.263148  	92.846990 
3816.227572  	91.381277 
3817.191997  	92.102441 
3818.156421  	92.986470 
3819.120846  	92.881990 
3820.085270  	92.168111 
3821.049695  	90.531852 
3822.014119  	90.531094 
3822.978544  	92.234851 
3823.942968  	92.804661 
3824.907392  	93.068342 
3825.871817  	93.003109 
3826.836241  	92.402917 
3827.800666  	92.479285 
3828.765090  	93.137602 
3829.729515  	93.460273 
3830.693939  	93.298431 
3831.658364  	92.549578 
3832.622788  	92.688625 
3833.587213  	93.246649 
3834.551637  	92.729978 
3835.516062  	92.174309 
3836.480486  	92.741362 
3837.444910  	92.190828 
3838.409335  	91.142191 
3839.373759  	91.785807 
3840.338184  	91.247462 
3841.302608  	91.286498 
3842.267033  	92.629319 
3843.231457  	92.645213 
3844.195882  	91.875557 
3845.160306  	92.736714 
3846.124731  	93.327984 
3847.089155  	93.454552 
3848.053579  	93.463928 
3849.018004  	93.229654 
3849.982428  	92.792549 
3850.946853  	92.774710 
3851.911277  	91.942014 
3852.875702  	90.358952 
3853.840126  	89.492199 
3854.804551  	89.988828 
3855.768975  	92.136846 
3856.733400  	92.202619 
3857.697824  	91.816196 
3858.662248  	92.894483 
3859.626673  	93.516312 
3860.591097  	93.448950 
3861.555522  	92.798457 
3862.519946  	92.318654 
3863.484371  	92.626983 
3864.448795  	91.778578 
3865.413220  	90.791545 
3866.377644  	92.246260 
3867.342069  	93.208465 
3868.306493  	93.105023 
3869.270917  	91.827019 
3870.235342  	89.950483 
3871.199766  	91.374801 
3872.164191  	92.597875 
3873.128615  	92.790445 
3874.093040  	91.463443 
3875.057464  	91.569152 
3876.021889  	93.179603 
3876.986313  	93.516442 
3877.950738  	93.571512 
3878.915162  	93.498448 
3879.879586  	92.507521 
3880.844011  	90.758620 
3881.808435  	91.967071 
3882.772860  	92.865645 
3883.737284  	92.626770 
3884.701709  	92.591643 
3885.666133  	91.754595 
3886.630558  	91.432426 
3887.594982  	92.890464 
3888.559407  	93.386897 
3889.523831  	93.478315 
3890.488256  	93.044586 
3891.452680  	91.817866 
3892.417104  	91.839245 
3893.381529  	92.766744 
3894.345953  	92.693757 
3895.310378  	93.032256 
3896.274802  	93.528935 
3897.239227  	93.532683 
3898.203651  	92.847042 
3899.168076  	91.734815 
3900.132500  	91.716152 
3901.096925  	92.414457 
3902.061349  	91.169369 
3903.025773  	91.293941 
3903.990198  	91.673537 
3904.954622  	91.257462 
3905.919047  	91.594895 
3906.883471  	92.343918 
3907.847896  	93.336640 
3908.812320  	93.643197 
3909.776745  	93.660147 
3910.741169  	93.650269 
3911.705594  	93.619193 
3912.670018  	93.620722 
3913.634442  	93.642523 
3914.598867  	93.693259 
3915.563291  	93.531050 
3916.527716  	92.586714 
3917.492140  	91.815791 
3918.456565  	92.754040 
3919.420989  	93.002554 
3920.385414  	92.323855 
3921.349838  	92.917967 
3922.314263  	93.586073 
3923.278687  	93.263099 
3924.243111  	92.422643 
3925.207536  	91.932172 
3926.171960  	92.671029 
3927.136385  	93.443890 
3928.100809  	93.467656 
3929.065234  	93.297067 
3930.029658  	93.034207 
3930.994083  	92.777190 
3931.958507  	92.311360 
3932.922932  	91.937919 
3933.887356  	92.766984 
3934.851780  	93.206340 
3935.816205  	93.492001 
3936.780629  	93.666031 
3937.745054  	93.630358 
3938.709478  	93.369973 
3939.673903  	93.494534 
3940.638327  	93.613626 
3941.602752  	93.423902 
3942.567176  	92.565097 
3943.531601  	92.183584 
3944.496025  	92.984945 
3945.460449  	93.417766 
3946.424874  	93.509282 
3947.389298  	92.942905 
3948.353723  	92.593600 
3949.318147  	92.851006 
3950.282572  	92.572970 
3951.246996  	92.971311 
3952.211421  	93.472447 
3953.175845  	93.365544 
3954.140270  	93.486609 
3955.104694  	93.617824 
3956.069119  	93.517527 
3957.033543  	93.360976 
3957.997967  	93.347079 
3958.962392  	93.434808 
3959.926816  	93.480678 
3960.891241  	93.426509 
3961.855665  	93.018746 
3962.820090  	93.036987 
3963.784514  	93.526026 
3964.748939  	93.546021 
3965.713363  	93.578950 
3966.677788  	93.664107 
3967.642212  	93.642963 
3968.606636  	93.459926 
3969.571061  	93.303488 
3970.535485  	93.463503 
3971.499910  	93.534293 
3972.464334  	93.370503 
3973.428759  	93.450726 
3974.393183  	93.516004 
3975.357608  	93.386709 
3976.322032  	93.286933 
3977.286457  	93.452900 
3978.250881  	93.629686 
3979.215305  	93.625590 
3980.179730  	93.601178 
3981.144154  	93.562068 
3982.108579  	93.476519 
3983.073003  	93.485733 
3984.037428  	93.643826 
3985.001852  	93.677362 
3985.966277  	93.635594 
3986.930701  	93.643430 
3987.895126  	93.618095 
3988.859550  	93.619796 
3989.823974  	93.512327 
3990.788399  	93.291876 
3991.752823  	93.412173 
3992.717248  	93.586750 
3993.681672  	93.574323 
3994.646097  	93.451862 
3995.610521  	93.341865 
3996.574946  	93.511295 
3997.539370  	93.639586 
3998.503795  	93.646735 
3999.468219  	93.664851 
4000.432643  	93.715072 
4001.397068  	93.676158 
4002.361492  	93.606081 
4003.325917  	93.575983 
4004.290341  	93.611959 
4005.254766  	93.601881 
4006.219190  	93.572230 
4007.183615  	93.532819 
4008.148039  	93.434787 
4009.112464  	93.378312 
4010.076888  	93.529496 
4011.041313  	93.567296 
4012.005737  	93.588143 
4012.970161  	93.547863 
4013.934586  	93.546047 
4014.899010  	93.579874 
4015.863435  	93.572606 
4016.827859  	93.550090 
4017.792284  	93.583867 
4018.756708  	93.639859 
4019.721133  	93.548682 
4020.685557  	93.489627 
4021.649982  	93.570594 
4022.614406  	93.634458 
4023.578830  	93.638061 
4024.543255  	93.586254 
4025.507679  	93.492983 
4026.472104  	93.501930 
4027.436528  	93.603313 
4028.400953  	93.650135 
4029.365377  	93.640351 
4030.329802  	93.649141 
4031.294226  	93.628469 
4032.258651  	93.598088 
4033.223075  	93.694404 
4034.187499  	93.742170 
4035.151924  	93.673633 
4036.116348  	93.635139 
4037.080773  	93.674179 
4038.045197  	93.732537 
4039.009622  	93.711701 
4039.974046  	93.659655 
4040.938471  	93.665769 
4041.902895  	93.688145 
4042.867320  	93.701680 
4043.831744  	93.607890 
4044.796168  	93.486886 
4045.760593  	93.510144 
4046.725017  	93.641956 
4047.689442  	93.697068 
4048.653866  	93.704516 
4049.618291  	93.680094 
4050.582715  	93.657921 
4051.547140  	93.646270 
4052.511564  	93.660157 
4053.475989  	93.657961 
4054.440413  	93.655910 
4055.404837  	93.639485 
4056.369262  	93.683923 
4057.333686  	93.762007 
4058.298111  	93.716011 
4059.262535  	93.647781 
4060.226960  	93.612417 
4061.191384  	93.611757 
4062.155809  	93.684136 
4063.120233  	93.713973 
4064.084658  	93.690936 
4065.049082  	93.699418 
4066.013506  	93.666985 
4066.977931  	93.633704 
4067.942355  	93.634679 
4068.906780  	93.621662 
4069.871204  	93.602086 
4070.835629  	93.607902 
4071.800053  	93.639235 
4072.764478  	93.607346 
4073.728902  	93.583960 
4074.693327  	93.630983 
4075.657751  	93.684361 
4076.622176  	93.662412 
4077.586600  	93.664546 
4078.551024  	93.678283 
4079.515449  	93.668768 
4080.479873  	93.693061 
4081.444298  	93.741753 
4082.408722  	93.706966 
4083.373147  	93.632242 
4084.337571  	93.590392 
4085.301996  	93.666435 
4086.266420  	93.670762 
4087.230845  	93.648808 
4088.195269  	93.650900 
4089.159693  	93.691880 
4090.124118  	93.717210 
4091.088542  	93.723205 
4092.052967  	93.772719 
4093.017391  	93.737134 
4093.981816  	93.660159 
4094.946240  	93.665219 
4095.910665  	93.716731 
4096.875089  	93.762877 
4097.839514  	93.716055 
4098.803938  	93.640570 
4099.768362  	93.671007 
4100.732787  	93.735406 
4101.697211  	93.752242 
4102.661636  	93.732009 
4103.626060  	93.725414 
4104.590485  	93.673552 
4105.554909  	93.637761 
4106.519334  	93.662823 
4107.483758  	93.661152 
4108.448183  	93.677646 
4109.412607  	93.693290 
4110.377031  	93.644482 
4111.341456  	93.684660 
4112.305880  	93.709440 
4113.270305  	93.661005 
4114.234729  	93.655710 
4115.199154  	93.725203 
4116.163578  	93.730431 
4117.128003  	93.690349 
4118.092427  	93.644552 
4119.056852  	93.645104 
4120.021276  	93.653158 
4120.985700  	93.669646 
4121.950125  	93.671152 
4122.914549  	93.641859 
4123.878974  	93.654196 
4124.843398  	93.675087 
4125.807823  	93.727520 
4126.772247  	93.707732 
4127.736672  	93.688097 
4128.701096  	93.696970 
4129.665521  	93.680921 
4130.629945  	93.678884 
4131.594370  	93.725436 
4132.558794  	93.772273 
4133.523218  	93.704096 
4134.487643  	93.663623 
4135.452067  	93.683705 
4136.416492  	93.715758 
4137.380916  	93.718740 
4138.345341  	93.666388 
4139.309765  	93.616870 
4140.274190  	93.654214 
4141.238614  	93.671586 
4142.203039  	93.674016 
4143.167463  	93.748080 
4144.131887  	93.740767 
4145.096312  	93.685557 
4146.060736  	93.656795 
4147.025161  	93.652168 
4147.989585  	93.664376 
4148.954010  	93.677691 
4149.918434  	93.700014 
4150.882859  	93.702539 
4151.847283  	93.665038 
4152.811708  	93.646212 
4153.776132  	93.645789 
4154.740556  	93.638827 
4155.704981  	93.649954 
4156.669405  	93.640807 
4157.633830  	93.653954 
4158.598254  	93.657089 
4159.562679  	93.622407 
4160.527103  	93.585352 
4161.491528  	93.600725 
4162.455952  	93.658563 
4163.420377  	93.726364 
4164.384801  	93.697033 
4165.349225  	93.649392 
4166.313650  	93.640175 
4167.278074  	93.672876 
4168.242499  	93.722307 
4169.206923  	93.738966 
4170.171348  	93.720529 
4171.135772  	93.689402 
4172.100197  	93.653416 
4173.064621  	93.628315 
4174.029046  	93.632754 
4174.993470  	93.674385 
4175.957894  	93.704656 
4176.922319  	93.686399 
4177.886743  	93.675505 
4178.851168  	93.683409 
4179.815592  	93.632792 
4180.780017  	93.616700 
4181.744441  	93.711357 
4182.708866  	93.719424 
4183.673290  	93.686022 
4184.637715  	93.651300 
4185.602139  	93.647111 
4186.566563  	93.666894 
4187.530988  	93.658931 
4188.495412  	93.653316 
4189.459837  	93.663923 
4190.424261  	93.664696 
4191.388686  	93.658623 
4192.353110  	93.707935 
4193.317535  	93.728066 
4194.281959  	93.670611 
4195.246384  	93.619530 
4196.210808  	93.572038 
4197.175233  	93.593535 
4198.139657  	93.632010 
4199.104081  	93.637745 
4200.068506  	93.661514 
4201.032930  	93.655019 
4201.997355  	93.695345 
4202.961779  	93.736258 
4203.926204  	93.681880 
4204.890628  	93.627588 
4205.855053  	93.633082 
4206.819477  	93.598938 
4207.783902  	93.595553 
4208.748326  	93.634586 
4209.712750  	93.702882 
4210.677175  	93.751414 
4211.641599  	93.707043 
4212.606024  	93.645011 
4213.570448  	93.653845 
4214.534873  	93.654382 
4215.499297  	93.608345 
4216.463722  	93.609613 
4217.428146  	93.598197 
4218.392571  	93.587809 
4219.356995  	93.613603 
4220.321419  	93.629291 
4221.285844  	93.745454 
4222.250268  	93.797779 
4223.214693  	93.664076 
4224.179117  	93.608231 
4225.143542  	93.656156 
4226.107966  	93.691860 
4227.072391  	93.733049 
4228.036815  	93.639887 
4229.001240  	93.615483 
4229.965664  	93.627096 
4230.930088  	93.607588 
4231.894513  	93.636236 
4232.858937  	93.678922 
4233.823362  	93.691164 
4234.787786  	93.678099 
4235.752211  	93.676396 
4236.716635  	93.710038 
4237.681060  	93.723965 
4238.645484  	93.701045 
4239.609909  	93.667458 
4240.574333  	93.653483 
4241.538757  	93.691469 
4242.503182  	93.715022 
4243.467606  	93.746742 
4244.432031  	93.716032 
4245.396455  	93.664921 
4246.360880  	93.712230 
4247.325304  	93.696629 
4248.289729  	93.692600 
4249.254153  	93.719926 
4250.218578  	93.767722 
4251.183002  	93.766590 
4252.147427  	93.706308 
4253.111851  	93.688216 
4254.076275  	93.702871 
4255.040700  	93.685273 
4256.005124  	93.674028 
4256.969549  	93.776350 
4257.933973  	93.786807 
4258.898398  	93.693084 
4259.862822  	93.628003 
4260.827247  	93.658550 
4261.791671  	93.713434 
4262.756096  	93.719077 
4263.720520  	93.696492 
4264.684944  	93.639184 
4265.649369  	93.586396 
4266.613793  	93.643917 
4267.578218  	93.656536 
4268.542642  	93.696692 
4269.507067  	93.700639 
4270.471491  	93.694492 
4271.435916  	93.697302 
4272.400340  	93.626057 
4273.364765  	93.656691 
4274.329189  	93.730011 
4275.293613  	93.732685 
4276.258038  	93.687566 
4277.222462  	93.725551 
4278.186887  	93.701601 
4279.151311  	93.627727 
4280.115736  	93.651926 
4281.080160  	93.694391 
4282.044585  	93.691007 
4283.009009  	93.675992 
4283.973434  	93.670514 
4284.937858  	93.665570 
4285.902282  	93.653451 
4286.866707  	93.680043 
4287.831131  	93.725182 
4288.795556  	93.773386 
4289.759980  	93.737566 
4290.724405  	93.651898 
4291.688829  	93.686848 
4292.653254  	93.723488 
4293.617678  	93.734340 
4294.582103  	93.766047 
4295.546527  	93.793879 
4296.510951  	93.779800 
4297.475376  	93.731742 
4298.439800  	93.712370 
4299.404225  	93.711824 
4300.368649  	93.701051 
4301.333074  	93.661425 
4302.297498  	93.620820 
4303.261923  	93.667610 
4304.226347  	93.812366 
4305.190772  	93.926689 
4306.155196  	93.839135 
4307.119620  	93.746711 
4308.084045  	93.717231 
4309.048469  	93.749595 
4310.012894  	93.756899 
4310.977318  	93.762052 
4311.941743  	93.741024 
4312.906167  	93.726802 
4313.870592  	93.690092 
4314.835016  	93.693354 
4315.799441  	93.644409 
4316.763865  	93.622822 
4317.728290  	93.671478 
4318.692714  	93.702270 
4319.657138  	93.673335 
4320.621563  	93.647643 
4321.585987  	93.613067 
4322.550412  	93.632632 
4323.514836  	93.667079 
4324.479261  	93.665502 
4325.443685  	93.636868 
4326.408110  	93.673099 
4327.372534  	93.710659 
4328.336959  	93.682597 
4329.301383  	93.672772 
4330.265807  	93.715836 
4331.230232  	93.766785 
4332.194656  	93.699736 
4333.159081  	93.655285 
4334.123505  	93.647522 
4335.087930  	93.656373 
4336.052354  	93.728593 
4337.016779  	93.741397 
4337.981203  	93.720864 
4338.945628  	93.708257 
4339.910052  	93.637422 
4340.874476  	93.600792 
4341.838901  	93.643668 
4342.803325  	93.670128 
4343.767750  	93.680374 
4344.732174  	93.630923 
4345.696599  	93.557968 
4346.661023  	93.538584 
4347.625448  	93.529446 
4348.589872  	93.586205 
4349.554297  	93.626940 
4350.518721  	93.663091 
4351.483145  	93.717140 
4352.447570  	93.646460 
4353.411994  	93.610343 
4354.376419  	93.546366 
4355.340843  	93.520020 
4356.305268  	93.555177 
4357.269692  	93.589432 
4358.234117  	93.631136 
4359.198541  	93.590316 
4360.162966  	93.576409 
4361.127390  	93.595114 
4362.091814  	93.591939 
4363.056239  	93.545802 
4364.020663  	93.552414 
4364.985088  	93.585068 
4365.949512  	93.520599 
4366.913937  	93.501409 
4367.878361  	93.535897 
4368.842786  	93.554006 
4369.807210  	93.621765 
4370.771635  	93.651975 
4371.736059  	93.602986 
4372.700484  	93.566858 
4373.664908  	93.611871 
4374.629332  	93.676531 
4375.593757  	93.674750 
4376.558181  	93.713530 
4377.522606  	93.718037 
4378.487030  	93.635769 
4379.451455  	93.617320 
4380.415879  	93.636479 
4381.380304  	93.648183 
4382.344728  	93.689356 
4383.309153  	93.719292 
4384.273577  	93.694370 
4385.238001  	93.685565 
4386.202426  	93.712974 
4387.166850  	93.750698 
4388.131275  	93.756264 
4389.095699  	93.726029 
4390.060124  	93.724726 
4391.024548  	93.759037 
4391.988973  	93.813570 
4392.953397  	93.861795 
4393.917822  	93.806209 
4394.882246  	93.756424 
4395.846670  	93.754431 
4396.811095  	93.760918 
4397.775519  	93.776474 
4398.739944  	93.819125 
4399.704368  	93.842872 
4400.668793  	93.868705 
4401.633217  	93.734393 
4402.597642  	93.693244 
4403.562066  	93.834357 
4404.526491  	93.880448 
4405.490915  	93.861680 
4406.455339  	93.813622 
4407.419764  	93.776759 
4408.384188  	93.847967 
4409.348613  	93.892196 
4410.313037  	93.814174 
4411.277462  	93.734323 
4412.241886  	93.738216 
4413.206311  	93.794885 
4414.170735  	93.856607 
4415.135160  	93.824949 
4416.099584  	93.822427 
4417.064008  	93.807615 
4418.028433  	93.783998 
4418.992857  	93.812922 
4419.957282  	93.780387 
4420.921706  	93.790797 
4421.886131  	93.829435 
4422.850555  	93.790148 
4423.814980  	93.766771 
4424.779404  	93.809216 
4425.743829  	93.821976 
4426.708253  	93.748209 
4427.672677  	93.731676 
4428.637102  	93.782227 
4429.601526  	93.883299 
4430.565951  	93.912496 
4431.530375  	93.844543 
4432.494800  	93.735429 
4433.459224  	93.678516 
4434.423649  	93.728361 
4435.388073  	93.849023 
4436.352498  	93.980169 
4437.316922  	94.039232 
4438.281347  	94.007594 
4439.245771  	93.886396 
4440.210195  	93.900337 
4441.174620  	93.937650 
4442.139044  	93.902834 
4443.103469  	93.921664 
4444.067893  	93.945948 
4445.032318  	93.887233 
4445.996742  	93.874446 
4446.961167  	93.864548 
4447.925591  	93.798047 
4448.890016  	93.753721 
4449.854440  	93.749835 
4450.818864  	93.791504 
4451.783289  	93.820131 
4452.747713  	93.815642 
4453.712138  	93.828908 
4454.676562  	93.825821 
4455.640987  	93.828727 
4456.605411  	93.840505 
4457.569836  	93.849938 
4458.534260  	93.846181 
4459.498685  	93.783889 
4460.463109  	93.777560 
4461.427533  	93.810339 
4462.391958  	93.823401 
4463.356382  	93.771292 
4464.320807  	93.756132 
4465.285231  	93.784796 
4466.249656  	93.831011 
4467.214080  	93.889212 
4468.178505  	93.894962 
4469.142929  	93.914591 
4470.107354  	93.956327 
4471.071778  	93.892016 
4472.036202  	93.894839 
4473.000627  	93.886530 
4473.965051  	93.782262 
4474.929476  	93.722789 
4475.893900  	93.753912 
4476.858325  	93.760022 
4477.822749  	93.766832 
4478.787174  	93.884540 
4479.751598  	93.917113 
4480.716023  	93.854379 
4481.680447  	93.792579 
4482.644871  	93.722946 
4483.609296  	93.745118 
4484.573720  	93.782054 
4485.538145  	93.805536 
4486.502569  	93.832021 
4487.466994  	93.799938 
4488.431418  	93.821805 
4489.395843  	93.843241 
4490.360267  	93.802137 
4491.324692  	93.828551 
4492.289116  	93.855503 
4493.253541  	93.836302 
4494.217965  	93.840325 
4495.182389  	93.823413 
4496.146814  	93.771705 
4497.111238  	93.811927 
4498.075663  	93.878353 
4499.040087  	93.861065 
4500.004512  	93.805808 
4500.968936  	93.870357 
4501.933361  	93.873583 
4502.897785  	93.837240 
4503.862210  	93.850861 
4504.826634  	93.868245 
4505.791058  	93.853354 
4506.755483  	93.847769 
4507.719907  	93.838460 
4508.684332  	93.845126 
4509.648756  	93.874183 
4510.613181  	93.839338 
4511.577605  	93.868358 
4512.542030  	93.924337 
4513.506454  	93.927377 
4514.470879  	93.825936 
4515.435303  	93.727096 
4516.399727  	93.773917 
4517.364152  	93.736902 
4518.328576  	93.722950 
4519.293001  	93.779891 
4520.257425  	93.850118 
4521.221850  	93.796810 
4522.186274  	93.789686 
4523.150699  	93.809455 
4524.115123  	93.772502 
4525.079548  	93.778058 
4526.043972  	93.831966 
4527.008396  	93.865298 
4527.972821  	93.846099 
4528.937245  	93.799190 
4529.901670  	93.698055 
4530.866094  	93.738417 
4531.830519  	93.859128 
4532.794943  	93.837983 
4533.759368  	93.786862 
4534.723792  	93.757156 
4535.688217  	93.736964 
4536.652641  	93.790843 
4537.617065  	93.847880 
4538.581490  	93.915554 
4539.545914  	93.856864 
4540.510339  	93.799953 
4541.474763  	93.779576 
4542.439188  	93.781283 
4543.403612  	93.833897 
4544.368037  	93.769206 
4545.332461  	93.713999 
4546.296886  	93.757846 
4547.261310  	93.791506 
4548.225734  	93.858360 
4549.190159  	93.891627 
4550.154583  	93.840434 
4551.119008  	93.765596 
4552.083432  	93.774176 
4553.047857  	93.783350 
4554.012281  	93.874768 
4554.976706  	93.909130 
4555.941130  	93.788087 
4556.905555  	93.714280 
4557.869979  	93.728603 
4558.834404  	93.837863 
4559.798828  	93.861804 
4560.763252  	93.716013 
4561.727677  	93.646923 
4562.692101  	93.690230 
4563.656526  	93.825039 
4564.620950  	93.862877 
4565.585375  	93.723042 
4566.549799  	93.703889 
4567.514224  	93.795933 
4568.478648  	93.831012 
4569.443073  	93.766430 
4570.407497  	93.704302 
4571.371921  	93.716852 
4572.336346  	93.716210 
4573.300770  	93.762819 
4574.265195  	93.845269 
4575.229619  	93.812967 
4576.194044  	93.670954 
4577.158468  	93.634042 
4578.122893  	93.730347 
4579.087317  	93.767367 
4580.051742  	93.797608 
4581.016166  	93.859335 
4581.980590  	93.906243 
4582.945015  	93.938570 
4583.909439  	93.871623 
4584.873864  	93.740038 
4585.838288  	93.637436 
4586.802713  	93.693377 
4587.767137  	93.701738 
4588.731562  	93.738413 
4589.695986  	93.792640 
4590.660411  	93.783194 
4591.624835  	93.763879 
4592.589259  	93.793081 
4593.553684  	93.879088 
4594.518108  	93.790564 
4595.482533  	93.702538 
4596.446957  	93.771625 
4597.411382  	93.728873 
4598.375806  	93.664324 
4599.340231  	93.735457 
4600.304655  	93.780896 
4601.269080  	93.751583 
4602.233504  	93.753691 
4603.197928  	93.748209 
4604.162353  	93.813129 
4605.126777  	93.877790 
4606.091202  	93.832275 
4607.055626  	93.798794 
4608.020051  	93.719662 
4608.984475  	93.680513 
4609.948900  	93.779258 
4610.913324  	93.875426 
4611.877749  	93.863324 
4612.842173  	93.777733 
4613.806598  	93.767454 
4614.771022  	93.786390 
4615.735446  	93.818793 
4616.699871  	93.854354 
4617.664295  	93.806692 
4618.628720  	93.764744 
4619.593144  	93.752054 
4620.557569  	93.788213 
4621.521993  	93.736712 
4622.486418  	93.653176 
4623.450842  	93.712382 
4624.415267  	93.813225 
4625.379691  	93.877141 
4626.344115  	93.839523 
4627.308540  	93.823855 
4628.272964  	93.803038 
4629.237389  	93.752656 
4630.201813  	93.738634 
4631.166238  	93.789560 
4632.130662  	93.839364 
4633.095087  	93.815742 
4634.059511  	93.866703 
4635.023936  	94.062740 
4635.988360  	94.047371 
4636.952784  	93.857336 
4637.917209  	93.846484 
4638.881633  	93.779014 
4639.846058  	93.732534 
4640.810482  	93.800875 
4641.774907  	93.831491 
4642.739331  	93.779290 
4643.703756  	93.813075 
4644.668180  	93.856787 
4645.632605  	93.813528 
4646.597029  	93.850044 
4647.561453  	93.854407 
4648.525878  	93.808603 
4649.490302  	93.799891 
4650.454727  	93.796922 
4651.419151  	93.807607 
4652.383576  	93.809607 
4653.348000  	93.829784 
4654.312425  	93.911936 
4655.276849  	93.940717 
4656.241274  	93.869619 
4657.205698  	93.789763 
4658.170122  	93.731831 
4659.134547  	93.759684 
4660.098971  	93.820848 
4661.063396  	93.842910 
4662.027820  	93.867112 
4662.992245  	93.799217 
4663.956669  	93.761192 
4664.921094  	93.765827 
4665.885518  	93.783662 
4666.849943  	93.782745 
4667.814367  	93.704347 
4668.778791  	93.805227 
4669.743216  	93.862081 
4670.707640  	93.815856 
4671.672065  	93.783556 
4672.636489  	93.737012 
4673.600914  	93.740406 
4674.565338  	93.778599 
4675.529763  	93.831151 
4676.494187  	93.956976 
4677.458612  	93.971714 
4678.423036  	93.952958 
4679.387461  	94.014274 
4680.351885  	93.961280 
4681.316309  	93.868017 
4682.280734  	93.838489 
4683.245158  	93.728098 
4684.209583  	93.706915 
4685.174007  	93.745407 
4686.138432  	93.725423 
4687.102856  	93.784385 
4688.067281  	93.874095 
4689.031705  	93.815743 
4689.996130  	93.844878 
4690.960554  	93.908328 
4691.924978  	93.837143 
4692.889403  	93.728578 
4693.853827  	93.709340 
4694.818252  	93.767822 
4695.782676  	93.870220 
4696.747101  	93.876920 
4697.711525  	93.848563 
4698.675950  	93.827947 
4699.640374  	93.754545 