##TITLE=No Description
##DATA TYPE=INFRARED SPECTRUM
##XUNITS=1/CM
##YUNITS=%T
400.236149  	121.194714 
401.200574  	93.828406 
402.164998  	75.804616 
403.129423  	83.170058 
404.093847  	90.893806 
405.058272  	85.588660 
406.022696  	87.017334 
406.987120  	85.804965 
407.951545  	82.844046 
408.915969  	76.376281 
409.880394  	79.762647 
410.844818  	87.567183 
411.809243  	89.133437 
412.773667  	89.493937 
413.738092  	81.415318 
414.702516  	71.525812 
415.666941  	74.547918 
416.631365  	82.174484 
417.595789  	86.736381 
418.560214  	91.702579 
419.524638  	92.198485 
420.489063  	86.957086 
421.453487  	84.886364 
422.417912  	86.297605 
423.382336  	87.014271 
424.346761  	85.321957 
425.311185  	77.510636 
426.275610  	76.493195 
427.240034  	77.626919 
428.204458  	80.090356 
429.168883  	83.381455 
430.133307  	84.040945 
431.097732  	81.992022 
432.062156  	79.851595 
433.026581  	78.769168 
433.991005  	81.669239 
434.955430  	81.807404 
435.919854  	79.400881 
436.884279  	78.763403 
437.848703  	79.031540 
438.813127  	78.033504 
439.777552  	77.399889 
440.741976  	78.627774 
441.706401  	80.007280 
442.670825  	81.759388 
443.635250  	81.278241 
444.599674  	79.931794 
445.564099  	79.461695 
446.528523  	79.176487 
447.492948  	78.826300 
448.457372  	79.570680 
449.421796  	78.893778 
450.386221  	77.777811 
451.350645  	76.763410 
452.315070  	76.558406 
453.279494  	77.899447 
454.243919  	77.309844 
455.208343  	76.417917 
456.172768  	75.856353 
457.137192  	75.026668 
458.101617  	74.929096 
459.066041  	76.288751 
460.030466  	76.463867 
460.994890  	76.166282 
461.959314  	75.834172 
462.923739  	75.965573 
463.888163  	75.651384 
464.852588  	75.998780 
465.817012  	76.901858 
466.781437  	76.121560 
467.745861  	74.126832 
468.710286  	74.386798 
469.674710  	74.291083 
470.639135  	74.102706 
471.603559  	74.240652 
472.567983  	74.383107 
473.532408  	74.570402 
474.496832  	74.595487 
475.461257  	74.693540 
476.425681  	74.094888 
477.390106  	74.074431 
478.354530  	74.298674 
479.318955  	73.785982 
480.283379  	73.535546 
481.247804  	73.932049 
482.212228  	73.920908 
483.176652  	74.705708 
484.141077  	75.006162 
485.105501  	74.026175 
486.069926  	73.180981 
487.034350  	73.229021 
487.998775  	73.029079 
488.963199  	73.312534 
489.927624  	73.746496 
490.892048  	73.212808 
491.856473  	72.429781 
492.820897  	72.649315 
493.785321  	72.733352 
494.749746  	72.276887 
495.714170  	71.942979 
496.678595  	72.045029 
497.643019  	72.175098 
498.607444  	71.993491 
499.571868  	71.817994 
500.536293  	71.929396 
501.500717  	71.167163 
502.465142  	70.611330 
503.429566  	71.162056 
504.393990  	71.151286 
505.358415  	71.260986 
506.322839  	70.898059 
507.287264  	70.504137 
508.251688  	70.709087 
509.216113  	71.022564 
510.180537  	70.720769 
511.144962  	70.314064 
512.109386  	70.641924 
513.073811  	70.675564 
514.038235  	70.225453 
515.002660  	69.966931 
515.967084  	69.604181 
516.931508  	68.928690 
517.895933  	69.156274 
518.860357  	69.426396 
519.824782  	69.001152 
520.789206  	69.155860 
521.753631  	69.649529 
522.718055  	69.799185 
523.682480  	69.300346 
524.646904  	68.614907 
525.611329  	67.744215 
526.575753  	67.898124 
527.540177  	68.342803 
528.504602  	68.120681 
529.469026  	67.667561 
530.433451  	67.547966 
531.397875  	67.382916 
532.362300  	67.197619 
533.326724  	67.140659 
534.291149  	66.936775 
535.255573  	66.978635 
536.219998  	67.514806 
537.184422  	68.548377 
538.148846  	68.571676 
539.113271  	68.596237 
540.077695  	68.910044 
541.042120  	69.501167 
542.006544  	69.703583 
542.970969  	69.628171 
543.935393  	69.801704 
544.899818  	69.718026 
545.864242  	69.583280 
546.828667  	69.593779 
547.793091  	69.411699 
548.757515  	69.332305 
549.721940  	69.378685 
550.686364  	69.180006 
551.650789  	69.142588 
552.615213  	68.709759 
553.579638  	68.503668 
554.544062  	68.224144 
555.508487  	68.006556 
556.472911  	67.570429 
557.437336  	67.026922 
558.401760  	66.748884 
559.366184  	66.835833 
560.330609  	66.538158 
561.295033  	66.174735 
562.259458  	66.013864 
563.223882  	65.457608 
564.188307  	64.589763 
565.152731  	64.244311 
566.117156  	63.860373 
567.081580  	63.282240 
568.046005  	62.846804 
569.010429  	61.980779 
569.974853  	61.432110 
570.939278  	60.922952 
571.903702  	60.235630 
572.868127  	59.695831 
573.832551  	59.260995 
574.796976  	58.960690 
575.761400  	58.337209 
576.725825  	58.300501 
577.690249  	58.427966 
578.654674  	58.882335 
579.619098  	59.360850 
580.583523  	59.746950 
581.547947  	60.770290 
582.512371  	61.986850 
583.476796  	62.758038 
584.441220  	63.361762 
585.405645  	64.378601 
586.370069  	65.645062 
587.334494  	66.401483 
588.298918  	66.977401 
589.263343  	67.569192 
590.227767  	67.940765 
591.192192  	67.954556 
592.156616  	68.207548 
593.121040  	68.970607 
594.085465  	69.504712 
595.049889  	69.808556 
596.014314  	70.067345 
596.978738  	70.226893 
597.943163  	70.292075 
598.907587  	70.252232 
599.872012  	70.110223 
600.836436  	70.529826 
601.800861  	71.002278 
602.765285  	71.078942 
603.729709  	71.159646 
604.694134  	71.266402 
605.658558  	71.356850 
606.622983  	71.472712 
607.587407  	71.434504 
608.551832  	71.426734 
609.516256  	71.588062 
610.480681  	71.517991 
611.445105  	71.418644 
612.409530  	71.635298 
613.373954  	71.941150 
614.338378  	71.789188 
615.302803  	71.446568 
616.267227  	71.369187 
617.231652  	71.601052 
618.196076  	71.707550 
619.160501  	71.707888 
620.124925  	71.531452 
621.089350  	71.526386 
622.053774  	71.636180 
623.018199  	71.811329 
623.982623  	71.415686 
624.947047  	71.289164 
625.911472  	71.280966 
626.875896  	71.327663 
627.840321  	71.333989 
628.804745  	71.610567 
629.769170  	71.481871 
630.733594  	71.348952 
631.698019  	71.407231 
632.662443  	71.280548 
633.626868  	71.004738 
634.591292  	70.901820 
635.555717  	70.671243 
636.520141  	71.002283 
637.484565  	71.048964 
638.448990  	71.014916 
639.413414  	70.807201 
640.377839  	70.703724 
641.342263  	70.674613 
642.306688  	70.444491 
643.271112  	70.311367 
644.235537  	70.299714 
645.199961  	70.241357 
646.164386  	70.131359 
647.128810  	69.914921 
648.093234  	69.716412 
649.057659  	69.454109 
650.022083  	69.369359 
650.986508  	69.269902 
651.950932  	68.996893 
652.915357  	68.591158 
653.879781  	68.351917 
654.844206  	68.209761 
655.808630  	67.987880 
656.773055  	67.676178 
657.737479  	67.481216 
658.701903  	66.995382 
659.666328  	66.542643 
660.630752  	66.366955 
661.595177  	66.240469 
662.559601  	66.005854 
663.524026  	65.663725 
664.488450  	65.306883 
665.452875  	65.049267 
666.417299  	64.893304 
667.381724  	64.956386 
668.346148  	64.423671 
669.310572  	63.830098 
670.274997  	63.611329 
671.239421  	63.430316 
672.203846  	63.145690 
673.168270  	62.876800 
674.132695  	62.574468 
675.097119  	62.345574 
676.061544  	62.046693 
677.025968  	61.887836 
677.990393  	61.754799 
678.954817  	61.644103 
679.919241  	61.558592 
680.883666  	61.477546 
681.848090  	61.346052 
682.812515  	61.360647 
683.776939  	61.294202 
684.741364  	61.315733 
685.705788  	61.294293 
686.670213  	61.574902 
687.634637  	61.809435 
688.599062  	61.955985 
689.563486  	62.219741 
690.527910  	62.652533 
691.492335  	63.045379 
692.456759  	63.529781 
693.421184  	64.000530 
694.385608  	64.663262 
695.350033  	65.162951 
696.314457  	65.502967 
697.278882  	65.842126 
698.243306  	66.256546 
699.207731  	66.829377 
700.172155  	67.401389 
701.136580  	67.680264 
702.101004  	67.953401 
703.065428  	68.229543 
704.029853  	68.568844 
704.994277  	68.866681 
705.958702  	69.207659 
706.923126  	69.479989 
707.887551  	69.666067 
708.851975  	69.953076 
709.816400  	70.110067 
710.780824  	70.257394 
711.745249  	70.460331 
712.709673  	70.580793 
713.674097  	70.646666 
714.638522  	70.793503 
715.602946  	70.864119 
716.567371  	70.833237 
717.531795  	70.926137 
718.496220  	70.982714 
719.460644  	70.884520 
720.425069  	70.844101 
721.389493  	70.868186 
722.353918  	70.896931 
723.318342  	70.903633 
724.282766  	70.836036 
725.247191  	70.773977 
726.211615  	70.677582 
727.176040  	70.693392 
728.140464  	70.728380 
729.104889  	70.792199 
730.069313  	71.020891 
731.033738  	71.529184 
731.998162  	72.208489 
732.962587  	73.063404 
733.927011  	73.847718 
734.891435  	74.585956 
735.855860  	75.355311 
736.820284  	76.108200 
737.784709  	76.817486 
738.749133  	77.510412 
739.713558  	78.075869 
740.677982  	78.481962 
741.642407  	78.784167 
742.606831  	79.075708 
743.571256  	79.310330 
744.535680  	79.499205 
745.500104  	79.711393 
746.464529  	79.859377 
747.428953  	79.916968 
748.393378  	79.997185 
749.357802  	80.100690 
750.322227  	80.136251 
751.286651  	80.233748 
752.251076  	80.410933 
753.215500  	80.493884 
754.179925  	80.571786 
755.144349  	80.689644 
756.108774  	80.846815 
757.073198  	80.957382 
758.037622  	81.028012 
759.002047  	81.058354 
759.966471  	81.172043 
760.930896  	81.253435 
761.895320  	81.391841 
762.859745  	81.588323 
763.824169  	81.764792 
764.788594  	81.882507 
765.753018  	82.012891 
766.717443  	82.106394 
767.681867  	82.149134 
768.646291  	82.198662 
769.610716  	82.371083 
770.575140  	82.509446 
771.539565  	82.649114 
772.503989  	82.761128 
773.468414  	82.898055 
774.432838  	83.028190 
775.397263  	83.135872 
776.361687  	83.243440 
777.326112  	83.356519 
778.290536  	83.451465 
779.254960  	83.614878 
780.219385  	83.748673 
781.183809  	84.031162 
782.148234  	83.863605 
783.112658  	84.090675 
784.077083  	84.159845 
785.041507  	84.061629 
786.005932  	84.192360 
786.970356  	84.211180 
787.934781  	84.113201 
788.899205  	84.100723 
789.863629  	84.257289 
790.828054  	84.400776 
791.792478  	84.374843 
792.756903  	84.337376 
793.721327  	84.384257 
794.685752  	84.314327 
795.650176  	84.312474 
796.614601  	84.455171 
797.579025  	84.654487 
798.543450  	84.640640 
799.507874  	84.680942 
800.472298  	84.892223 
801.436723  	85.100377 
802.401147  	85.194697 
803.365572  	85.286846 
804.329996  	85.442688 
805.294421  	85.602521 
806.258845  	85.682694 
807.223270  	85.742321 
808.187694  	85.811079 
809.152119  	85.919742 
810.116543  	85.937747 
811.080967  	85.933201 
812.045392  	86.023303 
813.009816  	86.108397 
813.974241  	86.182761 
814.938665  	86.306536 
815.903090  	86.405579 
816.867514  	86.378140 
817.831939  	86.357161 
818.796363  	86.576240 
819.760788  	86.823672 
820.725212  	86.910410 
821.689637  	86.828239 
822.654061  	86.854496 
823.618485  	86.913938 
824.582910  	86.939439 
825.547334  	86.950136 
826.511759  	87.060461 
827.476183  	87.145639 
828.440608  	87.176056 
829.405032  	87.210364 
830.369457  	87.280127 
831.333881  	87.418160 
832.298306  	87.530757 
833.262730  	87.546618 
834.227154  	87.543422 
835.191579  	87.568257 
836.156003  	87.579441 
837.120428  	87.555024 
838.084852  	87.544221 
839.049277  	87.575903 
840.013701  	87.603876 
840.978126  	87.564317 
841.942550  	87.657859 
842.906975  	87.681276 
843.871399  	87.664289 
844.835823  	87.681817 
845.800248  	87.739262 
846.764672  	87.782822 
847.729097  	87.862888 
848.693521  	87.790662 
849.657946  	87.788563 
850.622370  	87.874932 
851.586795  	87.926896 
852.551219  	87.799434 
853.515644  	87.863131 
854.480068  	87.994813 
855.444492  	87.933546 
856.408917  	87.902059 
857.373341  	87.965907 
858.337766  	88.051264 
859.302190  	88.079755 
860.266615  	88.055433 
861.231039  	88.130145 
862.195464  	88.202914 
863.159888  	88.108934 
864.124313  	88.061088 
865.088737  	88.109022 
866.053161  	88.102063 
867.017586  	88.013304 
867.982010  	87.972435 
868.946435  	88.046508 
869.910859  	88.154783 
870.875284  	88.115497 
871.839708  	88.002586 
872.804133  	88.046813 
873.768557  	88.068595 
874.732982  	87.945513 
875.697406  	87.848414 
876.661831  	87.799090 
877.626255  	87.785602 
878.590679  	87.837868 
879.555104  	87.897544 
880.519528  	87.935173 
881.483953  	87.889707 
882.448377  	87.815875 
883.412802  	87.821427 
884.377226  	87.870392 
885.341651  	87.851590 
886.306075  	87.773092 
887.270500  	87.737033 
888.234924  	87.797157 
889.199348  	87.721320 
890.163773  	87.632057 
891.128197  	87.596041 
892.092622  	87.575993 
893.057046  	87.471324 
894.021471  	87.404865 
894.985895  	87.414264 
895.950320  	87.284031 
896.914744  	87.072598 
897.879169  	86.909714 
898.843593  	86.720953 
899.808017  	86.533584 
900.772442  	86.285333 
901.736866  	85.923866 
902.701291  	85.612005 
903.665715  	85.313761 
904.630140  	85.004759 
905.594564  	84.810510 
906.558989  	84.873244 
907.523413  	85.137302 
908.487838  	85.447576 
909.452262  	85.723076 
910.416686  	85.975366 
911.381111  	86.141801 
912.345535  	86.172571 
913.309960  	86.172788 
914.274384  	86.086169 
915.238809  	85.960526 
916.203233  	85.848218 
917.167658  	85.758093 
918.132082  	85.625101 
919.096507  	85.460083 
920.060931  	85.322761 
921.025355  	85.160243 
921.989780  	84.889270 
922.954204  	84.556195 
923.918629  	84.261538 
924.883053  	83.986157 
925.847478  	83.624355 
926.811902  	83.175571 
927.776327  	82.646632 
928.740751  	82.055388 
929.705176  	81.417258 
930.669600  	80.651707 
931.634024  	79.859998 
932.598449  	79.172652 
933.562873  	78.712075 
934.527298  	78.609983 
935.491722  	78.829997 
936.456147  	79.503645 
937.420571  	80.521047 
938.384996  	81.565144 
939.349420  	82.448162 
940.313845  	83.280216 
941.278269  	84.009103 
942.242694  	84.580598 
943.207118  	85.006688 
944.171542  	85.337789 
945.135967  	85.629265 
946.100391  	85.882329 
947.064816  	86.033193 
948.029240  	86.160364 
948.993665  	86.287875 
949.958089  	86.420714 
950.922514  	86.544512 
951.886938  	86.632521 
952.851363  	86.656904 
953.815787  	86.709978 
954.780211  	86.808808 
955.744636  	86.941942 
956.709060  	86.991930 
957.673485  	87.009591 
958.637909  	87.054031 
959.602334  	87.075635 
960.566758  	87.104133 
961.531183  	87.106845 
962.495607  	87.114546 
963.460032  	87.188678 
964.424456  	87.253745 
965.388880  	87.220427 
966.353305  	87.202397 
967.317729  	87.256487 
968.282154  	87.302304 
969.246578  	87.322316 
970.211003  	87.297649 
971.175427  	87.237594 
972.139852  	87.215377 
973.104276  	87.223923 
974.068701  	87.219031 
975.033125  	87.219355 
975.997549  	87.193645 
976.961974  	87.134496 
977.926398  	87.118135 
978.890823  	87.106548 
979.855247  	87.065566 
980.819672  	87.025048 
981.784096  	86.981905 
982.748521  	86.910629 
983.712945  	86.814630 
984.677370  	86.666528 
985.641794  	86.551620 
986.606218  	86.477000 
987.570643  	86.399717 
988.535067  	86.379444 
989.499492  	86.413798 
990.463916  	86.399186 
991.428341  	86.356687 
992.392765  	86.276996 
993.357190  	86.194129 
994.321614  	86.142874 
995.286039  	86.075134 
996.250463  	86.039706 
997.214888  	86.009206 
998.179312  	85.985444 
999.143736  	85.910340 
1000.108161  	85.837450 
1001.072585  	85.812623 
1002.037010  	85.780123 
1003.001434  	85.691249 
1003.965859  	85.623689 
1004.930283  	85.586855 
1005.894708  	85.479740 
1006.859132  	85.358159 
1007.823557  	85.258447 
1008.787981  	85.154322 
1009.752405  	85.061340 
1010.716830  	84.957661 
1011.681254  	84.868022 
1012.645679  	84.848405 
1013.610103  	84.819402 
1014.574528  	84.745098 
1015.538952  	84.678165 
1016.503377  	84.677896 
1017.467801  	84.687829 
1018.432226  	84.685347 
1019.396650  	84.677430 
1020.361074  	84.689148 
1021.325499  	84.681031 
1022.289923  	84.617632 
1023.254348  	84.526101 
1024.218772  	84.491582 
1025.183197  	84.464310 
1026.147621  	84.415247 
1027.112046  	84.362113 
1028.076470  	84.282324 
1029.040895  	84.168353 
1030.005319  	84.098559 
1030.969743  	84.038408 
1031.934168  	83.980424 
1032.898592  	83.937844 
1033.863017  	83.866147 
1034.827441  	83.737183 
1035.791866  	83.635236 
1036.756290  	83.588933 
1037.720715  	83.553673 
1038.685139  	83.484077 
1039.649564  	83.437645 
1040.613988  	83.410440 
1041.578412  	83.395120 
1042.542837  	83.412582 
1043.507261  	83.495345 
1044.471686  	83.582266 
1045.436110  	83.641978 
1046.400535  	83.744722 
1047.364959  	83.871753 
1048.329384  	83.911458 
1049.293808  	83.918286 
1050.258233  	83.981067 
1051.222657  	84.031273 
1052.187081  	84.036194 
1053.151506  	83.993904 
1054.115930  	83.984537 
1055.080355  	83.987902 
1056.044779  	83.931165 
1057.009204  	83.833620 
1057.973628  	83.769301 
1058.938053  	83.740961 
1059.902477  	83.648015 
1060.866902  	83.543706 
1061.831326  	83.510258 
1062.795751  	83.448303 
1063.760175  	83.372635 
1064.724599  	83.357555 
1065.689024  	83.392709 
1066.653448  	83.484398 
1067.617873  	83.580452 
1068.582297  	83.729548 
1069.546722  	83.904144 
1070.511146  	84.070498 
1071.475571  	84.201749 
1072.439995  	84.280708 
1073.404420  	84.335362 
1074.368844  	84.364501 
1075.333268  	84.376285 
1076.297693  	84.385360 
1077.262117  	84.341645 
1078.226542  	84.347318 
1079.190966  	84.371532 
1080.155391  	84.280738 
1081.119815  	84.193992 
1082.084240  	84.170192 
1083.048664  	84.147395 
1084.013089  	84.103119 
1084.977513  	84.038022 
1085.941937  	83.911215 
1086.906362  	83.792895 
1087.870786  	83.710428 
1088.835211  	83.617346 
1089.799635  	83.521623 
1090.764060  	83.443255 
1091.728484  	83.410861 
1092.692909  	83.375734 
1093.657333  	83.291092 
1094.621758  	83.218434 
1095.586182  	83.248639 
1096.550606  	83.251141 
1097.515031  	83.227402 
1098.479455  	83.239471 
1099.443880  	83.252620 
1100.408304  	83.253584 
1101.372729  	83.253907 
1102.337153  	83.274644 
1103.301578  	83.302343 
1104.266002  	83.321082 
1105.230427  	83.315233 
1106.194851  	83.321797 
1107.159275  	83.335384 
1108.123700  	83.375162 
1109.088124  	83.386518 
1110.052549  	83.379176 
1111.016973  	83.412879 
1111.981398  	83.415048 
1112.945822  	83.397841 
1113.910247  	83.381316 
1114.874671  	83.384737 
1115.839096  	83.375362 
1116.803520  	83.326411 
1117.767945  	83.256883 
1118.732369  	83.224260 
1119.696793  	83.197261 
1120.661218  	83.112157 
1121.625642  	82.997884 
1122.590067  	82.916581 
1123.554491  	82.832903 
1124.518916  	82.716563 
1125.483340  	82.619425 
1126.447765  	82.553283 
1127.412189  	82.449862 
1128.376614  	82.291016 
1129.341038  	82.110507 
1130.305462  	81.955650 
1131.269887  	81.737358 
1132.234311  	81.381081 
1133.198736  	80.963627 
1134.163160  	80.543532 
1135.127585  	80.047431 
1136.092009  	79.489468 
1137.056434  	79.003546 
1138.020858  	78.726552 
1138.985283  	78.605175 
1139.949707  	78.566760 
1140.914131  	78.656825 
1141.878556  	78.776627 
1142.842980  	78.805476 
1143.807405  	78.842677 
1144.771829  	78.862707 
1145.736254  	78.836203 
1146.700678  	78.848155 
1147.665103  	78.876955 
1148.629527  	78.965924 
1149.593952  	79.122524 
1150.558376  	79.320625 
1151.522800  	79.514233 
1152.487225  	79.729814 
1153.451649  	79.956051 
1154.416074  	80.162539 
1155.380498  	80.321966 
1156.344923  	80.472925 
1157.309347  	80.607510 
1158.273772  	80.680497 
1159.238196  	80.687853 
1160.202621  	80.709683 
1161.167045  	80.693472 
1162.131469  	80.559047 
1163.095894  	80.404055 
1164.060318  	80.286501 
1165.024743  	80.116500 
1165.989167  	79.881863 
1166.953592  	79.638630 
1167.918016  	79.371801 
1168.882441  	79.058498 
1169.846865  	78.679689 
1170.811290  	78.233717 
1171.775714  	77.735410 
1172.740138  	77.219301 
1173.704563  	76.612850 
1174.668987  	75.933460 
1175.633412  	75.359562 
1176.597836  	74.862024 
1177.562261  	74.433626 
1178.526685  	74.131292 
1179.491110  	74.026556 
1180.455534  	74.066448 
1181.419959  	74.250888 
1182.384383  	74.487791 
1183.348808  	74.713043 
1184.313232  	74.953734 
1185.277656  	75.095823 
1186.242081  	75.144741 
1187.206505  	75.099187 
1188.170930  	74.949506 
1189.135354  	74.629958 
1190.099779  	74.144143 
1191.064203  	73.573902 
1192.028628  	72.840293 
1192.993052  	71.893408 
1193.957477  	70.870816 
1194.921901  	69.927841 
1195.886325  	69.148407 
1196.850750  	68.698152 
1197.815174  	68.750886 
1198.779599  	69.346900 
1199.744023  	70.356074 
1200.708448  	71.516605 
1201.672872  	72.704385 
1202.637297  	73.879269 
1203.601721  	74.903187 
1204.566146  	75.802393 
1205.530570  	76.572018 
1206.494994  	77.181443 
1207.459419  	77.650446 
1208.423843  	77.978756 
1209.388268  	78.226057 
1210.352692  	78.399678 
1211.317117  	78.482899 
1212.281541  	78.476904 
1213.245966  	78.495917 
1214.210390  	78.527024 
1215.174815  	78.486764 
1216.139239  	78.410087 
1217.103663  	78.333041 
1218.068088  	78.227235 
1219.032512  	77.988210 
1219.996937  	77.679962 
1220.961361  	77.330156 
1221.925786  	76.911715 
1222.890210  	76.458564 
1223.854635  	76.129020 
1224.819059  	76.032454 
1225.783484  	76.204205 
1226.747908  	76.467363 
1227.712332  	76.633835 
1228.676757  	76.660579 
1229.641181  	76.583796 
1230.605606  	76.444636 
1231.570030  	76.223772 
1232.534455  	76.004465 
1233.498879  	75.827549 
1234.463304  	75.627711 
1235.427728  	75.444642 
1236.392153  	75.312903 
1237.356577  	75.186921 
1238.321002  	75.061048 
1239.285426  	74.968937 
1240.249850  	74.891155 
1241.214275  	74.804016 
1242.178699  	74.670721 
1243.143124  	74.509885 
1244.107548  	74.370737 
1245.071973  	74.300205 
1246.036397  	74.215164 
1247.000822  	74.052034 
1247.965246  	73.913292 
1248.929671  	73.786782 
1249.894095  	73.633898 
1250.858519  	73.483584 
1251.822944  	73.314873 
1252.787368  	73.117090 
1253.751793  	72.906970 
1254.716217  	72.664293 
1255.680642  	72.471079 
1256.645066  	72.299756 
1257.609491  	72.058763 
1258.573915  	71.744509 
1259.538340  	71.355626 
1260.502764  	70.931426 
1261.467188  	70.717702 
1262.431613  	70.462603 
1263.396037  	70.115132 
1264.360462  	69.788844 
1265.324886  	69.444251 
1266.289311  	69.061450 
1267.253735  	68.744977 
1268.218160  	68.436280 
1269.182584  	68.083099 
1270.147009  	67.738200 
1271.111433  	67.503220 
1272.075857  	67.324542 
1273.040282  	67.357305 
1274.004706  	67.425930 
1274.969131  	67.553158 
1275.933555  	67.845814 
1276.897980  	68.320606 
1277.862404  	68.936492 
1278.826829  	69.647061 
1279.791253  	70.397187 
1280.755678  	71.202749 
1281.720102  	71.998792 
1282.684526  	72.728683 
1283.648951  	73.411530 
1284.613375  	74.029242 
1285.577800  	74.590772 
1286.542224  	75.006706 
1287.506649  	75.229151 
1288.471073  	75.577165 
1289.435498  	76.039089 
1290.399922  	76.324171 
1291.364347  	76.560196 
1292.328771  	76.793150 
1293.293195  	76.954131 
1294.257620  	77.081236 
1295.222044  	77.121128 
1296.186469  	77.073737 
1297.150893  	77.094306 
1298.115318  	77.253232 
1299.079742  	77.278198 
1300.044167  	77.276180 
1301.008591  	77.259790 
1301.973016  	77.260814 
1302.937440  	77.305169 
1303.901865  	77.409079 
1304.866289  	77.548536 
1305.830713  	77.672096 
1306.795138  	77.761435 
1307.759562  	77.821565 
1308.723987  	77.959688 
1309.688411  	78.231443 
1310.652836  	78.369688 
1311.617260  	78.344832 
1312.581685  	78.059482 
1313.546109  	78.173575 
1314.510534  	78.399319 
1315.474958  	78.615795 
1316.439382  	78.565936 
1317.403807  	78.432146 
1318.368231  	78.385890 
1319.332656  	78.226924 
1320.297080  	78.477522 
1321.261505  	78.660012 
1322.225929  	78.765644 
1323.190354  	78.650440 
1324.154778  	78.586735 
1325.119203  	78.527851 
1326.083627  	78.430911 
1327.048051  	78.325375 
1328.012476  	78.273558 
1328.976900  	78.207405 
1329.941325  	78.119611 
1330.905749  	78.153918 
1331.870174  	78.209536 
1332.834598  	78.131510 
1333.799023  	78.051094 
1334.763447  	77.964771 
1335.727872  	77.596207 
1336.692296  	76.959621 
1337.656720  	76.762002 
1338.621145  	76.014892 
1339.585569  	75.229116 
1340.549994  	75.418983 
1341.514418  	76.550078 
1342.478843  	77.030980 
1343.443267  	76.936718 
1344.407692  	76.803779 
1345.372116  	76.692133 
1346.336541  	76.573389 
1347.300965  	76.424269 
1348.265389  	76.202741 
1349.229814  	75.874202 
1350.194238  	75.745640 
1351.158663  	75.654430 
1352.123087  	75.430466 
1353.087512  	75.225687 
1354.051936  	74.876402 
1355.016361  	74.388914 
1355.980785  	74.382972 
1356.945210  	74.290577 
1357.909634  	73.942599 
1358.874059  	73.767894 
1359.838483  	73.557974 
1360.802907  	72.727115 
1361.767332  	72.055812 
1362.731756  	71.100105 
1363.696181  	71.055197 
1364.660605  	72.083982 
1365.625030  	72.160807 
1366.589454  	71.945680 
1367.553879  	71.500283 
1368.518303  	70.856362 
1369.482728  	70.826386 
1370.447152  	71.168275 
1371.411576  	71.195781 
1372.376001  	71.156694 
1373.340425  	70.719736 
1374.304850  	70.578556 
1375.269274  	71.461683 
1376.233699  	72.676590 
1377.198123  	73.186915 
1378.162548  	73.317379 
1379.126972  	73.790705 
1380.091397  	74.303239 
1381.055821  	74.798831 
1382.020245  	75.087161 
1382.984670  	75.324755 
1383.949094  	75.558106 
1384.913519  	75.734442 
1385.877943  	75.447958 
1386.842368  	74.600528 
1387.806792  	74.686737 
1388.771217  	76.032361 
1389.735641  	76.644248 
1390.700066  	76.798318 
1391.664490  	77.053617 
1392.628914  	77.330734 
1393.593339  	76.914949 
1394.557763  	75.873681 
1395.522188  	75.960775 
1396.486612  	76.872046 
1397.451037  	76.946984 
1398.415461  	76.372288 
1399.379886  	76.313784 
1400.344310  	77.238288 
1401.308735  	77.664996 
1402.273159  	77.522635 
1403.237583  	77.225766 
1404.202008  	76.404856 
1405.166432  	75.372803 
1406.130857  	75.614709 
1407.095281  	75.624178 
1408.059706  	74.992360 
1409.024130  	74.099133 
1409.988555  	72.920743 
1410.952979  	71.671126 
1411.917404  	70.189868 
1412.881828  	68.949965 
1413.846252  	67.625173 
1414.810677  	66.287818 
1415.775101  	65.107846 
1416.739526  	64.590888 
1417.703950  	65.061958 
1418.668375  	65.693483 
1419.632799  	67.328046 
1420.597224  	70.504161 
1421.561648  	71.724693 
1422.526073  	72.368599 
1423.490497  	71.959791 
1424.454922  	72.258580 
1425.419346  	73.648443 
1426.383770  	74.219605 
1427.348195  	74.280859 
1428.312619  	74.016964 
1429.277044  	73.472265 
1430.241468  	73.036196 
1431.205893  	73.348583 
1432.170317  	73.126876 
1433.134742  	72.666686 
1434.099166  	72.650283 
1435.063591  	72.311278 
1436.028015  	70.924200 
1436.992439  	70.212235 
1437.956864  	71.758613 
1438.921288  	72.376274 
1439.885713  	72.531832 
1440.850137  	72.612799 
1441.814562  	72.721929 
1442.778986  	72.828568 
1443.743411  	72.838872 
1444.707835  	72.801962 
1445.672260  	72.734820 
1446.636684  	72.528580 
1447.601108  	71.685900 
1448.565533  	71.616400 
1449.529957  	72.270295 
1450.494382  	72.166838 
1451.458806  	71.417816 
1452.423231  	70.713253 
1453.387655  	70.729266 
1454.352080  	69.959989 
1455.316504  	68.515810 
1456.280929  	67.225703 
1457.245353  	66.165776 
1458.209777  	65.950375 
1459.174202  	66.249379 
1460.138626  	66.793681 
1461.103051  	66.690513 
1462.067475  	65.901094 
1463.031900  	65.111628 
1463.996324  	64.169104 
1464.960749  	63.574818 
1465.925173  	65.001107 
1466.889598  	66.408737 
1467.854022  	67.587234 
1468.818446  	68.542413 
1469.782871  	68.841557 
1470.747295  	68.190542 
1471.711720  	66.191750 
1472.676144  	64.254874 
1473.640569  	64.108417 
1474.604993  	65.026507 
1475.569418  	65.067392 
1476.533842  	65.468575 
1477.498267  	67.691268 
1478.462691  	69.345942 
1479.427116  	70.730133 
1480.391540  	71.787152 
1481.355964  	72.588153 
1482.320389  	74.236814 
1483.284813  	75.453708 
1484.249238  	76.154009 
1485.213662  	76.290116 
1486.178087  	75.871619 
1487.142511  	75.301421 
1488.106936  	75.325355 
1489.071360  	74.168663 
1490.035785  	72.570352 
1491.000209  	73.595204 
1491.964633  	74.966654 
1492.929058  	75.280148 
1493.893482  	74.929706 
1494.857907  	74.206157 
1495.822331  	72.871613 
1496.786756  	72.115581 
1497.751180  	72.317434 
1498.715605  	71.490507 
1499.680029  	71.340555 
1500.644454  	71.316730 
1501.608878  	70.520166 
1502.573302  	70.102169 
1503.537727  	69.855416 
1504.502151  	68.858822 
1505.466576  	66.796637 
1506.431000  	62.949342 
1507.395425  	61.183669 
1508.359849  	62.179096 
1509.324274  	62.778588 
1510.288698  	62.915833 
1511.253123  	63.105610 
1512.217547  	62.132111 
1513.181971  	61.760579 
1514.146396  	61.221170 
1515.110820  	59.522738 
1516.075245  	57.781186 
1517.039669  	55.912347 
1518.004094  	56.126976 
1518.968518  	56.106719 
1519.932943  	54.427260 
1520.897367  	51.485009 
1521.861792  	50.757411 
1522.826216  	50.717056 
1523.790640  	50.496071 
1524.755065  	49.323690 
1525.719489  	48.016617 
1526.683914  	47.500430 
1527.648338  	46.576670 
1528.612763  	46.140995 
1529.577187  	46.288599 
1530.541612  	46.028637 
1531.506036  	45.271452 
1532.470461  	44.797861 
1533.434885  	44.372260 
1534.399309  	45.393914 
1535.363734  	46.335987 
1536.328158  	47.153402 
1537.292583  	47.787306 
1538.257007  	47.388401 
1539.221432  	46.237423 
1540.185856  	47.986267 
1541.150281  	49.637616 
1542.114705  	50.358128 
1543.079130  	51.729303 
1544.043554  	52.339746 
1545.007979  	52.802631 
1545.972403  	54.848326 
1546.936827  	56.629466 
1547.901252  	57.520772 
1548.865676  	57.744856 
1549.830101  	57.042267 
1550.794525  	58.468578 
1551.758950  	60.146150 
1552.723374  	60.712822 
1553.687799  	60.431494 
1554.652223  	60.622572 
1555.616648  	62.156050 
1556.581072  	62.477809 
1557.545496  	61.512291 
1558.509921  	59.189694 
1559.474345  	59.464928 
1560.438770  	63.246011 
1561.403194  	65.852711 
1562.367619  	66.912290 
1563.332043  	67.612060 
1564.296468  	67.796511 
1565.260892  	68.274870 
1566.225317  	69.480318 
1567.189741  	70.167628 
1568.154165  	70.272457 
1569.118590  	69.450313 
1570.083014  	70.254309 
1571.047439  	72.131347 
1572.011863  	72.911721 
1572.976288  	73.373142 
1573.940712  	73.792832 
1574.905137  	73.764756 
1575.869561  	73.080097 
1576.833986  	73.325164 
1577.798410  	74.620503 
1578.762834  	75.466842 
1579.727259  	75.986404 
1580.691683  	76.276977 
1581.656108  	76.515043 
1582.620532  	76.635062 
1583.584957  	76.742127 
1584.549381  	76.837657 
1585.513806  	76.929081 
1586.478230  	76.914867 
1587.442655  	76.893527 
1588.407079  	76.785310 
1589.371503  	76.557428 
1590.335928  	76.290870 
1591.300352  	76.141433 
1592.264777  	75.890191 
1593.229201  	75.624296 
1594.193626  	74.996395 
1595.158050  	74.565126 
1596.122475  	74.211742 
1597.086899  	73.815811 
1598.051324  	73.334228 
1599.015748  	72.730072 
1599.980173  	72.005680 
1600.944597  	71.124027 
1601.909021  	70.188165 
1602.873446  	69.157149 
1603.837870  	68.176192 
1604.802295  	67.470676 
1605.766719  	66.505027 
1606.731144  	65.336023 
1607.695568  	64.287555 
1608.659993  	63.469952 
1609.624417  	62.285530 
1610.588842  	61.614354 
1611.553266  	60.712053 
1612.517690  	59.576288 
1613.482115  	58.342836 
1614.446539  	57.112666 
1615.410964  	55.556604 
1616.375388  	53.662733 
1617.339813  	52.028651 
1618.304237  	51.717290 
1619.268662  	50.826907 
1620.233086  	49.817954 
1621.197511  	48.724646 
1622.161935  	47.620390 
1623.126359  	46.089575 
1624.090784  	45.522690 
1625.055208  	45.319866 
1626.019633  	44.759013 
1626.984057  	43.795200 
1627.948482  	42.880491 
1628.912906  	42.555477 
1629.877331  	42.298183 
1630.841755  	41.875833 
1631.806180  	41.788301 
1632.770604  	41.882918 
1633.735028  	42.034116 
1634.699453  	41.545416 
1635.663877  	41.976192 
1636.628302  	43.982256 
1637.592726  	45.064523 
1638.557151  	46.896627 
1639.521575  	48.337029 
1640.486000  	49.608072 
1641.450424  	51.074454 
1642.414849  	52.428828 
1643.379273  	53.979495 
1644.343697  	55.211029 
1645.308122  	55.701138 
1646.272546  	56.243520 
1647.236971  	57.513239 
1648.201395  	59.323965 
1649.165820  	61.896668 
1650.130244  	63.374083 
1651.094669  	64.167447 
1652.059093  	63.882397 
1653.023518  	62.206629 
1653.987942  	64.548490 
1654.952366  	67.847972 
1655.916791  	69.963203 
1656.881215  	71.207307 
1657.845640  	72.467789 
1658.810064  	73.713321 
1659.774489  	74.740573 
1660.738913  	75.419696 
1661.703338  	75.761463 
1662.667762  	76.102089 
1663.632187  	77.762532 
1664.596611  	79.210372 
1665.561036  	80.187289 
1666.525460  	81.083752 
1667.489884  	81.423405 
1668.454309  	80.782069 
1669.418733  	80.860688 
1670.383158  	82.702019 
1671.347582  	83.101002 
1672.312007  	84.068059 
1673.276431  	85.242317 
1674.240856  	85.388789 
1675.205280  	84.637350 
1676.169705  	85.741734 
1677.134129  	87.110889 
1678.098553  	87.655893 
1679.062978  	87.582664 
1680.027402  	86.545635 
1680.991827  	87.096815 
1681.956251  	88.317930 
1682.920676  	87.563293 
1683.885100  	84.157778 
1684.849525  	84.507675 
1685.813949  	88.548208 
1686.778374  	89.713356 
1687.742798  	89.425983 
1688.707222  	89.035608 
1689.671647  	89.584829 
1690.636071  	90.015141 
1691.600496  	90.840296 
1692.564920  	91.066659 
1693.529345  	90.949099 
1694.493769  	90.434136 
1695.458194  	89.133596 
1696.422618  	87.961242 
1697.387043  	89.031700 
1698.351467  	89.551987 
1699.315891  	89.199134 
1700.280316  	86.589668 
1701.244740  	88.255248 
1702.209165  	89.775580 
1703.173589  	90.157751 
1704.138014  	89.573312 
1705.102438  	89.316154 
1706.066863  	89.413792 
1707.031287  	89.458723 
1707.995712  	90.378234 
1708.960136  	90.761434 
1709.924560  	90.208770 
1710.888985  	90.139362 
1711.853409  	90.619337 
1712.817834  	90.304308 
1713.782258  	89.352605 
1714.746683  	88.118441 
1715.711107  	88.127726 
1716.675532  	88.353412 
1717.639956  	86.870528 
1718.604381  	86.625754 
1719.568805  	88.979910 
1720.533230  	89.958136 
1721.497654  	90.013919 
1722.462078  	89.815104 
1723.426503  	89.323745 
1724.390927  	89.469187 
1725.355352  	89.896845 
1726.319776  	89.883535 
1727.284201  	89.820134 
1728.248625  	89.692631 
1729.213050  	88.903104 
1730.177474  	87.543208 
1731.141899  	88.406727 
1732.106323  	88.697165 
1733.070747  	87.376600 
1734.035172  	85.051343 
1734.999596  	86.859144 
1735.964021  	89.011393 
1736.928445  	89.561256 
1737.892870  	89.524989 
1738.857294  	89.397034 
1739.821719  	88.855317 
1740.786143  	89.723899 
1741.750568  	90.459252 
1742.714992  	89.770405 
1743.679416  	88.720581 
1744.643841  	89.656735 
1745.608265  	90.359041 
1746.572690  	90.142674 
1747.537114  	89.665885 
1748.501539  	89.326419 
1749.465963  	89.494245 
1750.430388  	89.904901 
1751.394812  	89.066865 
1752.359237  	90.352962 
1753.323661  	91.602779 
1754.288085  	92.117626 
1755.252510  	92.140315 
1756.216934  	91.424038 
1757.181359  	90.679015 
1758.145783  	91.426028 
1759.110208  	91.914800 
1760.074632  	92.151001 
1761.039057  	91.527804 
1762.003481  	90.533222 
1762.967906  	91.523226 
1763.932330  	92.309519 
1764.896754  	92.443374 
1765.861179  	92.476905 
1766.825603  	92.261868 
1767.790028  	91.230994 
1768.754452  	90.912555 
1769.718877  	92.007138 
1770.683301  	91.685220 
1771.647726  	90.496284 
1772.612150  	90.044616 
1773.576575  	91.294140 
1774.540999  	91.950141 
1775.505423  	91.531034 
1776.469848  	91.818458 
1777.434272  	92.556786 
1778.398697  	92.319285 
1779.363121  	91.969271 
1780.327546  	91.486073 
1781.291970  	91.396124 
1782.256395  	92.166735 
1783.220819  	92.544552 
1784.185244  	92.133188 
1785.149668  	91.509242 
1786.114093  	92.119939 
1787.078517  	92.622916 
1788.042941  	92.611753 
1789.007366  	92.508336 
1789.971790  	92.104316 
1790.936215  	91.042722 
1791.900639  	90.555465 
1792.865064  	90.549006 
1793.829488  	91.549617 
1794.793913  	92.052191 
1795.758337  	91.381713 
1796.722762  	91.436073 
1797.687186  	92.260741 
1798.651610  	92.303496 
1799.616035  	91.625130 
1800.580459  	91.565560 
1801.544884  	91.333209 
1802.509308  	91.193731 
1803.473733  	92.058248 
1804.438157  	92.602397 
1805.402582  	92.570759 
1806.367006  	92.535881 
1807.331431  	92.226365 
1808.295855  	92.087485 
1809.260279  	92.396644 
1810.224704  	91.940948 
1811.189128  	91.499735 
1812.153553  	91.826513 
1813.117977  	92.227815 
1814.082402  	92.697733 
1815.046826  	92.748959 
1816.011251  	92.768479 
1816.975675  	92.417807 
1817.940100  	92.187955 
1818.904524  	92.503181 
1819.868948  	92.654740 
1820.833373  	92.571454 
1821.797797  	92.486865 
1822.762222  	92.220658 
1823.726646  	92.240870 
1824.691071  	91.618446 
1825.655495  	90.926520 
1826.619920  	91.990317 
1827.584344  	92.423203 
1828.548769  	91.915069 
1829.513193  	90.694481 
1830.477617  	90.723290 
1831.442042  	92.034727 
1832.406466  	92.416874 
1833.370891  	92.253835 
1834.335315  	92.417246 
1835.299740  	92.605756 
1836.264164  	92.390639 
1837.228589  	91.896132 
1838.193013  	92.107006 
1839.157438  	92.482174 
1840.121862  	92.515078 
1841.086287  	92.459045 
1842.050711  	92.009693 
1843.015135  	91.651666 
1843.979560  	90.831702 
1844.943984  	90.669328 
1845.908409  	91.635747 
1846.872833  	91.947502 
1847.837258  	91.384832 
1848.801682  	91.702508 
1849.766107  	92.400902 
1850.730531  	92.667668 
1851.694956  	92.601719 
1852.659380  	92.536506 
1853.623804  	92.561417 
1854.588229  	92.591388 
1855.552653  	92.556477 
1856.517078  	92.498823 
1857.481502  	92.430054 
1858.445927  	92.248881 
1859.410351  	92.228425 
1860.374776  	92.350423 
1861.339200  	92.235518 
1862.303625  	92.301311 
1863.268049  	92.452758 
1864.232473  	92.480275 
1865.196898  	92.419759 
1866.161322  	92.069437 
1867.125747  	91.622619 
1868.090171  	90.999664 
1869.054596  	90.475825 
1870.019020  	90.990915 
1870.983445  	91.771168 
1871.947869  	92.301590 
1872.912294  	92.554344 
1873.876718  	92.582655 
1874.841142  	92.515636 
1875.805567  	92.487508 
1876.769991  	92.501748 
1877.734416  	92.533108 
1878.698840  	92.422465 
1879.663265  	92.297809 
1880.627689  	92.311160 
1881.592114  	92.350789 
1882.556538  	92.434882 
1883.520963  	92.487351 
1884.485387  	92.281425 
1885.449811  	92.122739 
1886.414236  	92.307008 
1887.378660  	92.457140 
1888.343085  	92.208513 
1889.307509  	91.390388 
1890.271934  	91.377106 
1891.236358  	92.175618 
1892.200783  	92.356537 
1893.165207  	92.362821 
1894.129632  	92.200605 
1895.094056  	91.748827 
1896.058480  	91.914292 
1897.022905  	92.377901 
1897.987329  	92.370894 
1898.951754  	92.354061 
1899.916178  	92.316451 
1900.880603  	92.371727 
1901.845027  	92.269578 
1902.809452  	92.370936 
1903.773876  	92.417649 
1904.738301  	92.417415 
1905.702725  	92.373511 
1906.667150  	92.386074 
1907.631574  	92.082255 
1908.595998  	92.006952 
1909.560423  	91.870865 
1910.524847  	91.757548 
1911.489272  	92.212125 
1912.453696  	92.416818 
1913.418121  	92.422779 
1914.382545  	92.340963 
1915.346970  	92.336615 
1916.311394  	92.377117 
1917.275819  	91.906941 
1918.240243  	91.192489 
1919.204667  	91.820669 
1920.169092  	92.301258 
1921.133516  	92.181481 
1922.097941  	91.581489 
1923.062365  	90.903808 
1924.026790  	91.791683 
1924.991214  	92.461746 
1925.955639  	92.400865 
1926.920063  	92.462757 
1927.884488  	92.534649 
1928.848912  	92.541895 
1929.813336  	92.548841 
1930.777761  	92.542193 
1931.742185  	92.442241 
1932.706610  	92.369039 
1933.671034  	92.529197 
1934.635459  	92.563673 
1935.599883  	92.506659 
1936.564308  	92.445060 
1937.528732  	92.329751 
1938.493157  	92.408109 
1939.457581  	92.650609 
1940.422005  	92.576886 
1941.386430  	92.066955 
1942.350854  	91.012316 
1943.315279  	91.318423 
1944.279703  	92.298778 
1945.244128  	92.331171 
1946.208552  	92.364994 
1947.172977  	92.361321 
1948.137401  	92.501474 
1949.101826  	92.587198 
1950.066250  	92.597220 
1951.030674  	92.684236 
1951.995099  	92.441652 
1952.959523  	92.481769 
1953.923948  	92.514176 
1954.888372  	92.481307 
1955.852797  	92.481720 
1956.817221  	92.660520 
1957.781646  	92.671053 
1958.746070  	92.687492 
1959.710495  	92.708274 
1960.674919  	92.610980 
1961.639344  	92.505961 
1962.603768  	92.391672 
1963.568192  	92.307146 
1964.532617  	92.744831 
1965.497041  	92.946987 
1966.461466  	92.536355 
1967.425890  	92.068260 
1968.390315  	92.476967 
1969.354739  	92.703733 
1970.319164  	92.640836 
1971.283588  	92.799503 
1972.248013  	92.975606 
1973.212437  	92.810293 
1974.176861  	92.502630 
1975.141286  	92.302483 
1976.105710  	92.613554 
1977.070135  	92.974507 
1978.034559  	92.922228 
1978.998984  	92.538096 
1979.963408  	92.106652 
1980.927833  	92.031185 
1981.892257  	92.213006 
1982.856682  	92.185003 
1983.821106  	92.336366 
1984.785530  	92.564355 
1985.749955  	92.519658 
1986.714379  	92.568659 
1987.678804  	92.348141 
1988.643228  	91.963688 
1989.607653  	92.358277 
1990.572077  	92.347854 
1991.536502  	91.724291 
1992.500926  	91.600966 
1993.465351  	92.111377 
1994.429775  	92.448761 
1995.394199  	92.541156 
1996.358624  	92.318850 
1997.323048  	92.197676 
1998.287473  	92.049683 
1999.251897  	92.355609 
2000.216322  	92.747919 
2001.180746  	93.079560 
2002.145171  	92.887345 
2003.109595  	92.920191 
2004.074020  	93.022872 
2005.038444  	93.040728 
2006.002868  	92.928330 
2006.967293  	92.943373 
2007.931717  	92.524123 
2008.896142  	92.362013 
2009.860566  	92.474028 
2010.824991  	92.800323 
2011.789415  	92.914099 
2012.753840  	92.894024 
2013.718264  	92.557403 
2014.682689  	92.401066 
2015.647113  	92.696357 
2016.611537  	92.458727 
2017.575962  	92.426001 
2018.540386  	92.573307 
2019.504811  	92.435841 
2020.469235  	92.534386 
2021.433660  	92.523339 
2022.398084  	92.489112 
2023.362509  	92.760208 
2024.326933  	92.932977 
2025.291358  	92.690966 
2026.255782  	92.521369 
2027.220207  	92.642923 
2028.184631  	92.693168 
2029.149055  	92.790560 
2030.113480  	92.934510 
2031.077904  	92.973360 
2032.042329  	92.838791 
2033.006753  	92.555517 
2033.971178  	92.470454 
2034.935602  	92.518688 
2035.900027  	92.636740 
2036.864451  	92.511012 
2037.828876  	92.645337 
2038.793300  	92.662108 
2039.757724  	92.455291 
2040.722149  	92.151171 
2041.686573  	91.909034 
2042.650998  	91.891864 
2043.615422  	92.193972 
2044.579847  	92.415376 
2045.544271  	92.540642 
2046.508696  	92.688115 
2047.473120  	92.802655 
2048.437545  	92.805784 
2049.401969  	92.838347 
2050.366393  	92.254561 
2051.330818  	91.956807 
2052.295242  	92.279985 
2053.259667  	92.623276 
2054.224091  	92.406791 
2055.188516  	92.185468 
2056.152940  	92.324511 
2057.117365  	92.272235 
2058.081789  	92.084958 
2059.046214  	92.169059 
2060.010638  	92.180177 
2060.975062  	92.103030 
2061.939487  	92.209207 
2062.903911  	92.226145 
2063.868336  	92.157691 
2064.832760  	91.911396 
2065.797185  	91.902693 
2066.761609  	92.100939 
2067.726034  	92.202591 
2068.690458  	92.348885 
2069.654883  	92.289362 
2070.619307  	92.153564 
2071.583731  	92.117082 
2072.548156  	92.171861 
2073.512580  	92.136348 
2074.477005  	92.103846 
2075.441429  	92.149776 
2076.405854  	92.101160 
2077.370278  	92.056577 
2078.334703  	92.176845 
2079.299127  	92.077545 
2080.263552  	91.992795 
2081.227976  	92.051625 
2082.192401  	92.102581 
2083.156825  	91.930652 
2084.121249  	92.007225 
2085.085674  	92.265643 
2086.050098  	92.141706 
2087.014523  	92.022793 
2087.978947  	92.108936 
2088.943372  	92.088601 
2089.907796  	91.919344 
2090.872221  	91.995681 
2091.836645  	92.422606 
2092.801070  	92.346140 
2093.765494  	92.216975 
2094.729918  	92.190332 
2095.694343  	92.217285 
2096.658767  	92.176864 
2097.623192  	92.204257 
2098.587616  	92.119701 
2099.552041  	92.029944 
2100.516465  	92.007205 
2101.480890  	92.097746 
2102.445314  	92.077761 
2103.409739  	92.083874 
2104.374163  	92.028691 
2105.338587  	91.961397 
2106.303012  	91.908322 
2107.267436  	91.828835 
2108.231861  	91.830242 
2109.196285  	92.040645 
2110.160710  	92.191942 
2111.125134  	92.262505 
2112.089559  	92.110948 
2113.053983  	92.023871 
2114.018408  	92.020848 
2114.982832  	92.023943 
2115.947256  	91.910936 
2116.911681  	92.040883 
2117.876105  	92.246972 
2118.840530  	92.225843 
2119.804954  	92.246140 
2120.769379  	92.260945 
2121.733803  	92.257928 
2122.698228  	92.302989 
2123.662652  	92.262967 
2124.627077  	92.306309 
2125.591501  	92.407112 
2126.555925  	92.563887 
2127.520350  	92.520856 
2128.484774  	92.521320 
2129.449199  	92.695997 
2130.413623  	92.792375 
2131.378048  	92.735885 
2132.342472  	92.828442 
2133.306897  	92.780064 
2134.271321  	92.554319 
2135.235746  	92.236767 
2136.200170  	92.166574 
2137.164594  	92.376264 
2138.129019  	92.750434 
2139.093443  	92.757697 
2140.057868  	92.583442 
2141.022292  	92.474934 
2141.986717  	92.437003 
2142.951141  	92.432319 
2143.915566  	92.608893 
2144.879990  	92.651872 
2145.844415  	92.690177 
2146.808839  	92.797111 
2147.773264  	92.839739 
2148.737688  	92.561520 
2149.702112  	92.464606 
2150.666537  	92.631375 
2151.630961  	92.767277 
2152.595386  	92.780209 
2153.559810  	92.836219 
2154.524235  	93.097843 
2155.488659  	93.526832 
2156.453084  	93.539921 
2157.417508  	93.298899 
2158.381933  	93.221506 
2159.346357  	92.774068 
2160.310781  	92.192148 
2161.275206  	91.920091 
2162.239630  	91.810078 
2163.204055  	91.986687 
2164.168479  	92.174856 
2165.132904  	92.223936 
2166.097328  	92.046788 
2167.061753  	92.300358 
2168.026177  	92.281548 
2168.990602  	92.177664 
2169.955026  	92.252534 
2170.919450  	92.410470 
2171.883875  	92.276478 
2172.848299  	92.275057 
2173.812724  	92.300137 
2174.777148  	92.565859 
2175.741573  	92.688049 
2176.705997  	92.389786 
2177.670422  	92.177459 
2178.634846  	92.353874 
2179.599271  	92.248168 
2180.563695  	92.200528 
2181.528119  	92.309983 
2182.492544  	92.283188 
2183.456968  	91.846771 
2184.421393  	91.984896 
2185.385817  	92.381404 
2186.350242  	92.168319 
2187.314666  	91.761919 
2188.279091  	91.949538 
2189.243515  	92.021516 
2190.207940  	92.012910 
2191.172364  	92.087134 
2192.136788  	92.291347 
2193.101213  	92.137866 
2194.065637  	92.094813 
2195.030062  	92.050616 
2195.994486  	91.892369 
2196.958911  	91.983128 
2197.923335  	92.194294 
2198.887760  	92.194414 
2199.852184  	92.205420 
2200.816609  	92.168681 
2201.781033  	92.197933 
2202.745458  	92.142026 
2203.709882  	92.109387 
2204.674306  	92.078954 
2205.638731  	92.014309 
2206.603155  	91.872745 
2207.567580  	91.892619 
2208.532004  	91.821487 
2209.496429  	91.937019 
2210.460853  	92.050659 
2211.425278  	92.183335 
2212.389702  	92.041168 
2213.354127  	91.725116 
2214.318551  	91.731810 
2215.282975  	91.922226 
2216.247400  	91.957511 
2217.211824  	92.096203 
2218.176249  	92.286760 
2219.140673  	92.423559 
2220.105098  	92.181127 
2221.069522  	91.999062 
2222.033947  	92.027308 
2222.998371  	91.981315 
2223.962796  	91.908757 
2224.927220  	91.955305 
2225.891644  	91.912455 
2226.856069  	91.863656 
2227.820493  	91.980966 
2228.784918  	92.131433 
2229.749342  	92.158424 
2230.713767  	92.132460 
2231.678191  	91.992091 
2232.642616  	91.942840 
2233.607040  	92.094191 
2234.571465  	92.227322 
2235.535889  	92.084849 
2236.500313  	91.960793 
2237.464738  	92.039805 
2238.429162  	92.210306 
2239.393587  	92.058189 
2240.358011  	92.006742 
2241.322436  	92.139964 
2242.286860  	92.062245 
2243.251285  	91.922377 
2244.215709  	91.971694 
2245.180134  	91.874639 
2246.144558  	91.747961 
2247.108982  	91.902588 
2248.073407  	92.045172 
2249.037831  	92.119892 
2250.002256  	92.086643 
2250.966680  	92.062467 
2251.931105  	92.075018 
2252.895529  	92.076538 
2253.859954  	92.159776 
2254.824378  	92.054538 
2255.788803  	92.003151 
2256.753227  	91.976675 
2257.717651  	92.024939 
2258.682076  	91.980318 
2259.646500  	92.099390 
2260.610925  	92.082900 
2261.575349  	91.964081 
2262.539774  	91.904047 
2263.504198  	92.012636 
2264.468623  	91.951119 
2265.433047  	91.883119 
2266.397472  	91.928076 
2267.361896  	92.024405 
2268.326321  	92.020406 
2269.290745  	91.943161 
2270.255169  	91.905871 
2271.219594  	91.963458 
2272.184018  	91.925117 
2273.148443  	91.864284 
2274.112867  	91.793594 
2275.077292  	91.791645 
2276.041716  	91.756012 
2277.006141  	91.848634 
2277.970565  	91.859662 
2278.934990  	91.753790 
2279.899414  	91.736499 
2280.863838  	91.849431 
2281.828263  	91.792558 
2282.792687  	91.651788 
2283.757112  	91.634898 
2284.721536  	91.690834 
2285.685961  	91.598879 
2286.650385  	91.581056 
2287.614810  	91.581805 
2288.579234  	91.567625 
2289.543659  	91.564058 
2290.508083  	91.681024 
2291.472507  	91.695641 
2292.436932  	91.655898 
2293.401356  	91.571181 
2294.365781  	91.559717 
2295.330205  	91.619436 
2296.294630  	91.559309 
2297.259054  	91.526946 
2298.223479  	91.478525 
2299.187903  	91.486845 
2300.152328  	91.505451 
2301.116752  	91.465011 
2302.081176  	91.495415 
2303.045601  	91.410997 
2304.010025  	91.503121 
2304.974450  	91.373645 
2305.938874  	91.366195 
2306.903299  	91.296441 
2307.867723  	91.360873 
2308.832148  	91.257044 
2309.796572  	91.294476 
2310.760997  	91.273546 
2311.725421  	91.272138 
2312.689845  	91.430281 
2313.654270  	91.488981 
2314.618694  	91.495655 
2315.583119  	91.620157 
2316.547543  	91.675306 
2317.511968  	91.753396 
2318.476392  	91.776735 
2319.440817  	91.787494 
2320.405241  	91.775330 
2321.369666  	91.904573 
2322.334090  	91.951797 
2323.298515  	91.975564 
2324.262939  	91.988249 
2325.227363  	92.338553 
2326.191788  	92.683843 
2327.156212  	92.947096 
2328.120637  	92.993407 
2329.085061  	93.085386 
2330.049486  	93.192716 
2331.013910  	93.209473 
2331.978335  	93.332368 
2332.942759  	93.574698 
2333.907184  	93.724512 
2334.871608  	93.849594 
2335.836032  	93.985464 
2336.800457  	94.136392 
2337.764881  	94.130503 
2338.729306  	94.047100 
2339.693730  	93.961746 
2340.658155  	94.109201 
2341.622579  	94.215209 
2342.587004  	94.126545 
2343.551428  	93.915975 
2344.515853  	93.651022 
2345.480277  	93.427708 
2346.444701  	93.154932 
2347.409126  	92.816584 
2348.373550  	92.404744 
2349.337975  	92.239844 
2350.302399  	92.542971 
2351.266824  	93.024055 
2352.231248  	93.514494 
2353.195673  	93.783642 
2354.160097  	93.969874 
2355.124522  	94.157434 
2356.088946  	94.440382 
2357.053370  	94.615500 
2358.017795  	94.800983 
2358.982219  	94.785251 
2359.946644  	95.047719 
2360.911068  	95.185224 
2361.875493  	95.030753 
2362.839917  	94.832370 
2363.804342  	94.754302 
2364.768766  	94.535272 
2365.733191  	94.474831 
2366.697615  	94.398869 
2367.662039  	94.148327 
2368.626464  	93.752579 
2369.590888  	93.483936 
2370.555313  	93.271827 
2371.519737  	93.055524 
2372.484162  	92.789673 
2373.448586  	92.564786 
2374.413011  	92.377245 
2375.377435  	92.251250 
2376.341860  	92.040722 
2377.306284  	91.865021 
2378.270708  	91.682028 
2379.235133  	91.575220 
2380.199557  	91.595103 
2381.163982  	91.562402 
2382.128406  	91.538254 
2383.092831  	91.602028 
2384.057255  	91.640852 
2385.021680  	91.723516 
2385.986104  	91.802667 
2386.950529  	91.875857 
2387.914953  	91.913725 
2388.879378  	91.933027 
2389.843802  	91.993675 
2390.808226  	92.030724 
2391.772651  	92.028288 
2392.737075  	92.001243 
2393.701500  	92.015263 
2394.665924  	92.053646 
2395.630349  	92.038334 
2396.594773  	92.025868 
2397.559198  	91.985893 
2398.523622  	92.045730 
2399.488047  	92.094233 
2400.452471  	92.013652 
2401.416895  	91.959730 
2402.381320  	91.982746 
2403.345744  	92.035492 
2404.310169  	92.071016 
2405.274593  	92.014751 
2406.239018  	91.962491 
2407.203442  	91.953278 
2408.167867  	91.962735 
2409.132291  	91.991548 
2410.096716  	91.970866 
2411.061140  	91.905677 
2412.025564  	91.857593 
2412.989989  	91.858585 
2413.954413  	91.912009 
2414.918838  	91.940976 
2415.883262  	91.899861 
2416.847687  	91.842808 
2417.812111  	91.885644 
2418.776536  	91.897612 
2419.740960  	91.878923 
2420.705385  	91.912167 
2421.669809  	91.934029 
2422.634233  	91.924552 
2423.598658  	91.919527 
2424.563082  	91.928668 
2425.527507  	91.971665 
2426.491931  	91.921813 
2427.456356  	91.907863 
2428.420780  	91.983214 
2429.385205  	91.970531 
2430.349629  	91.938798 
2431.314054  	91.938027 
2432.278478  	91.935665 
2433.242902  	91.946173 
2434.207327  	91.933670 
2435.171751  	91.958062 
2436.136176  	91.959023 
2437.100600  	91.956130 
2438.065025  	91.912574 
2439.029449  	91.947378 
2439.993874  	91.959897 
2440.958298  	91.907902 
2441.922723  	91.859171 
2442.887147  	91.897204 
2443.851572  	91.948919 
2444.815996  	91.959404 
2445.780420  	91.942831 
2446.744845  	91.882556 
2447.709269  	91.844608 
2448.673694  	91.869454 
2449.638118  	91.867794 
2450.602543  	91.843762 
2451.566967  	91.815602 
2452.531392  	91.805134 
2453.495816  	91.800332 
2454.460241  	91.799920 
2455.424665  	91.794490 
2456.389089  	91.780108 
2457.353514  	91.778429 
2458.317938  	91.821435 
2459.282363  	91.823667 
2460.246787  	91.846681 
2461.211212  	91.816304 
2462.175636  	91.820454 
2463.140061  	91.843204 
2464.104485  	91.855346 
2465.068910  	91.871217 
2466.033334  	91.821288 
2466.997758  	91.806325 
2467.962183  	91.863140 
2468.926607  	91.826766 
2469.891032  	91.769561 
2470.855456  	91.768843 
2471.819881  	91.793163 
2472.784305  	91.810730 
2473.748730  	91.848762 
2474.713154  	91.872584 
2475.677579  	91.832525 
2476.642003  	91.744454 
2477.606427  	91.712599 
2478.570852  	91.758364 
2479.535276  	91.823940 
2480.499701  	91.761747 
2481.464125  	91.744022 
2482.428550  	91.796666 
2483.392974  	91.837622 
2484.357399  	91.876602 
2485.321823  	91.845840 
2486.286248  	91.768566 
2487.250672  	91.763874 
2488.215096  	91.815088 
2489.179521  	91.810159 
2490.143945  	91.739386 
2491.108370  	91.707277 
2492.072794  	91.750909 
2493.037219  	91.797382 
2494.001643  	91.769133 
2494.966068  	91.800264 
2495.930492  	91.837159 
2496.894917  	91.764110 
2497.859341  	91.725351 
2498.823765  	91.783071 
2499.788190  	91.780226 
2500.752614  	91.777819 
2501.717039  	91.759222 
2502.681463  	91.725815 
2503.645888  	91.724778 
2504.610312  	91.708535 
2505.574737  	91.683684 
2506.539161  	91.739543 
2507.503586  	91.805380 
2508.468010  	91.789424 
2509.432435  	91.746881 
2510.396859  	91.753377 
2511.361283  	91.741694 
2512.325708  	91.741497 
2513.290132  	91.756947 
2514.254557  	91.782405 
2515.218981  	91.749243 
2516.183406  	91.725693 
2517.147830  	91.753164 
2518.112255  	91.731204 
2519.076679  	91.699578 
2520.041104  	91.752489 
2521.005528  	91.722843 
2521.969952  	91.676969 
2522.934377  	91.666206 
2523.898801  	91.745755 
2524.863226  	91.808608 
2525.827650  	91.770788 
2526.792075  	91.714928 
2527.756499  	91.650046 
2528.720924  	91.652547 
2529.685348  	91.644782 
2530.649773  	91.622537 
2531.614197  	91.682266 
2532.578621  	91.696803 
2533.543046  	91.705625 
2534.507470  	91.748922 
2535.471895  	91.727362 
2536.436319  	91.664318 
2537.400744  	91.657486 
2538.365168  	91.630897 
2539.329593  	91.647227 
2540.294017  	91.637585 
2541.258442  	91.649085 
2542.222866  	91.651013 
2543.187290  	91.716948 
2544.151715  	91.732353 
2545.116139  	91.665187 
2546.080564  	91.604475 
2547.044988  	91.549121 
2548.009413  	91.509052 
2548.973837  	91.594288 
2549.938262  	91.676168 
2550.902686  	91.681934 
2551.867111  	91.614163 
2552.831535  	91.577543 
2553.795959  	91.565283 
2554.760384  	91.595044 
2555.724808  	91.578819 
2556.689233  	91.541866 
2557.653657  	91.528370 
2558.618082  	91.520685 
2559.582506  	91.607018 
2560.546931  	91.624556 
2561.511355  	91.552944 
2562.475780  	91.536866 
2563.440204  	91.523167 
2564.404629  	91.553670 
2565.369053  	91.558710 
2566.333477  	91.508001 
2567.297902  	91.531975 
2568.262326  	91.584413 
2569.226751  	91.469726 
2570.191175  	91.388019 
2571.155600  	91.451786 
2572.120024  	91.509171 
2573.084449  	91.522093 
2574.048873  	91.450601 
2575.013298  	91.363122 
2575.977722  	91.387370 
2576.942146  	91.408438 
2577.906571  	91.409450 
2578.870995  	91.405469 
2579.835420  	91.412241 
2580.799844  	91.413308 
2581.764269  	91.380196 
2582.728693  	91.391037 
2583.693118  	91.408541 
2584.657542  	91.332715 
2585.621967  	91.320034 
2586.586391  	91.326028 
2587.550815  	91.380074 
2588.515240  	91.386471 
2589.479664  	91.339930 
2590.444089  	91.302403 
2591.408513  	91.345396 
2592.372938  	91.378480 
2593.337362  	91.347035 
2594.301787  	91.286611 
2595.266211  	91.255151 
2596.230636  	91.289826 
2597.195060  	91.346160 
2598.159484  	91.356584 
2599.123909  	91.360532 
2600.088333  	91.360023 
2601.052758  	91.323484 
2602.017182  	91.276387 
2602.981607  	91.304409 
2603.946031  	91.319852 
2604.910456  	91.315735 
2605.874880  	91.318075 
2606.839305  	91.315866 
2607.803729  	91.311957 
2608.768153  	91.300958 
2609.732578  	91.264668 
2610.697002  	91.243997 
2611.661427  	91.265724 
2612.625851  	91.329978 
2613.590276  	91.376026 
2614.554700  	91.368042 
2615.519125  	91.331530 
2616.483549  	91.308933 
2617.447974  	91.269246 
2618.412398  	91.291808 
2619.376822  	91.307598 
2620.341247  	91.313514 
2621.305671  	91.266637 
2622.270096  	91.221700 
2623.234520  	91.225710 
2624.198945  	91.250812 
2625.163369  	91.264706 
2626.127794  	91.252877 
2627.092218  	91.262374 
2628.056643  	91.268207 
2629.021067  	91.255949 
2629.985492  	91.270035 
2630.949916  	91.322027 
2631.914340  	91.334520 
2632.878765  	91.250520 
2633.843189  	91.243085 
2634.807614  	91.255348 
2635.772038  	91.246893 
2636.736463  	91.205035 
2637.700887  	91.215080 
2638.665312  	91.223344 
2639.629736  	91.222046 
2640.594161  	91.241244 
2641.558585  	91.273624 
2642.523009  	91.206626 
2643.487434  	91.189525 
2644.451858  	91.225899 
2645.416283  	91.207400 
2646.380707  	91.195886 
2647.345132  	91.194011 
2648.309556  	91.215428 
2649.273981  	91.214667 
2650.238405  	91.207941 
2651.202830  	91.214037 
2652.167254  	91.181461 
2653.131678  	91.175668 
2654.096103  	91.169510 
2655.060527  	91.168917 
2656.024952  	91.186676 
2656.989376  	91.167412 
2657.953801  	91.144688 
2658.918225  	91.163175 
2659.882650  	91.177108 
2660.847074  	91.179972 
2661.811499  	91.167770 
2662.775923  	91.151421 
2663.740347  	91.187299 
2664.704772  	91.206878 
2665.669196  	91.224883 
2666.633621  	91.227670 
2667.598045  	91.196944 
2668.562470  	91.184628 
2669.526894  	91.162811 
2670.491319  	91.161965 
2671.455743  	91.206611 
2672.420168  	91.221461 
2673.384592  	91.192686 
2674.349016  	91.172812 
2675.313441  	91.149631 
2676.277865  	91.149047 
2677.242290  	91.156130 
2678.206714  	91.158112 
2679.171139  	91.150114 
2680.135563  	91.142921 
2681.099988  	91.119266 
2682.064412  	91.101260 
2683.028837  	91.115230 
2683.993261  	91.107321 
2684.957686  	91.119590 
2685.922110  	91.131765 
2686.886534  	91.083971 
2687.850959  	91.020554 
2688.815383  	91.037042 
2689.779808  	91.088307 
2690.744232  	91.073111 
2691.708657  	91.058867 
2692.673081  	91.069199 
2693.637506  	91.074771 
2694.601930  	91.071197 
2695.566355  	91.087088 
2696.530779  	91.088899 
2697.495203  	91.068556 
2698.459628  	91.048762 
2699.424052  	91.062939 
2700.388477  	91.066281 
2701.352901  	91.023665 
2702.317326  	90.992669 
2703.281750  	91.019604 
2704.246175  	91.034956 
2705.210599  	91.007521 
2706.175024  	90.981198 
2707.139448  	90.990770 
2708.103872  	90.994370 
2709.068297  	91.008392 
2710.032721  	90.994876 
2710.997146  	90.969798 
2711.961570  	90.934989 
2712.925995  	90.931392 
2713.890419  	90.935642 
2714.854844  	90.932099 
2715.819268  	90.922768 
2716.783693  	90.918433 
2717.748117  	90.906759 
2718.712541  	90.876635 
2719.676966  	90.863429 
2720.641390  	90.863279 
2721.605815  	90.877119 
2722.570239  	90.886253 
2723.534664  	90.852582 
2724.499088  	90.798754 
2725.463513  	90.774572 
2726.427937  	90.747879 
2727.392362  	90.729943 
2728.356786  	90.713626 
2729.321210  	90.673137 
2730.285635  	90.663661 
2731.250059  	90.651301 
2732.214484  	90.645367 
2733.178908  	90.625502 
2734.143333  	90.590951 
2735.107757  	90.585848 
2736.072182  	90.597941 
2737.036606  	90.570228 
2738.001031  	90.533472 
2738.965455  	90.486819 
2739.929879  	90.480008 
2740.894304  	90.490649 
2741.858728  	90.479794 
2742.823153  	90.448656 
2743.787577  	90.461171 
2744.752002  	90.456935 
2745.716426  	90.411670 
2746.680851  	90.387839 
2747.645275  	90.400535 
2748.609700  	90.387383 
2749.574124  	90.367349 
2750.538549  	90.365993 
2751.502973  	90.346212 
2752.467397  	90.340902 
2753.431822  	90.334452 
2754.396246  	90.347602 
2755.360671  	90.369791 
2756.325095  	90.359197 
2757.289520  	90.319498 
2758.253944  	90.321711 
2759.218369  	90.304419 
2760.182793  	90.266398 
2761.147218  	90.254452 
2762.111642  	90.238492 
2763.076066  	90.259571 
2764.040491  	90.284847 
2765.004915  	90.263641 
2765.969340  	90.209159 
2766.933764  	90.197156 
2767.898189  	90.202379 
2768.862613  	90.191050 
2769.827038  	90.156575 
2770.791462  	90.142483 
2771.755887  	90.107657 
2772.720311  	90.087553 
2773.684735  	90.092684 
2774.649160  	90.109939 
2775.613584  	90.078326 
2776.578009  	90.059190 
2777.542433  	90.063483 
2778.506858  	90.045314 
2779.471282  	90.016889 
2780.435707  	90.005010 
2781.400131  	89.985372 
2782.364556  	89.978443 
2783.328980  	89.976308 
2784.293404  	89.957357 
2785.257829  	89.944037 
2786.222253  	89.938036 
2787.186678  	89.911851 
2788.151102  	89.893462 
2789.115527  	89.910029 
2790.079951  	89.876854 
2791.044376  	89.811008 
2792.008800  	89.767322 
2792.973225  	89.735260 
2793.937649  	89.694869 
2794.902073  	89.640198 
2795.866498  	89.629704 
2796.830922  	89.605464 
2797.795347  	89.560605 
2798.759771  	89.532130 
2799.724196  	89.503704 
2800.688620  	89.454079 
2801.653045  	89.409289 
2802.617469  	89.377303 
2803.581894  	89.372447 
2804.546318  	89.349314 
2805.510743  	89.299743 
2806.475167  	89.248107 
2807.439591  	89.193993 
2808.404016  	89.119176 
2809.368440  	89.087057 
2810.332865  	89.089294 
2811.297289  	89.021149 
2812.261714  	88.946823 
2813.226138  	88.907221 
2814.190563  	88.840088 
2815.154987  	88.786967 
2816.119412  	88.753467 
2817.083836  	88.689822 
2818.048260  	88.610651 
2819.012685  	88.547979 
2819.977109  	88.518667 
2820.941534  	88.456772 
2821.905958  	88.369444 
2822.870383  	88.277438 
2823.834807  	88.219602 
2824.799232  	88.171848 
2825.763656  	88.130674 
2826.728081  	88.058340 
2827.692505  	88.006994 
2828.656929  	87.967145 
2829.621354  	87.886606 
2830.585778  	87.813829 
2831.550203  	87.753413 
2832.514627  	87.635639 
2833.479052  	87.502153 
2834.443476  	87.398800 
2835.407901  	87.283980 
2836.372325  	87.152483 
2837.336750  	86.975693 
2838.301174  	86.730999 
2839.265598  	86.466363 
2840.230023  	86.195222 
2841.194447  	85.874304 
2842.158872  	85.486764 
2843.123296  	85.034093 
2844.087721  	84.502596 
2845.052145  	83.869541 
2846.016570  	83.135813 
2846.980994  	82.328423 
2847.945419  	81.466587 
2848.909843  	80.594776 
2849.874267  	79.822273 
2850.838692  	79.213844 
2851.803116  	78.746555 
2852.767541  	78.343349 
2853.731965  	77.967163 
2854.696390  	77.620454 
2855.660814  	77.316722 
2856.625239  	77.054479 
2857.589663  	76.846510 
2858.554088  	76.731332 
2859.518512  	76.705362 
2860.482936  	76.754133 
2861.447361  	76.897765 
2862.411785  	77.099882 
2863.376210  	77.340666 
2864.340634  	77.609026 
2865.305059  	77.884158 
2866.269483  	78.144412 
2867.233908  	78.354765 
2868.198332  	78.508507 
2869.162757  	78.639100 
2870.127181  	78.791988 
2871.091606  	78.911459 
2872.056030  	79.050306 
2873.020454  	79.228725 
2873.984879  	79.450101 
2874.949303  	79.658414 
2875.913728  	79.898861 
2876.878152  	80.249442 
2877.842577  	80.599025 
2878.807001  	80.983129 
2879.771426  	81.396044 
2880.735850  	81.761887 
2881.700275  	82.089011 
2882.664699  	82.417810 
2883.629123  	82.683602 
2884.593548  	82.897765 
2885.557972  	83.094336 
2886.522397  	83.230233 
2887.486821  	83.306002 
2888.451246  	83.338890 
2889.415670  	83.319804 
2890.380095  	83.233151 
2891.344519  	83.111163 
2892.308944  	82.988390 
2893.273368  	82.831518 
2894.237792  	82.629907 
2895.202217  	82.361535 
2896.166641  	82.119601 
2897.131066  	81.852893 
2898.095490  	81.574505 
2899.059915  	81.294278 
2900.024339  	80.972011 
2900.988764  	80.591845 
2901.953188  	80.234274 
2902.917613  	79.888587 
2903.882037  	79.521837 
2904.846461  	79.170879 
2905.810886  	78.833136 
2906.775310  	78.490949 
2907.739735  	78.127475 
2908.704159  	77.793214 
2909.668584  	77.502741 
2910.633008  	77.144346 
2911.597433  	76.786271 
2912.561857  	76.415653 
2913.526282  	75.965999 
2914.490706  	75.451899 
2915.455130  	74.922861 
2916.419555  	74.423333 
2917.383979  	73.976802 
2918.348404  	73.577110 
2919.312828  	73.240714 
2920.277253  	72.931913 
2921.241677  	72.635396 
2922.206102  	72.347107 
2923.170526  	72.058611 
2924.134951  	71.792550 
2925.099375  	71.543467 
2926.063800  	71.255424 
2927.028224  	70.967250 
2927.992648  	70.713089 
2928.957073  	70.433620 
2929.921497  	70.163201 
2930.885922  	69.995793 
2931.850346  	69.907851 
2932.814771  	69.898814 
2933.779195  	69.936275 
2934.743620  	70.083265 
2935.708044  	70.330790 
2936.672469  	70.688670 
2937.636893  	71.164584 
2938.601317  	71.672785 
2939.565742  	72.221869 
2940.530166  	72.845238 
2941.494591  	73.421573 
2942.459015  	73.968757 
2943.423440  	74.474346 
2944.387864  	74.954017 
2945.352289  	75.458988 
2946.316713  	76.066207 
2947.281138  	76.731825 
2948.245562  	77.423179 
2949.209986  	78.150644 
2950.174411  	78.911916 
2951.138835  	79.656628 
2952.103260  	80.358645 
2953.067684  	81.012023 
2954.032109  	81.607218 
2954.996533  	82.172664 
2955.960958  	82.730097 
2956.925382  	83.252282 
2957.889807  	83.739177 
2958.854231  	84.141704 
2959.818655  	84.496084 
2960.783080  	84.822584 
2961.747504  	85.118093 
2962.711929  	85.433916 
2963.676353  	85.721918 
2964.640778  	85.959352 
2965.605202  	86.181694 
2966.569627  	86.426735 
2967.534051  	86.768016 
2968.498476  	87.087649 
2969.462900  	87.345006 
2970.427324  	87.582496 
2971.391749  	87.799669 
2972.356173  	88.011126 
2973.320598  	88.254066 
2974.285022  	88.460216 
2975.249447  	88.609516 
2976.213871  	88.796755 
2977.178296  	88.978393 
2978.142720  	89.104513 
2979.107145  	89.261030 
2980.071569  	89.421042 
2981.035993  	89.500367 
2982.000418  	89.615983 
2982.964842  	89.746549 
2983.929267  	89.833706 
2984.893691  	89.942235 
2985.858116  	90.015592 
2986.822540  	90.080718 
2987.786965  	90.126645 
2988.751389  	90.165681 
2989.715814  	90.233620 
2990.680238  	90.329483 
2991.644663  	90.386697 
2992.609087  	90.404655 
2993.573511  	90.408589 
2994.537936  	90.398714 
2995.502360  	90.439055 
2996.466785  	90.476382 
2997.431209  	90.510128 
2998.395634  	90.549109 
2999.360058  	90.567980 
3000.324483  	90.591971 
3001.288907  	90.546880 
3002.253332  	90.531427 
3003.217756  	90.522990 
3004.182180  	90.471395 
3005.146605  	90.472605 
3006.111029  	90.525980 
3007.075454  	90.532595 
3008.039878  	90.514674 
3009.004303  	90.551087 
3009.968727  	90.528329 
3010.933152  	90.434213 
3011.897576  	90.396946 
3012.862001  	90.325360 
3013.826425  	90.393747 
3014.790849  	90.478442 
3015.755274  	90.403842 
3016.719698  	90.330702 
3017.684123  	90.352659 
3018.648547  	90.324354 
3019.612972  	90.256537 
3020.577396  	90.276431 
3021.541821  	90.258926 
3022.506245  	90.188258 
3023.470670  	90.151140 
3024.435094  	90.113267 
3025.399518  	90.051603 
3026.363943  	89.996460 
3027.328367  	90.006582 
3028.292792  	90.003361 
3029.257216  	89.933810 
3030.221641  	89.775831 
3031.186065  	89.598055 
3032.150490  	89.506119 
3033.114914  	89.583834 
3034.079339  	89.572034 
3035.043763  	89.531738 
3036.008187  	89.482252 
3036.972612  	89.411681 
3037.937036  	89.320006 
3038.901461  	89.284429 
3039.865885  	89.243572 
3040.830310  	89.165671 
3041.794734  	89.071556 
3042.759159  	88.962234 
3043.723583  	88.891233 
3044.688008  	88.796433 
3045.652432  	88.684923 
3046.616857  	88.555142 
3047.581281  	88.424059 
3048.545705  	88.263754 
3049.510130  	88.173654 
3050.474554  	88.128867 
3051.438979  	88.015383 
3052.403403  	87.923375 
3053.367828  	87.782346 
3054.332252  	87.636703 
3055.296677  	87.539292 
3056.261101  	87.335541 
3057.225526  	87.273698 
3058.189950  	87.369396 
3059.154374  	87.341022 
3060.118799  	87.297255 
3061.083223  	87.273042 
3062.047648  	87.215159 
3063.012072  	87.123690 
3063.976497  	87.018177 
3064.940921  	86.943587 
3065.905346  	87.023840 
3066.869770  	86.994220 
3067.834195  	87.003180 
3068.798619  	87.034430 
3069.763043  	87.036019 
3070.727468  	87.051552 
3071.691892  	87.079527 
3072.656317  	87.051473 
3073.620741  	87.037203 
3074.585166  	87.076206 
3075.549590  	87.115278 
3076.514015  	87.116927 
3077.478439  	87.108158 
3078.442864  	87.128191 
3079.407288  	87.123076 
3080.371712  	87.101262 
3081.336137  	87.121806 
3082.300561  	87.130146 
3083.264986  	87.188296 
3084.229410  	87.268569 
3085.193835  	87.317204 
3086.158259  	87.326122 
3087.122684  	87.309196 
3088.087108  	87.284260 
3089.051533  	87.353076 
3090.015957  	87.434588 
3090.980381  	87.510921 
3091.944806  	87.594515 
3092.909230  	87.654542 
3093.873655  	87.666781 
3094.838079  	87.684680 
3095.802504  	87.712218 
3096.766928  	87.819000 
3097.731353  	87.897351 
3098.695777  	87.930480 
3099.660202  	87.952967 
3100.624626  	88.015961 
3101.589050  	88.053333 
3102.553475  	88.129131 
3103.517899  	88.219954 
3104.482324  	88.320886 
3105.446748  	88.387212 
3106.411173  	88.447609 
3107.375597  	88.501888 
3108.340022  	88.582482 
3109.304446  	88.656427 
3110.268871  	88.665281 
3111.233295  	88.669590 
3112.197720  	88.670161 
3113.162144  	88.711933 
3114.126568  	88.822481 
3115.090993  	88.867051 
3116.055417  	88.889952 
3117.019842  	88.975319 
3117.984266  	89.023908 
3118.948691  	88.961525 
3119.913115  	89.030038 
3120.877540  	89.096512 
3121.841964  	89.025590 
3122.806389  	88.962788 
3123.770813  	89.059694 
3124.735237  	89.140466 
3125.699662  	89.123079 
3126.664086  	89.088794 
3127.628511  	89.136450 
3128.592935  	89.172623 
3129.557360  	89.192876 
3130.521784  	89.184616 
3131.486209  	89.169637 
3132.450633  	89.111588 
3133.415058  	89.055731 
3134.379482  	89.162598 
3135.343906  	89.204955 
3136.308331  	89.156041 
3137.272755  	89.125484 
3138.237180  	89.161046 
3139.201604  	89.188421 
3140.166029  	89.154164 
3141.130453  	89.130727 
3142.094878  	89.075627 
3143.059302  	89.003546 
3144.023727  	88.999315 
3144.988151  	89.027288 
3145.952575  	88.982167 
3146.917000  	88.957787 
3147.881424  	88.963015 
3148.845849  	88.994874 
3149.810273  	88.959616 
3150.774698  	88.914865 
3151.739122  	88.847541 
3152.703547  	88.766746 
3153.667971  	88.750018 
3154.632396  	88.744484 
3155.596820  	88.669468 
3156.561244  	88.553384 
3157.525669  	88.518251 
3158.490093  	88.486625 
3159.454518  	88.438229 
3160.418942  	88.426722 
3161.383367  	88.366771 
3162.347791  	88.298260 
3163.312216  	88.202628 
3164.276640  	88.140983 
3165.241065  	88.149503 
3166.205489  	88.119806 
3167.169914  	88.027932 
3168.134338  	87.924387 
3169.098762  	87.859922 
3170.063187  	87.751575 
3171.027611  	87.630600 
3171.992036  	87.606370 
3172.956460  	87.572469 
3173.920885  	87.566598 
3174.885309  	87.521150 
3175.849734  	87.414893 
3176.814158  	87.286325 
3177.778583  	87.110489 
3178.743007  	86.969571 
3179.707431  	86.937901 
3180.671856  	86.927199 
3181.636280  	86.960589 
3182.600705  	86.929130 
3183.565129  	86.794427 
3184.529554  	86.646128 
3185.493978  	86.584661 
3186.458403  	86.565639 
3187.422827  	86.499456 
3188.387252  	86.427619 
3189.351676  	86.453900 
3190.316100  	86.413307 
3191.280525  	86.353093 
3192.244949  	86.371790 
3193.209374  	86.360687 
3194.173798  	86.218380 
3195.138223  	86.113353 
3196.102647  	85.987728 
3197.067072  	85.878267 
3198.031496  	85.811286 
3198.995921  	85.897451 
3199.960345  	85.904420 
3200.924769  	85.865633 
3201.889194  	85.825521 
3202.853618  	85.772816 
3203.818043  	85.685102 
3204.782467  	85.662889 
3205.746892  	85.647234 
3206.711316  	85.559152 
3207.675741  	85.480003 
3208.640165  	85.439297 
3209.604590  	85.371068 
3210.569014  	85.329522 
3211.533438  	85.353861 
3212.497863  	85.282713 
3213.462287  	85.168011 
3214.426712  	85.076749 
3215.391136  	85.047513 
3216.355561  	85.046663 
3217.319985  	85.023875 
3218.284410  	84.965857 
3219.248834  	84.866545 
3220.213259  	84.791174 
3221.177683  	84.741091 
3222.142107  	84.639495 
3223.106532  	84.540412 
3224.070956  	84.481583 
3225.035381  	84.334631 
3225.999805  	84.224433 
3226.964230  	84.127876 
3227.928654  	83.956089 
3228.893079  	83.872036 
3229.857503  	83.771855 
3230.821928  	83.611473 
3231.786352  	83.504675 
3232.750777  	83.377354 
3233.715201  	83.247997 
3234.679625  	83.116432 
3235.644050  	82.994109 
3236.608474  	82.847087 
3237.572899  	82.693195 
3238.537323  	82.549647 
3239.501748  	82.325775 
3240.466172  	82.099689 
3241.430597  	82.015912 
3242.395021  	81.815887 
3243.359446  	81.561123 
3244.323870  	81.324521 
3245.288294  	81.089814 
3246.252719  	80.988349 
3247.217143  	80.902793 
3248.181568  	80.668521 
3249.145992  	80.396658 
3250.110417  	80.199888 
3251.074841  	80.038129 
3252.039266  	79.796343 
3253.003690  	79.563804 
3253.968115  	79.218703 
3254.932539  	78.934629 
3255.896963  	78.747086 
3256.861388  	78.464814 
3257.825812  	78.257227 
3258.790237  	78.016927 
3259.754661  	77.696483 
3260.719086  	77.407895 
3261.683510  	77.168384 
3262.647935  	76.915459 
3263.612359  	76.677446 
3264.576784  	76.411424 
3265.541208  	76.099492 
3266.505632  	75.805673 
3267.470057  	75.531275 
3268.434481  	75.258828 
3269.398906  	75.012597 
3270.363330  	74.747766 
3271.327755  	74.429654 
3272.292179  	74.122757 
3273.256604  	73.762991 
3274.221028  	73.418788 
3275.185453  	73.153743 
3276.149877  	72.775547 
3277.114301  	72.377048 
3278.078726  	72.049630 
3279.043150  	71.648401 
3280.007575  	71.278720 
3280.971999  	70.905751 
3281.936424  	70.529645 
3282.900848  	70.115754 
3283.865273  	69.699919 
3284.829697  	69.317805 
3285.794122  	68.946283 
3286.758546  	68.574542 
3287.722971  	68.210650 
3288.687395  	67.826996 
3289.651819  	67.573169 
3290.616244  	67.301553 
3291.580668  	66.998855 
3292.545093  	66.729965 
3293.509517  	66.553787 
3294.473942  	66.483336 
3295.438366  	66.397659 
3296.402791  	66.339698 
3297.367215  	66.368120 
3298.331640  	66.458480 
3299.296064  	66.635572 
3300.260488  	66.831759 
3301.224913  	67.087009 
3302.189337  	67.430947 
3303.153762  	67.784895 
3304.118186  	68.152389 
3305.082611  	68.647082 
3306.047035  	69.182612 
3307.011460  	69.726180 
3307.975884  	70.198731 
3308.940309  	70.778709 
3309.904733  	71.532469 
3310.869157  	72.177384 
3311.833582  	72.762920 
3312.798006  	73.435749 
3313.762431  	74.183495 
3314.726855  	74.913687 
3315.691280  	75.502218 
3316.655704  	76.091785 
3317.620129  	76.669186 
3318.584553  	77.257184 
3319.548978  	77.829983 
3320.513402  	78.357291 
3321.477826  	78.871124 
3322.442251  	79.352401 
3323.406675  	79.850308 
3324.371100  	80.314298 
3325.335524  	80.723615 
3326.299949  	81.079531 
3327.264373  	81.342770 
3328.228798  	81.698315 
3329.193222  	82.060093 
3330.157647  	82.381391 
3331.122071  	82.712593 
3332.086495  	83.119853 
3333.050920  	83.393037 
3334.015344  	83.539929 
3334.979769  	83.689226 
3335.944193  	83.991824 
3336.908618  	84.174431 
3337.873042  	84.379885 
3338.837467  	84.656032 
3339.801891  	84.886632 
3340.766316  	85.073868 
3341.730740  	85.231775 
3342.695164  	85.401463 
3343.659589  	85.608012 
3344.624013  	85.829674 
3345.588438  	85.982958 
3346.552862  	86.091587 
3347.517287  	86.194653 
3348.481711  	86.275571 
3349.446136  	86.444887 
3350.410560  	86.625517 
3351.374985  	86.796384 
3352.339409  	86.913255 
3353.303834  	86.986961 
3354.268258  	87.107356 
3355.232682  	87.171167 
3356.197107  	87.148113 
3357.161531  	87.304869 
3358.125956  	87.487770 
3359.090380  	87.539908 
3360.054805  	87.443660 
3361.019229  	87.468134 
3361.983654  	87.480126 
3362.948078  	87.632524 
3363.912503  	87.786279 
3364.876927  	87.776198 
3365.841351  	87.838337 
3366.805776  	87.971382 
3367.770200  	87.967999 
3368.734625  	88.009126 
3369.699049  	88.133014 
3370.663474  	88.275882 
3371.627898  	88.343044 
3372.592323  	88.373741 
3373.556747  	88.422690 
3374.521172  	88.485080 
3375.485596  	88.464022 
3376.450020  	88.458790 
3377.414445  	88.509109 
3378.378869  	88.565433 
3379.343294  	88.618689 
3380.307718  	88.653097 
3381.272143  	88.771711 
3382.236567  	88.823001 
3383.200992  	88.807018 
3384.165416  	88.791158 
3385.129841  	88.776099 
3386.094265  	88.848734 
3387.058689  	88.917190 
3388.023114  	88.944317 
3388.987538  	88.950482 
3389.951963  	88.901885 
3390.916387  	88.885951 
3391.880812  	88.868172 
3392.845236  	88.702575 
3393.809661  	88.801285 
3394.774085  	89.056624 
3395.738510  	89.143060 
3396.702934  	89.037442 
3397.667358  	88.895285 
3398.631783  	89.049064 
3399.596207  	89.240142 
3400.560632  	89.155213 
3401.525056  	89.024539 
3402.489481  	89.111733 
3403.453905  	89.156917 
3404.418330  	89.151346 
3405.382754  	89.250168 
3406.347179  	89.320747 
3407.311603  	89.322290 
3408.276028  	89.267486 
3409.240452  	89.207717 
3410.204876  	89.240122 
3411.169301  	89.379021 
3412.133725  	89.408501 
3413.098150  	89.380301 
3414.062574  	89.374662 
3415.026999  	89.403738 
3415.991423  	89.355003 
3416.955848  	89.396126 
3417.920272  	89.395446 
3418.884697  	89.330129 
3419.849121  	89.074757 
3420.813545  	88.792387 
3421.777970  	88.925869 
3422.742394  	89.163074 
3423.706819  	89.286971 
3424.671243  	89.456798 
3425.635668  	89.546989 
3426.600092  	89.560056 
3427.564517  	89.510468 
3428.528941  	89.477131 
3429.493366  	89.527310 
3430.457790  	89.527976 
3431.422214  	89.481474 
3432.386639  	89.520605 
3433.351063  	89.606168 
3434.315488  	89.644840 
3435.279912  	89.567663 
3436.244337  	89.543138 
3437.208761  	89.560087 
3438.173186  	89.597244 
3439.137610  	89.582583 
3440.102035  	89.635503 
3441.066459  	89.657204 
3442.030883  	89.541488 
3442.995308  	89.330373 
3443.959732  	89.509045 
3444.924157  	89.530908 
3445.888581  	89.422329 
3446.853006  	88.985237 
3447.817430  	88.723525 
3448.781855  	89.366620 
3449.746279  	89.672409 
3450.710704  	89.676552 
3451.675128  	89.754859 
3452.639552  	89.854450 
3453.603977  	89.840199 
3454.568401  	89.785214 
3455.532826  	89.755211 
3456.497250  	89.740278 
3457.461675  	89.727852 
3458.426099  	89.688779 
3459.390524  	89.710659 
3460.354948  	89.753913 
3461.319373  	89.648545 
3462.283797  	89.558954 
3463.248221  	89.552246 
3464.212646  	89.778646 
3465.177070  	89.873938 
3466.141495  	89.786997 
3467.105919  	89.557479 
3468.070344  	89.693236 
3469.034768  	89.876165 
3469.999193  	89.817843 
3470.963617  	89.806039 
3471.928042  	89.891049 
3472.892466  	89.934276 
3473.856891  	89.885011 
3474.821315  	89.752698 
3475.785739  	89.810916 
3476.750164  	89.977989 
3477.714588  	90.046647 
3478.679013  	90.078022 
3479.643437  	89.974934 
3480.607862  	89.609861 
3481.572286  	89.430935 
3482.536711  	89.298379 
3483.501135  	89.549092 
3484.465560  	89.837019 
3485.429984  	89.795181 
3486.394408  	89.826105 
3487.358833  	89.854450 
3488.323257  	89.629639 
3489.287682  	89.687907 
3490.252106  	89.967424 
3491.216531  	89.994835 
3492.180955  	90.064377 
3493.145380  	90.156427 
3494.109804  	90.175302 
3495.074229  	90.009277 
3496.038653  	89.777040 
3497.003077  	89.692389 
3497.967502  	89.980168 
3498.931926  	90.148929 
3499.896351  	90.071189 
3500.860775  	89.984019 
3501.825200  	89.585757 
3502.789624  	89.132285 
3503.754049  	89.095405 
3504.718473  	89.456532 
3505.682898  	89.845103 
3506.647322  	90.152181 
3507.611746  	90.296437 
3508.576171  	90.036086 
3509.540595  	89.300877 
3510.505020  	89.419186 
3511.469444  	89.985438 
3512.433869  	90.148673 
3513.398293  	90.221491 
3514.362718  	90.351067 
3515.327142  	90.476957 
3516.291567  	90.446265 
3517.255991  	90.384357 
3518.220415  	90.353467 
3519.184840  	90.372448 
3520.149264  	90.500621 
3521.113689  	90.646686 
3522.078113  	90.368218 
3523.042538  	89.516457 
3524.006962  	89.114911 
3524.971387  	89.622748 
3525.935811  	89.914068 
3526.900236  	89.823085 
3527.864660  	89.617337 
3528.829085  	89.788245 
3529.793509  	90.070353 
3530.757933  	90.396099 
3531.722358  	90.449684 
3532.686782  	90.713271 
3533.651207  	90.928668 
3534.615631  	90.984175 
3535.580056  	90.678663 
3536.544480  	90.029907 
3537.508905  	90.262252 
3538.473329  	90.923988 
3539.437754  	90.948571 
3540.402178  	91.001304 
3541.366602  	91.031412 
3542.331027  	91.035748 
3543.295451  	90.751590 
3544.259876  	90.338383 
3545.224300  	89.457967 
3546.188725  	89.236237 
3547.153149  	89.307952 
3548.117574  	89.787407 
3549.081998  	90.737424 
3550.046423  	91.102866 
3551.010847  	91.045164 
3551.975271  	90.456209 
3552.939696  	90.119680 
3553.904120  	90.515245 
3554.868545  	90.942358 
3555.832969  	91.387981 
3556.797394  	91.368589 
3557.761818  	91.348740 
3558.726243  	91.408640 
3559.690667  	90.988887 
3560.655092  	90.473757 
3561.619516  	90.909607 
3562.583940  	91.004502 
3563.548365  	90.855651 
3564.512789  	90.720751 
3565.477214  	89.901111 
3566.441638  	87.521243 
3567.406063  	87.362021 
3568.370487  	87.837655 
3569.334912  	89.524222 
3570.299336  	90.912122 
3571.263761  	91.136329 
3572.228185  	91.472951 
3573.192609  	91.559054 
3574.157034  	91.474686 
3575.121458  	91.391804 
3576.085883  	91.472657 
3577.050307  	91.401603 
3578.014732  	91.440116 
3578.979156  	91.590613 
3579.943581  	91.178691 
3580.908005  	91.130857 
3581.872430  	91.585515 
3582.836854  	91.651375 
3583.801278  	91.501181 
3584.765703  	91.496530 
3585.730127  	91.138785 
3586.694552  	89.410296 
3587.658976  	88.317974 
3588.623401  	88.787964 
3589.587825  	89.890842 
3590.552250  	91.370619 
3591.516674  	91.822141 
3592.481099  	91.739958 
3593.445523  	90.944317 
3594.409948  	90.984810 
3595.374372  	90.586652 
3596.338796  	90.315253 
3597.303221  	91.250405 
3598.267645  	91.362900 
3599.232070  	91.076197 
3600.196494  	91.238952 
3601.160919  	90.943466 
3602.125343  	91.209200 
3603.089768  	91.526058 
3604.054192  	91.861739 
3605.018617  	92.106988 
3605.983041  	91.993076 
3606.947465  	90.790759 
3607.911890  	90.105466 
3608.876314  	90.542707 
3609.840739  	90.260416 
3610.805163  	91.221815 
3611.769588  	91.387185 
3612.734012  	90.056938 
3613.698437  	90.002839 
3614.662861  	90.296304 
3615.627286  	90.415056 
3616.591710  	91.508853 
3617.556134  	90.916897 
3618.520559  	89.955328 
3619.484983  	89.995687 
3620.449408  	89.970916 
3621.413832  	90.738991 
3622.378257  	91.607434 
3623.342681  	92.089365 
3624.307106  	92.275542 
3625.271530  	92.266738 
3626.235955  	91.698724 
3627.200379  	91.408300 
3628.164803  	90.555597 
3629.129228  	87.625338 
3630.093652  	88.135526 
3631.058077  	90.694847 
3632.022501  	91.740631 
3632.986926  	91.848920 
3633.951350  	91.142070 
3634.915775  	91.477908 
3635.880199  	92.239779 
3636.844624  	92.406518 
3637.809048  	92.234571 
3638.773472  	92.133647 
3639.737897  	92.371139 
3640.702321  	92.421854 
3641.666746  	92.124591 
3642.631170  	91.703857 
3643.595595  	91.963612 
3644.560019  	92.356298 
3645.524444  	92.042588 
3646.488868  	90.869159 
3647.453293  	88.704160 
3648.417717  	88.809178 
3649.382142  	88.864768 
3650.346566  	87.930656 
3651.310990  	88.117746 
3652.275415  	90.374297 
3653.239839  	91.871639 
3654.204264  	92.328685 
3655.168688  	92.268845 
3656.133113  	91.361648 
3657.097537  	90.888227 
3658.061962  	92.037865 
3659.026386  	92.409639 
3659.990811  	92.244105 
3660.955235  	92.357606 
3661.919659  	92.624393 
3662.884084  	92.645992 
3663.848508  	92.654253 
3664.812933  	92.629701 
3665.777357  	92.650548 
3666.741782  	92.653577 
3667.706206  	92.560144 
3668.670631  	91.631897 
3669.635055  	90.340016 
3670.599480  	89.647742 
3671.563904  	90.074006 
3672.528328  	91.720685 
3673.492753  	92.119527 
3674.457177  	90.960819 
3675.421602  	87.856179 
3676.386026  	88.182599 
3677.350451  	90.356068 
3678.314875  	91.311735 
3679.279300  	91.347179 
3680.243724  	91.312027 
3681.208149  	92.248366 
3682.172573  	92.716373 
3683.136997  	92.703213 
3684.101422  	92.526545 
3685.065846  	92.445284 
3686.030271  	92.583344 
3686.994695  	92.484030 
3687.959120  	91.819808 
3688.923544  	90.527226 
3689.887969  	90.946603 
3690.852393  	90.634104 
3691.816818  	90.376021 
3692.781242  	91.947210 
3693.745666  	92.472665 
3694.710091  	92.560534 
3695.674515  	92.675318 
3696.638940  	92.520889 
3697.603364  	92.605945 
3698.567789  	92.913326 
3699.532213  	92.809183 
3700.496638  	92.750355 
3701.461062  	92.034582 
3702.425487  	91.296722 
3703.389911  	92.291952 
3704.354335  	92.811028 
3705.318760  	92.664281 
3706.283184  	92.604641 
3707.247609  	92.712718 
3708.212033  	92.737248 
3709.176458  	92.084632 
3710.140882  	91.258578 
3711.105307  	91.046598 
3712.069731  	89.995598 
3713.034156  	89.824394 
3713.998580  	91.475857 
3714.963005  	91.714215 
3715.927429  	92.016064 
3716.891853  	92.695541 
3717.856278  	92.832666 
3718.820702  	92.137955 
3719.785127  	91.703057 
3720.749551  	92.372449 
3721.713976  	92.037978 
3722.678400  	90.471165 
3723.642825  	91.138611 
3724.607249  	91.674133 
3725.571674  	90.887335 
3726.536098  	90.591713 
3727.500522  	90.853953 
3728.464947  	91.972148 
3729.429371  	92.663113 
3730.393796  	92.540682 
3731.358220  	92.157713 
3732.322645  	91.266048 
3733.287069  	91.159255 
3734.251494  	90.711244 
3735.215918  	87.414058 
3736.180343  	87.495448 
3737.144767  	89.326640 
3738.109191  	90.465561 
3739.073616  	90.972797 
3740.038040  	91.626523 
3741.002465  	91.289294 
3741.966889  	91.282156 
3742.931314  	91.914469 
3743.895738  	91.105520 
3744.860163  	87.444559 
3745.824587  	89.449550 
3746.789012  	90.927077 
3747.753436  	90.993826 
3748.717860  	90.875701 
3749.682285  	90.284517 
3750.646709  	89.986835 
3751.611134  	89.902582 
3752.575558  	88.684718 
3753.539983  	90.173935 
3754.504407  	91.462410 
3755.468832  	92.170096 
3756.433256  	91.905290 
3757.397681  	91.709985 
3758.362105  	91.944970 
3759.326529  	91.067340 
3760.290954  	90.541420 
3761.255378  	92.084589 
3762.219803  	92.602863 
3763.184227  	92.614171 
3764.148652  	92.594640 
3765.113076  	92.234194 
3766.077501  	91.287659 
3767.041925  	91.898544 
3768.006350  	92.543056 
3768.970774  	92.341405 
3769.935199  	91.323466 
3770.899623  	91.269447 
3771.864047  	92.199101 
3772.828472  	92.595834 
3773.792896  	92.713095 
3774.757321  	92.836763 
3775.721745  	92.960810 
3776.686170  	93.029627 
3777.650594  	92.859604 
3778.615019  	92.440480 
3779.579443  	91.599607 
3780.543868  	91.643221 
3781.508292  	92.570978 
3782.472716  	92.703024 
3783.437141  	92.726132 
3784.401565  	92.334339 
3785.365990  	91.799249 
3786.330414  	92.193983 
3787.294839  	92.619413 
3788.259263  	92.820455 
3789.223688  	92.867193 
3790.188112  	92.863135 
3791.152537  	92.951059 
3792.116961  	92.952736 
3793.081385  	92.959760 
3794.045810  	92.928264 
3795.010234  	92.795786 
3795.974659  	92.275695 
3796.939083  	91.302919 
3797.903508  	91.511436 
3798.867932  	92.182707 
3799.832357  	92.341126 
3800.796781  	91.400050 
3801.761206  	89.770236 
3802.725630  	90.182404 
3803.690054  	91.346182 
3804.654479  	92.352055 
3805.618903  	92.512549 
3806.583328  	91.857789 
3807.547752  	90.987395 
3808.512177  	92.014352 
3809.476601  	92.621378 
3810.441026  	92.720236 
3811.405450  	92.830225 
3812.369875  	92.926664 
3813.334299  	92.929891 
3814.298723  	92.739967 
3815.263148  	92.170162 
3816.227572  	90.722850 
3817.191997  	91.003110 
3818.156421  	92.081839 
3819.120846  	92.027140 
3820.085270  	91.287247 
3821.049695  	89.675211 
3822.014119  	89.335940 
3822.978544  	91.171996 
3823.942968  	91.957114 
3824.907392  	92.180710 
3825.871817  	92.148827 
3826.836241  	91.548058 
3827.800666  	91.596714 
3828.765090  	92.331603 
3829.729515  	92.706854 
3830.693939  	92.613334 
3831.658364  	91.835003 
3832.622788  	91.691072 
3833.587213  	92.406946 
3834.551637  	92.075133 
3835.516062  	91.238299 
3836.480486  	91.810857 
3837.444910  	91.572502 
3838.409335  	90.091095 
3839.373759  	90.559005 
3840.338184  	90.209378 
3841.302608  	90.243927 
3842.267033  	91.639917 
3843.231457  	91.866211 
3844.195882  	91.018906 
3845.160306  	91.822092 
3846.124731  	92.544714 
3847.089155  	92.696824 
3848.053579  	92.709389 
3849.018004  	92.481242 
3849.982428  	91.919946 
3850.946853  	91.926479 
3851.911277  	91.160996 
3852.875702  	89.290210 
3853.840126  	88.661525 
3854.804551  	88.742022 
3855.768975  	90.895815 
3856.733400  	91.328663 
3857.697824  	90.906940 
3858.662248  	91.953580 
3859.626673  	92.663404 
3860.591097  	92.655332 
3861.555522  	91.977161 
3862.519946  	91.220947 
3863.484371  	91.657566 
3864.448795  	91.095941 
3865.413220  	89.869302 
3866.377644  	91.230204 
3867.342069  	92.404254 
3868.306493  	92.332309 
3869.270917  	90.994274 
3870.235342  	88.836567 
3871.199766  	90.085373 
3872.164191  	91.518622 
3873.128615  	91.985669 
3874.093040  	90.638624 
3875.057464  	90.395115 
3876.021889  	92.255286 
3876.986313  	92.807727 
3877.950738  	92.817842 
3878.915162  	92.709571 
3879.879586  	91.727656 
3880.844011  	89.659090 
3881.808435  	90.849643 
3882.772860  	92.039028 
3883.737284  	91.692787 
3884.701709  	91.612355 
3885.666133  	90.908240 
3886.630558  	90.378566 
3887.594982  	92.058113 
3888.559407  	92.708668 
3889.523831  	92.718560 
3890.488256  	92.328135 
3891.452680  	91.027658 
3892.417104  	90.770482 
3893.381529  	91.871174 
3894.345953  	91.865228 
3895.310378  	92.172124 
3896.274802  	92.712694 
3897.239227  	92.714019 
3898.203651  	92.007024 
3899.168076  	90.872667 
3900.132500  	90.548233 
3901.096925  	91.467945 
3902.061349  	90.172826 
3903.025773  	89.955335 
3903.990198  	90.631825 
3904.954622  	90.107581 
3905.919047  	90.425557 
3906.883471  	91.338460 
3907.847896  	92.466953 
3908.812320  	92.860016 
3909.776745  	92.917032 
3910.741169  	92.902218 
3911.705594  	92.856682 
3912.670018  	92.858506 
3913.634442  	92.887342 
3914.598867  	92.898318 
3915.563291  	92.717709 
3916.527716  	91.710052 
3917.492140  	90.752092 
3918.456565  	91.726790 
3919.420989  	92.227756 
3920.385414  	91.476448 
3921.349838  	91.980112 
3922.314263  	92.821112 
3923.278687  	92.477651 
3924.243111  	91.515538 
3925.207536  	90.954262 
3926.171960  	91.758443 
3927.136385  	92.697941 
3928.100809  	92.773894 
3929.065234  	92.504472 
3930.029658  	92.139467 
3930.994083  	91.854982 
3931.958507  	91.437581 
3932.922932  	90.940513 
3933.887356  	91.841510 
3934.851780  	92.372792 
3935.816205  	92.692921 
3936.780629  	92.869333 
3937.745054  	92.794520 
3938.709478  	92.567725 
3939.673903  	92.726593 
3940.638327  	92.820826 
3941.602752  	92.661454 
3942.567176  	91.667606 
3943.531601  	91.131482 
3944.496025  	92.088978 
3945.460449  	92.612601 
3946.424874  	92.718260 
3947.389298  	92.061643 
3948.353723  	91.572230 
3949.318147  	91.910773 
3950.282572  	91.636817 
3951.246996  	92.026496 
3952.211421  	92.753116 
3953.175845  	92.652816 
3954.140270  	92.681050 
3955.104694  	92.820265 
3956.069119  	92.757139 
3957.033543  	92.569466 
3957.997967  	92.534052 
3958.962392  	92.630950 
3959.926816  	92.689794 
3960.891241  	92.690689 
3961.855665  	92.238475 
3962.820090  	92.148860 
3963.784514  	92.703424 
3964.748939  	92.767455 
3965.713363  	92.779244 
3966.677788  	92.848159 
3967.642212  	92.855918 
3968.606636  	92.698582 
3969.571061  	92.501302 
3970.535485  	92.647925 
3971.499910  	92.737579 
3972.464334  	92.516832 
3973.428759  	92.634548 
3974.393183  	92.713457 
3975.357608  	92.546948 
3976.322032  	92.404242 
3977.286457  	92.580808 
3978.250881  	92.843412 
3979.215305  	92.866040 
3980.179730  	92.833368 
3981.144154  	92.781133 
3982.108579  	92.697506 
3983.073003  	92.739158 
3984.037428  	92.868817 
3985.001852  	92.891840 
3985.966277  	92.899132 
3986.930701  	92.913389 
3987.895126  	92.897102 
3988.859550  	92.844451 
3989.823974  	92.713663 
3990.788399  	92.487967 
3991.752823  	92.589798 
3992.717248  	92.776636 
3993.681672  	92.772602 
3994.646097  	92.644724 
3995.610521  	92.519625 
3996.574946  	92.724401 
3997.539370  	92.868032 
3998.503795  	92.857815 
3999.468219  	92.821559 
4000.432643  	92.895988 
4001.397068  	92.909001 
4002.361492  	92.834951 
4003.325917  	92.763023 
4004.290341  	92.812012 
4005.254766  	92.857218 
4006.219190  	92.860816 
4007.183615  	92.824010 
4008.148039  	92.700955 
4009.112464  	92.579938 
4010.076888  	92.740818 
4011.041313  	92.848019 
4012.005737  	92.845488 
4012.970161  	92.797276 
4013.934586  	92.808807 
4014.899010  	92.864114 
4015.863435  	92.859376 
4016.827859  	92.860519 
4017.792284  	92.872320 
4018.756708  	92.851687 
4019.721133  	92.786994 
4020.685557  	92.775715 
4021.649982  	92.833498 
4022.614406  	92.869687 
4023.578830  	92.843164 
4024.543255  	92.809972 
4025.507679  	92.718136 
4026.472104  	92.748336 
4027.436528  	92.893705 
4028.400953  	92.875786 
4029.365377  	92.827771 
4030.329802  	92.878216 
4031.294226  	92.901389 
4032.258651  	92.874187 
4033.223075  	92.913898 
4034.187499  	92.926509 
4035.151924  	92.869130 
4036.116348  	92.852874 
4037.080773  	92.882438 
4038.045197  	92.937824 
4039.009622  	92.934545 
4039.974046  	92.882866 
4040.938471  	92.880603 
4041.902895  	92.893154 
4042.867320  	92.903477 
4043.831744  	92.816191 
4044.796168  	92.695679 
4045.760593  	92.717562 
4046.725017  	92.838732 
4047.689442  	92.895233 
4048.653866  	92.925238 
4049.618291  	92.934550 
4050.582715  	92.915583 
4051.547140  	92.882888 
4052.511564  	92.856674 
4053.475989  	92.884393 
4054.440413  	92.920115 
4055.404837  	92.899370 
4056.369262  	92.914066 
4057.333686  	92.960108 
4058.298111  	92.918702 
4059.262535  	92.892021 
4060.226960  	92.853255 
4061.191384  	92.816589 
4062.155809  	92.883674 
4063.120233  	92.952974 
4064.084658  	92.950770 
4065.049082  	92.915156 
4066.013506  	92.915376 
4066.977931  	92.894562 
4067.942355  	92.847431 
4068.906780  	92.872231 
4069.871204  	92.927681 
4070.835629  	92.953511 
4071.800053  	92.963100 
4072.764478  	92.919197 
4073.728902  	92.853226 
4074.693327  	92.892919 
4075.657751  	92.925233 
4076.622176  	92.904330 
4077.586600  	92.953715 
4078.551024  	92.949554 
4079.515449  	92.892056 
4080.479873  	92.906974 
4081.444298  	92.930348 
4082.408722  	92.865586 
4083.373147  	92.834789 
4084.337571  	92.817572 
4085.301996  	92.863675 
4086.266420  	92.896198 
4087.230845  	92.876828 
4088.195269  	92.830286 
4089.159693  	92.836363 
4090.124118  	92.911299 
4091.088542  	92.926459 
4092.052967  	92.930363 
4093.017391  	92.943042 
4093.981816  	92.923764 
4094.946240  	92.892976 
4095.910665  	92.940556 
4096.875089  	93.016797 
4097.839514  	92.966917 
4098.803938  	92.895852 
4099.768362  	92.925828 
4100.732787  	92.947920 
4101.697211  	92.899601 
4102.661636  	92.919335 
4103.626060  	92.944048 
4104.590485  	92.892115 
4105.554909  	92.831403 
4106.519334  	92.824750 
4107.483758  	92.869285 
4108.448183  	92.939289 
4109.412607  	92.929130 
4110.377031  	92.866067 
4111.341456  	92.872302 
4112.305880  	92.911515 
4113.270305  	92.911939 
4114.234729  	92.907418 
4115.199154  	92.928232 
4116.163578  	92.914384 
4117.128003  	92.905568 
4118.092427  	92.928192 
4119.056852  	92.944649 
4120.021276  	92.886470 
4120.985700  	92.860938 
4121.950125  	92.906583 
4122.914549  	92.887867 
4123.878974  	92.869268 
4124.843398  	92.891873 
4125.807823  	92.901631 
4126.772247  	92.882158 
4127.736672  	92.854085 
4128.701096  	92.862281 
4129.665521  	92.944552 
4130.629945  	92.943975 
4131.594370  	92.910752 
4132.558794  	92.906203 
4133.523218  	92.848739 
4134.487643  	92.824070 
4135.452067  	92.855426 
4136.416492  	92.911584 
4137.380916  	92.952002 
4138.345341  	92.895814 
4139.309765  	92.831953 
4140.274190  	92.846373 
4141.238614  	92.859093 
4142.203039  	92.899766 
4143.167463  	92.976088 
4144.131887  	92.925869 
4145.096312  	92.900058 
4146.060736  	92.962671 
4147.025161  	92.999110 
4147.989585  	92.984737 
4148.954010  	92.903874 
4149.918434  	92.866627 
4150.882859  	92.876853 
4151.847283  	92.908095 
4152.811708  	92.894943 
4153.776132  	92.906622 
4154.740556  	92.914599 
4155.704981  	92.872232 
4156.669405  	92.864602 
4157.633830  	92.894709 
4158.598254  	92.888551 
4159.562679  	92.838683 
4160.527103  	92.823102 
4161.491528  	92.897482 
4162.455952  	92.912359 
4163.420377  	92.882663 
4164.384801  	92.860242 
4165.349225  	92.845154 
4166.313650  	92.811098 
4167.278074  	92.821295 
4168.242499  	92.845899 
4169.206923  	92.891607 
4170.171348  	92.919948 
4171.135772  	92.931481 
4172.100197  	92.906735 
4173.064621  	92.889157 
4174.029046  	92.862441 
4174.993470  	92.831645 
4175.957894  	92.846589 
4176.922319  	92.886949 
4177.886743  	92.912011 
4178.851168  	92.887228 
4179.815592  	92.828674 
4180.780017  	92.787094 
4181.744441  	92.857707 
4182.708866  	92.912055 
4183.673290  	92.897532 
4184.637715  	92.893606 
4185.602139  	92.889860 
4186.566563  	92.837712 
4187.530988  	92.768338 
4188.495412  	92.775808 
4189.459837  	92.836016 
4190.424261  	92.851628 
4191.388686  	92.828463 
4192.353110  	92.851844 
4193.317535  	92.849940 
4194.281959  	92.829495 
4195.246384  	92.843948 
4196.210808  	92.861398 
4197.175233  	92.862400 
4198.139657  	92.862836 
4199.104081  	92.848450 
4200.068506  	92.849622 
4201.032930  	92.841992 
4201.997355  	92.882271 
4202.961779  	92.925270 
4203.926204  	92.871416 
4204.890628  	92.812473 
4205.855053  	92.807924 
4206.819477  	92.817362 
4207.783902  	92.831270 
4208.748326  	92.856207 
4209.712750  	92.929544 
4210.677175  	92.936458 
4211.641599  	92.845486 
4212.606024  	92.831889 
4213.570448  	92.908648 
4214.534873  	92.897443 
4215.499297  	92.856890 
4216.463722  	92.901815 
4217.428146  	92.844231 
4218.392571  	92.823761 
4219.356995  	92.885479 
4220.321419  	92.924608 
4221.285844  	92.965251 
4222.250268  	92.949999 
4223.214693  	92.827585 
4224.179117  	92.791469 
4225.143542  	92.846949 
4226.107966  	92.882635 
4227.072391  	92.896905 
4228.036815  	92.819498 
4229.001240  	92.812282 
4229.965664  	92.843427 
4230.930088  	92.846863 
4231.894513  	92.875612 
4232.858937  	92.884522 
4233.823362  	92.885880 
4234.787786  	92.918984 
4235.752211  	92.889413 
4236.716635  	92.888937 
4237.681060  	92.918409 
4238.645484  	92.950128 
4239.609909  	92.953561 
4240.574333  	92.882569 
4241.538757  	92.899482 
4242.503182  	92.931414 
4243.467606  	92.908519 
4244.432031  	92.871195 
4245.396455  	92.859485 
4246.360880  	92.885878 
4247.325304  	92.884196 
4248.289729  	92.859851 
4249.254153  	92.875757 
4250.218578  	92.935889 
4251.183002  	92.960620 
4252.147427  	92.928884 
4253.111851  	92.903120 
4254.076275  	92.862445 
4255.040700  	92.839201 
4256.005124  	92.813763 
4256.969549  	92.863336 
4257.933973  	92.885714 
4258.898398  	92.837346 
4259.862822  	92.777440 
4260.827247  	92.765765 
4261.791671  	92.793105 
4262.756096  	92.893872 
4263.720520  	92.903257 
4264.684944  	92.851511 
4265.649369  	92.827983 
4266.613793  	92.860971 
4267.578218  	92.832264 
4268.542642  	92.834320 
4269.507067  	92.832787 
4270.471491  	92.852317 
4271.435916  	92.895899 
4272.400340  	92.870789 
4273.364765  	92.834257 
4274.329189  	92.867937 
4275.293613  	92.929268 
4276.258038  	92.970324 
4277.222462  	92.959555 
4278.186887  	92.887487 
4279.151311  	92.852303 
4280.115736  	92.869788 
4281.080160  	92.857627 
4282.044585  	92.838148 
4283.009009  	92.865599 
4283.973434  	92.900936 
4284.937858  	92.906145 
4285.902282  	92.891649 
4286.866707  	92.933379 
4287.831131  	92.953429 
4288.795556  	92.977190 
4289.759980  	92.959088 
4290.724405  	92.909542 
4291.688829  	92.862519 
4292.653254  	92.853363 
4293.617678  	92.902654 
4294.582103  	92.976901 
4295.546527  	92.997847 
4296.510951  	92.977892 
4297.475376  	92.951019 
4298.439800  	92.924979 
4299.404225  	92.954204 
4300.368649  	93.002389 
4301.333074  	92.948744 
4302.297498  	92.841008 
4303.261923  	92.834375 
4304.226347  	92.968577 
4305.190772  	93.079929 
4306.155196  	93.000967 
4307.119620  	92.944379 
4308.084045  	92.961953 
4309.048469  	92.976447 
4310.012894  	92.927780 
4310.977318  	92.944037 
4311.941743  	92.958777 
4312.906167  	92.912268 
4313.870592  	92.845869 
4314.835016  	92.896873 
4315.799441  	92.909572 
4316.763865  	92.838733 
4317.728290  	92.855145 
4318.692714  	92.893895 
4319.657138  	92.845594 
4320.621563  	92.807993 
4321.585987  	92.844914 
4322.550412  	92.912691 
4323.514836  	92.874043 
4324.479261  	92.884074 
4325.443685  	92.889392 
4326.408110  	92.877900 
4327.372534  	92.914352 
4328.336959  	92.925171 
4329.301383  	92.896853 
4330.265807  	92.857783 
4331.230232  	92.880959 
4332.194656  	92.883757 
4333.159081  	92.860426 
4334.123505  	92.871069 
4335.087930  	92.851683 
4336.052354  	92.861086 
4337.016779  	92.853726 
4337.981203  	92.830270 
4338.945628  	92.853230 
4339.910052  	92.839042 
4340.874476  	92.835084 
4341.838901  	92.871303 
4342.803325  	92.853165 
4343.767750  	92.811784 
4344.732174  	92.825975 
4345.696599  	92.784286 
4346.661023  	92.727687 
4347.625448  	92.711041 
4348.589872  	92.710712 
4349.554297  	92.757451 
4350.518721  	92.847366 
4351.483145  	92.811568 
4352.447570  	92.774687 
4353.411994  	92.812551 
4354.376419  	92.788324 
4355.340843  	92.785922 
4356.305268  	92.868572 
4357.269692  	92.885212 
4358.234117  	92.878482 
4359.198541  	92.815575 
4360.162966  	92.799754 
4361.127390  	92.812214 
4362.091814  	92.812357 
4363.056239  	92.746798 
4364.020663  	92.789558 
4364.985088  	92.837138 
4365.949512  	92.749065 
4366.913937  	92.717702 
4367.878361  	92.714330 
4368.842786  	92.706711 
4369.807210  	92.771409 
4370.771635  	92.831151 
4371.736059  	92.824626 
4372.700484  	92.783978 
4373.664908  	92.831741 
4374.629332  	92.867463 
4375.593757  	92.842383 
4376.558181  	92.820417 
4377.522606  	92.849592 
4378.487030  	92.832937 
4379.451455  	92.807512 
4380.415879  	92.842161 
4381.380304  	92.866795 
4382.344728  	92.882841 
4383.309153  	92.938016 
4384.273577  	92.948715 
4385.238001  	92.938076 
4386.202426  	92.925965 
4387.166850  	92.934917 
4388.131275  	92.916304 
4389.095699  	92.883680 
4390.060124  	92.876671 
4391.024548  	92.899121 
4391.988973  	92.896701 
4392.953397  	92.947007 
4393.917822  	92.969776 
4394.882246  	92.927137 
4395.846670  	92.887278 
4396.811095  	92.918973 
4397.775519  	92.963636 
4398.739944  	93.017677 
4399.704368  	93.067746 
4400.668793  	93.085674 
4401.633217  	92.928278 
4402.597642  	92.850661 
4403.562066  	92.975116 
4404.526491  	93.042039 
4405.490915  	92.989733 
4406.455339  	92.899205 
4407.419764  	92.877488 
4408.384188  	92.973688 
4409.348613  	93.022871 
4410.313037  	93.010846 
4411.277462  	92.997362 
4412.241886  	93.010156 
4413.206311  	93.037245 
4414.170735  	93.070303 
4415.135160  	93.067943 
4416.099584  	93.047701 
4417.064008  	92.967642 
4418.028433  	92.870336 
4418.992857  	92.892073 
4419.957282  	92.944552 
4420.921706  	92.953951 
4421.886131  	92.948232 
4422.850555  	92.985215 
4423.814980  	92.977535 
4424.779404  	92.955766 
4425.743829  	92.936938 
4426.708253  	92.960642 
4427.672677  	93.031539 
4428.637102  	93.026594 
4429.601526  	93.016170 
4430.565951  	93.007051 
4431.530375  	92.985042 
4432.494800  	92.963765 
4433.459224  	92.957297 
4434.423649  	92.950955 
4435.388073  	92.951724 
4436.352498  	93.061238 
4437.316922  	93.143068 
4438.281347  	93.084336 
4439.245771  	93.001439 
4440.210195  	93.020430 
4441.174620  	93.050220 
4442.139044  	93.041514 
4443.103469  	93.059118 
4444.067893  	93.059666 
4445.032318  	93.055079 
4445.996742  	93.043809 
4446.961167  	92.978369 
4447.925591  	92.947040 
4448.890016  	92.983084 
4449.854440  	92.919319 
4450.818864  	92.897554 
4451.783289  	92.948741 
4452.747713  	92.945771 
4453.712138  	93.038473 
4454.676562  	93.048532 
4455.640987  	92.994798 
4456.605411  	93.014609 
4457.569836  	93.014043 
4458.534260  	92.988930 
4459.498685  	92.998688 
4460.463109  	92.984732 
4461.427533  	92.958438 
4462.391958  	92.982603 
4463.356382  	92.946293 
4464.320807  	92.880271 
4465.285231  	92.908478 
4466.249656  	92.948982 
4467.214080  	92.918813 
4468.178505  	92.915439 
4469.142929  	92.984984 
4470.107354  	93.093108 
4471.071778  	93.127884 
4472.036202  	93.122934 
4473.000627  	93.063543 
4473.965051  	92.953612 
4474.929476  	92.870457 
4475.893900  	92.959183 
4476.858325  	92.993480 
4477.822749  	92.981538 
4478.787174  	93.022023 
4479.751598  	93.042594 
4480.716023  	93.065171 
4481.680447  	93.038429 
4482.644871  	92.964227 
4483.609296  	92.899971 
4484.573720  	92.900994 
4485.538145  	92.954095 
4486.502569  	92.946002 
4487.466994  	92.938940 
4488.431418  	92.997097 
4489.395843  	92.988150 
4490.360267  	92.970221 
4491.324692  	92.960739 
4492.289116  	92.951458 
4493.253541  	93.002422 
4494.217965  	93.020793 
4495.182389  	93.000872 
4496.146814  	92.969206 
4497.111238  	92.975637 
4498.075663  	93.044854 
4499.040087  	93.062844 
4500.004512  	93.031319 
4500.968936  	93.016920 
4501.933361  	93.022952 
4502.897785  	93.068432 
4503.862210  	93.098385 
4504.826634  	93.079452 
4505.791058  	93.048600 
4506.755483  	93.028366 
4507.719907  	93.030122 
4508.684332  	93.015738 
4509.648756  	93.000090 
4510.613181  	93.029191 
4511.577605  	93.129685 
4512.542030  	93.171452 
4513.506454  	93.075518 
4514.470879  	92.951812 
4515.435303  	92.893615 
4516.399727  	92.907859 
4517.364152  	92.883733 
4518.328576  	92.932672 
4519.293001  	92.972551 
4520.257425  	92.990029 
4521.221850  	92.958794 
4522.186274  	93.007827 
4523.150699  	92.964945 
4524.115123  	92.939346 
4525.079548  	92.939528 
4526.043972  	92.926187 
4527.008396  	92.925424 
4527.972821  	92.909828 
4528.937245  	92.933366 
4529.901670  	92.894838 
4530.866094  	92.932610 
4531.830519  	93.039639 
4532.794943  	92.971991 
4533.759368  	92.949028 
4534.723792  	92.993299 
4535.688217  	92.954566 
4536.652641  	92.975087 
4537.617065  	92.992446 
4538.581490  	93.015954 
4539.545914  	93.006334 
4540.510339  	93.011555 
4541.474763  	92.969063 
4542.439188  	92.929429 
4543.403612  	92.949357 
4544.368037  	92.880773 
4545.332461  	92.851668 
4546.296886  	92.928138 
4547.261310  	92.956764 
4548.225734  	92.969053 
4549.190159  	93.016778 
4550.154583  	93.017904 
4551.119008  	92.965043 
4552.083432  	92.888748 
4553.047857  	92.858314 
4554.012281  	92.889196 
4554.976706  	92.890331 
4555.941130  	92.904276 
4556.905555  	93.008581 
4557.869979  	93.031441 
4558.834404  	93.023661 
4559.798828  	92.946385 
4560.763252  	92.892542 
4561.727677  	92.927442 
4562.692101  	92.944386 
4563.656526  	93.007648 
4564.620950  	93.058954 
4565.585375  	92.951647 
4566.549799  	92.915808 
4567.514224  	92.967760 
4568.478648  	92.975257 
4569.443073  	92.946938 
4570.407497  	92.973625 
4571.371921  	92.988510 
4572.336346  	92.917569 
4573.300770  	92.931296 
4574.265195  	92.939592 
4575.229619  	92.879173 
4576.194044  	92.900861 
4577.158468  	92.976551 
4578.122893  	92.973630 
4579.087317  	92.931892 
4580.051742  	92.943421 
4581.016166  	93.036063 
4581.980590  	93.099712 
4582.945015  	93.150813 
4583.909439  	93.094735 
4584.873864  	92.997969 
4585.838288  	92.932169 
4586.802713  	92.967569 
4587.767137  	92.951688 
4588.731562  	92.942350 
4589.695986  	92.933918 
4590.660411  	92.928572 
4591.624835  	92.936779 
4592.589259  	92.943027 
4593.553684  	93.028349 
4594.518108  	92.994979 
4595.482533  	92.878626 
4596.446957  	92.886128 
4597.411382  	92.846691 
4598.375806  	92.837473 
4599.340231  	92.909462 
4600.304655  	92.985216 
4601.269080  	93.032521 
4602.233504  	93.005766 
4603.197928  	92.969068 
4604.162353  	92.967521 
4605.126777  	93.028334 
4606.091202  	93.040815 
4607.055626  	92.969279 
4608.020051  	92.936844 
4608.984475  	92.965741 
4609.948900  	93.027651 
4610.913324  	93.040454 
4611.877749  	93.001870 
4612.842173  	92.954007 
4613.806598  	92.995645 
4614.771022  	93.029775 
4615.735446  	92.938555 
4616.699871  	92.896954 
4617.664295  	92.890399 
4618.628720  	92.899908 
4619.593144  	92.950837 
4620.557569  	93.066421 
4621.521993  	93.008973 
4622.486418  	92.865508 
4623.450842  	92.865120 
4624.415267  	92.894907 
4625.379691  	93.008901 
4626.344115  	92.998195 
4627.308540  	92.961441 
4628.272964  	92.947410 
4629.237389  	92.943239 
4630.201813  	92.944031 
4631.166238  	93.004009 
4632.130662  	93.007850 
4633.095087  	92.927587 
4634.059511  	92.938056 
4635.023936  	92.990038 
4635.988360  	93.009340 
4636.952784  	92.986415 
4637.917209  	92.975429 
4638.881633  	92.876964 
4639.846058  	92.829219 
4640.810482  	92.928302 
4641.774907  	92.973679 
4642.739331  	92.898323 
4643.703756  	92.844927 
4644.668180  	92.857679 
4645.632605  	92.857439 
4646.597029  	92.910501 
4647.561453  	92.932058 
4648.525878  	92.931708 
4649.490302  	92.997764 
4650.454727  	93.028698 
4651.419151  	92.955864 
4652.383576  	92.883933 
4653.348000  	92.906085 
4654.312425  	92.935238 
4655.276849  	92.996861 
4656.241274  	93.008193 
4657.205698  	92.946817 
4658.170122  	92.906593 
4659.134547  	92.906206 
4660.098971  	92.895035 
4661.063396  	92.944200 
4662.027820  	92.993760 
4662.992245  	92.937923 
4663.956669  	92.870032 
4664.921094  	92.932033 
4665.885518  	93.011506 
4666.849943  	93.007952 
4667.814367  	92.898301 
4668.778791  	92.881006 
4669.743216  	92.890720 
4670.707640  	92.900923 
4671.672065  	92.924794 
4672.636489  	92.913165 
4673.600914  	92.939704 
4674.565338  	92.948064 
4675.529763  	92.875595 
4676.494187  	92.878054 
4677.458612  	92.928512 
4678.423036  	93.030332 
4679.387461  	93.076921 
4680.351885  	93.020926 
4681.316309  	92.992036 
4682.280734  	92.948846 
4683.245158  	92.922426 
4684.209583  	92.964460 
4685.174007  	93.042237 
4686.138432  	93.020056 
4687.102856  	92.999129 
4688.067281  	92.932260 
4689.031705  	92.857845 
4689.996130  	92.949060 
4690.960554  	93.043297 
4691.924978  	93.002262 
4692.889403  	92.910244 
4693.853827  	92.896571 
4694.818252  	92.937363 
4695.782676  	92.916058 
4696.747101  	92.894398 
4697.711525  	92.992263 
4698.675950  	92.960145 
4699.640374  	92.842908 