##TITLE=No Description
##DATA TYPE=INFRARED SPECTRUM
##XUNITS=1/CM
##YUNITS=%T
400.236149  	114.086560 
401.200574  	98.117220 
402.164998  	91.570117 
403.129423  	78.085944 
404.093847  	72.978308 
405.058272  	75.738316 
406.022696  	80.408972 
406.987120  	85.845449 
407.951545  	90.172743 
408.915969  	89.817730 
409.880394  	90.385318 
410.844818  	90.064544 
411.809243  	97.078211 
412.773667  	96.039460 
413.738092  	84.857213 
414.702516  	78.537675 
415.666941  	81.369336 
416.631365  	85.740368 
417.595789  	85.880540 
418.560214  	86.180095 
419.524638  	83.516491 
420.489063  	79.242647 
421.453487  	79.327377 
422.417912  	80.662514 
423.382336  	82.396893 
424.346761  	83.405812 
425.311185  	77.645131 
426.275610  	77.790496 
427.240034  	82.935766 
428.204458  	84.627420 
429.168883  	84.706792 
430.133307  	84.262657 
431.097732  	82.332109 
432.062156  	79.638291 
433.026581  	78.828645 
433.991005  	79.868632 
434.955430  	80.673402 
435.919854  	80.279125 
436.884279  	80.465291 
437.848703  	81.605166 
438.813127  	82.077439 
439.777552  	81.408137 
440.741976  	80.375354 
441.706401  	80.723779 
442.670825  	81.636325 
443.635250  	81.303409 
444.599674  	81.033238 
445.564099  	81.039578 
446.528523  	80.600029 
447.492948  	79.776899 
448.457372  	80.194289 
449.421796  	80.966331 
450.386221  	79.470488 
451.350645  	79.231026 
452.315070  	78.443651 
453.279494  	77.261388 
454.243919  	77.861360 
455.208343  	77.980290 
456.172768  	77.622899 
457.137192  	77.624696 
458.101617  	78.232474 
459.066041  	78.352460 
460.030466  	78.059585 
460.994890  	77.490436 
461.959314  	77.384303 
462.923739  	78.083285 
463.888163  	77.906922 
464.852588  	77.330933 
465.817012  	77.652647 
466.781437  	77.604898 
467.745861  	76.465483 
468.710286  	76.159311 
469.674710  	75.734291 
470.639135  	75.703991 
471.603559  	75.879789 
472.567983  	76.336615 
473.532408  	76.457025 
474.496832  	75.494182 
475.461257  	75.362885 
476.425681  	75.508757 
477.390106  	76.402609 
478.354530  	76.585361 
479.318955  	75.190382 
480.283379  	74.703405 
481.247804  	75.152670 
482.212228  	74.945059 
483.176652  	75.378269 
484.141077  	75.942744 
485.105501  	74.953054 
486.069926  	74.416096 
487.034350  	75.460154 
487.998775  	75.549208 
488.963199  	74.988772 
489.927624  	74.563863 
490.892048  	73.948428 
491.856473  	73.590963 
492.820897  	74.504715 
493.785321  	74.486232 
494.749746  	73.763809 
495.714170  	74.092048 
496.678595  	74.104231 
497.643019  	73.734545 
498.607444  	73.919388 
499.571868  	73.728783 
500.536293  	73.101054 
501.500717  	72.580444 
502.465142  	72.337691 
503.429566  	72.694293 
504.393990  	72.481104 
505.358415  	72.412592 
506.322839  	71.816855 
507.287264  	71.755168 
508.251688  	72.132900 
509.216113  	72.216320 
510.180537  	71.791931 
511.144962  	71.905312 
512.109386  	72.306402 
513.073811  	72.194291 
514.038235  	71.591154 
515.002660  	71.155560 
515.967084  	71.132428 
516.931508  	70.502508 
517.895933  	70.610401 
518.860357  	70.936960 
519.824782  	70.372863 
520.789206  	70.453078 
521.753631  	70.856408 
522.718055  	70.910549 
523.682480  	70.429859 
524.646904  	69.887475 
525.611329  	69.187347 
526.575753  	68.965413 
527.540177  	69.479182 
528.504602  	69.365098 
529.469026  	68.673861 
530.433451  	68.329777 
531.397875  	68.266794 
532.362300  	68.091659 
533.326724  	68.218710 
534.291149  	68.330810 
535.255573  	68.415319 
536.219998  	68.651873 
537.184422  	69.515364 
538.148846  	69.731856 
539.113271  	69.623704 
540.077695  	69.752574 
541.042120  	70.457389 
542.006544  	71.050432 
542.970969  	70.967864 
543.935393  	70.880789 
544.899818  	70.777649 
545.864242  	70.961869 
546.828667  	70.979725 
547.793091  	70.395648 
548.757515  	70.123688 
549.721940  	70.254175 
550.686364  	69.971511 
551.650789  	70.060513 
552.615213  	69.724415 
553.579638  	69.636503 
554.544062  	69.498639 
555.508487  	69.343147 
556.472911  	68.788785 
557.437336  	68.246031 
558.401760  	67.980842 
559.366184  	67.818664 
560.330609  	67.348869 
561.295033  	66.916529 
562.259458  	66.678533 
563.223882  	66.067469 
564.188307  	65.369088 
565.152731  	65.187127 
566.117156  	64.514921 
567.081580  	63.607570 
568.046005  	63.082590 
569.010429  	62.647038 
569.974853  	62.216727 
570.939278  	61.577693 
571.903702  	60.773903 
572.868127  	60.248238 
573.832551  	59.759259 
574.796976  	59.376543 
575.761400  	58.746756 
576.725825  	58.760202 
577.690249  	58.941089 
578.654674  	59.374587 
579.619098  	59.785983 
580.583523  	60.407222 
581.547947  	61.680821 
582.512371  	62.559531 
583.476796  	63.217799 
584.441220  	64.170957 
585.405645  	65.136756 
586.370069  	66.202497 
587.334494  	67.021542 
588.298918  	67.542919 
589.263343  	68.071353 
590.227767  	68.698498 
591.192192  	68.810699 
592.156616  	69.122421 
593.121040  	69.946326 
594.085465  	70.473325 
595.049889  	70.763796 
596.014314  	71.050569 
596.978738  	71.220702 
597.943163  	71.415990 
598.907587  	71.560934 
599.872012  	71.500862 
600.836436  	71.622226 
601.800861  	71.796406 
602.765285  	71.808431 
603.729709  	71.999099 
604.694134  	72.312207 
605.658558  	72.496799 
606.622983  	72.651648 
607.587407  	72.512634 
608.551832  	72.477270 
609.516256  	72.558615 
610.480681  	72.477642 
611.445105  	72.571845 
612.409530  	72.822932 
613.373954  	72.825879 
614.338378  	72.424399 
615.302803  	72.240525 
616.267227  	72.281331 
617.231652  	72.669185 
618.196076  	72.796974 
619.160501  	72.761893 
620.124925  	72.548749 
621.089350  	72.667208 
622.053774  	72.695738 
623.018199  	72.857011 
623.982623  	72.659913 
624.947047  	72.662865 
625.911472  	72.748607 
626.875896  	72.697967 
627.840321  	72.558095 
628.804745  	72.647440 
629.769170  	72.597960 
630.733594  	72.554077 
631.698019  	72.586383 
632.662443  	72.538936 
633.626868  	72.449717 
634.591292  	72.414134 
635.555717  	72.292318 
636.520141  	72.377338 
637.484565  	72.131468 
638.448990  	72.024422 
639.413414  	71.820866 
640.377839  	71.730491 
641.342263  	71.671964 
642.306688  	71.452015 
643.271112  	71.304068 
644.235537  	71.240127 
645.199961  	71.141491 
646.164386  	71.151359 
647.128810  	70.973507 
648.093234  	70.697808 
649.057659  	70.449324 
650.022083  	70.262744 
650.986508  	70.005293 
651.950932  	69.776299 
652.915357  	69.515222 
653.879781  	69.240846 
654.844206  	68.992039 
655.808630  	68.772020 
656.773055  	68.518779 
657.737479  	68.391204 
658.701903  	67.895650 
659.666328  	67.523380 
660.630752  	67.322213 
661.595177  	67.031927 
662.559601  	66.660212 
663.524026  	66.304660 
664.488450  	66.061710 
665.452875  	65.809313 
666.417299  	65.501586 
667.381724  	65.468400 
668.346148  	65.473371 
669.310572  	64.793340 
670.274997  	64.299058 
671.239421  	63.991566 
672.203846  	63.825527 
673.168270  	63.586067 
674.132695  	63.130252 
675.097119  	62.863766 
676.061544  	62.658872 
677.025968  	62.445585 
677.990393  	62.239156 
678.954817  	62.122559 
679.919241  	62.014569 
680.883666  	61.939022 
681.848090  	61.958955 
682.812515  	61.970888 
683.776939  	61.908440 
684.741364  	61.874052 
685.705788  	61.868038 
686.670213  	62.087665 
687.634637  	62.252133 
688.599062  	62.556857 
689.563486  	62.956190 
690.527910  	63.348709 
691.492335  	63.743165 
692.456759  	64.215448 
693.421184  	64.653280 
694.385608  	65.285385 
695.350033  	65.858952 
696.314457  	66.310210 
697.278882  	66.666506 
698.243306  	67.141988 
699.207731  	67.684463 
700.172155  	68.250732 
701.136580  	68.639942 
702.101004  	68.933306 
703.065428  	69.233613 
704.029853  	69.575877 
704.994277  	69.875693 
705.958702  	70.302478 
706.923126  	70.573408 
707.887551  	70.724684 
708.851975  	70.989283 
709.816400  	71.216103 
710.780824  	71.379724 
711.745249  	71.449394 
712.709673  	71.511990 
713.674097  	71.584498 
714.638522  	71.809299 
715.602946  	71.960454 
716.567371  	71.944352 
717.531795  	71.936121 
718.496220  	71.866956 
719.460644  	71.817969 
720.425069  	71.945129 
721.389493  	72.092379 
722.353918  	72.121457 
723.318342  	72.108405 
724.282766  	72.031795 
725.247191  	71.941084 
726.211615  	71.878750 
727.176040  	71.910418 
728.140464  	71.914983 
729.104889  	71.951507 
730.069313  	72.177962 
731.033738  	72.683943 
731.998162  	73.401703 
732.962587  	74.174116 
733.927011  	74.904649 
734.891435  	75.650805 
735.855860  	76.420818 
736.820284  	77.185934 
737.784709  	77.831599 
738.749133  	78.480607 
739.713558  	79.087002 
740.677982  	79.582195 
741.642407  	79.857111 
742.606831  	80.241808 
743.571256  	80.547600 
744.535680  	80.735538 
745.500104  	80.899331 
746.464529  	81.017879 
747.428953  	81.082494 
748.393378  	81.242215 
749.357802  	81.333333 
750.322227  	81.321090 
751.286651  	81.450418 
752.251076  	81.630453 
753.215500  	81.760339 
754.179925  	81.880646 
755.144349  	82.013003 
756.108774  	82.225333 
757.073198  	82.354614 
758.037622  	82.381111 
759.002047  	82.403956 
759.966471  	82.596634 
760.930896  	82.710221 
761.895320  	82.844612 
762.859745  	83.033041 
763.824169  	83.196656 
764.788594  	83.380654 
765.753018  	83.448002 
766.717443  	83.499883 
767.681867  	83.674555 
768.646291  	83.813941 
769.610716  	83.934704 
770.575140  	84.037317 
771.539565  	84.191541 
772.503989  	84.296989 
773.468414  	84.360497 
774.432838  	84.427631 
775.397263  	84.664276 
776.361687  	84.819572 
777.326112  	84.949977 
778.290536  	85.057726 
779.254960  	85.341767 
780.219385  	85.371808 
781.183809  	85.494110 
782.148234  	85.526734 
783.112658  	85.755032 
784.077083  	85.784194 
785.041507  	85.543114 
786.005932  	85.746383 
786.970356  	85.838038 
787.934781  	85.767148 
788.899205  	85.815228 
789.863629  	85.977547 
790.828054  	86.051725 
791.792478  	85.987872 
792.756903  	85.975466 
793.721327  	86.078432 
794.685752  	86.050321 
795.650176  	86.128209 
796.614601  	86.186273 
797.579025  	86.309009 
798.543450  	86.354116 
799.507874  	86.448403 
800.472298  	86.676604 
801.436723  	86.917897 
802.401147  	87.043044 
803.365572  	87.170922 
804.329996  	87.275202 
805.294421  	87.387864 
806.258845  	87.505224 
807.223270  	87.680172 
808.187694  	87.762390 
809.152119  	87.800083 
810.116543  	87.818243 
811.080967  	87.868423 
812.045392  	87.922887 
813.009816  	88.022436 
813.974241  	88.106265 
814.938665  	88.219589 
815.903090  	88.287531 
816.867514  	88.341007 
817.831939  	88.466295 
818.796363  	88.594528 
819.760788  	88.702693 
820.725212  	88.838134 
821.689637  	88.853854 
822.654061  	88.876960 
823.618485  	88.906835 
824.582910  	88.988734 
825.547334  	88.979271 
826.511759  	89.058241 
827.476183  	89.135059 
828.440608  	89.191876 
829.405032  	89.275423 
830.369457  	89.325579 
831.333881  	89.422745 
832.298306  	89.507387 
833.262730  	89.541778 
834.227154  	89.577256 
835.191579  	89.610869 
836.156003  	89.653499 
837.120428  	89.697723 
838.084852  	89.652513 
839.049277  	89.670693 
840.013701  	89.694502 
840.978126  	89.679712 
841.942550  	89.808985 
842.906975  	89.897295 
843.871399  	89.855325 
844.835823  	89.787718 
845.800248  	89.849376 
846.764672  	89.977204 
847.729097  	90.093789 
848.693521  	90.045626 
849.657946  	90.046341 
850.622370  	90.094099 
851.586795  	90.129317 
852.551219  	90.076645 
853.515644  	90.113545 
854.480068  	90.175617 
855.444492  	90.147212 
856.408917  	90.128636 
857.373341  	90.173199 
858.337766  	90.263087 
859.302190  	90.338710 
860.266615  	90.325159 
861.231039  	90.296874 
862.195464  	90.290206 
863.159888  	90.322565 
864.124313  	90.324309 
865.088737  	90.318446 
866.053161  	90.324704 
867.017586  	90.325866 
867.982010  	90.373702 
868.946435  	90.488154 
869.910859  	90.422974 
870.875284  	90.368591 
871.839708  	90.371283 
872.804133  	90.403086 
873.768557  	90.437345 
874.732982  	90.326551 
875.697406  	90.228392 
876.661831  	90.188220 
877.626255  	90.218601 
878.590679  	90.241640 
879.555104  	90.281960 
880.519528  	90.287740 
881.483953  	90.156300 
882.448377  	90.080042 
883.412802  	90.154547 
884.377226  	90.185682 
885.341651  	90.148090 
886.306075  	90.071333 
887.270500  	90.026942 
888.234924  	90.064553 
889.199348  	90.041494 
890.163773  	89.942451 
891.128197  	89.937864 
892.092622  	89.955466 
893.057046  	89.874203 
894.021471  	89.790163 
894.985895  	89.721386 
895.950320  	89.575529 
896.914744  	89.405215 
897.879169  	89.287558 
898.843593  	89.140657 
899.808017  	88.922663 
900.772442  	88.601665 
901.736866  	88.222455 
902.701291  	87.860808 
903.665715  	87.490206 
904.630140  	87.184323 
905.594564  	87.036331 
906.558989  	87.129445 
907.523413  	87.367083 
908.487838  	87.651021 
909.452262  	87.972748 
910.416686  	88.265150 
911.381111  	88.442384 
912.345535  	88.480995 
913.309960  	88.445772 
914.274384  	88.381808 
915.238809  	88.290498 
916.203233  	88.171451 
917.167658  	88.055236 
918.132082  	87.950625 
919.096507  	87.791408 
920.060931  	87.658575 
921.025355  	87.504971 
921.989780  	87.215804 
922.954204  	86.898754 
923.918629  	86.598366 
924.883053  	86.277776 
925.847478  	85.898616 
926.811902  	85.392211 
927.776327  	84.884031 
928.740751  	84.307150 
929.705176  	83.630968 
930.669600  	82.843491 
931.634024  	81.984715 
932.598449  	81.213692 
933.562873  	80.690486 
934.527298  	80.525200 
935.491722  	80.742618 
936.456147  	81.384574 
937.420571  	82.382466 
938.384996  	83.430801 
939.349420  	84.452902 
940.313845  	85.427733 
941.278269  	86.206587 
942.242694  	86.780018 
943.207118  	87.218841 
944.171542  	87.608270 
945.135967  	87.959736 
946.100391  	88.228999 
947.064816  	88.417748 
948.029240  	88.556928 
948.993665  	88.691089 
949.958089  	88.869340 
950.922514  	89.025349 
951.886938  	89.122016 
952.851363  	89.163296 
953.815787  	89.192009 
954.780211  	89.290918 
955.744636  	89.427953 
956.709060  	89.509108 
957.673485  	89.546046 
958.637909  	89.579770 
959.602334  	89.603254 
960.566758  	89.652831 
961.531183  	89.712147 
962.495607  	89.730495 
963.460032  	89.787402 
964.424456  	89.818936 
965.388880  	89.799898 
966.353305  	89.806946 
967.317729  	89.889773 
968.282154  	89.908984 
969.246578  	89.874099 
970.211003  	89.882564 
971.175427  	89.885693 
972.139852  	89.836784 
973.104276  	89.827549 
974.068701  	89.845630 
975.033125  	89.825754 
975.997549  	89.786438 
976.961974  	89.776153 
977.926398  	89.784089 
978.890823  	89.733957 
979.855247  	89.647959 
980.819672  	89.577904 
981.784096  	89.541912 
982.748521  	89.493453 
983.712945  	89.360597 
984.677370  	89.173163 
985.641794  	89.052151 
986.606218  	88.991688 
987.570643  	88.938128 
988.535067  	88.903605 
989.499492  	88.935888 
990.463916  	88.949301 
991.428341  	88.905527 
992.392765  	88.808417 
993.357190  	88.707795 
994.321614  	88.647928 
995.286039  	88.609025 
996.250463  	88.570804 
997.214888  	88.519922 
998.179312  	88.480188 
999.143736  	88.439114 
1000.108161  	88.381072 
1001.072585  	88.320733 
1002.037010  	88.289099 
1003.001434  	88.233810 
1003.965859  	88.155180 
1004.930283  	88.075833 
1005.894708  	87.969543 
1006.859132  	87.826033 
1007.823557  	87.715840 
1008.787981  	87.635797 
1009.752405  	87.554908 
1010.716830  	87.448838 
1011.681254  	87.339777 
1012.645679  	87.309536 
1013.610103  	87.288821 
1014.574528  	87.205551 
1015.538952  	87.141483 
1016.503377  	87.171744 
1017.467801  	87.185911 
1018.432226  	87.144618 
1019.396650  	87.116296 
1020.361074  	87.140290 
1021.325499  	87.175141 
1022.289923  	87.158803 
1023.254348  	87.120654 
1024.218772  	87.062659 
1025.183197  	86.995734 
1026.147621  	86.947840 
1027.112046  	86.904831 
1028.076470  	86.841237 
1029.040895  	86.762444 
1030.005319  	86.648421 
1030.969743  	86.541906 
1031.934168  	86.535685 
1032.898592  	86.510296 
1033.863017  	86.395245 
1034.827441  	86.285137 
1035.791866  	86.213127 
1036.756290  	86.121561 
1037.720715  	86.054517 
1038.685139  	86.008937 
1039.649564  	86.008020 
1040.613988  	85.994196 
1041.578412  	85.967864 
1042.542837  	85.984461 
1043.507261  	86.042301 
1044.471686  	86.083592 
1045.436110  	86.136058 
1046.400535  	86.219703 
1047.364959  	86.333955 
1048.329384  	86.411021 
1049.293808  	86.498745 
1050.258233  	86.590301 
1051.222657  	86.638533 
1052.187081  	86.652870 
1053.151506  	86.644474 
1054.115930  	86.668051 
1055.080355  	86.644172 
1056.044779  	86.543670 
1057.009204  	86.470961 
1057.973628  	86.456027 
1058.938053  	86.439928 
1059.902477  	86.334297 
1060.866902  	86.226411 
1061.831326  	86.246376 
1062.795751  	86.209976 
1063.760175  	86.073535 
1064.724599  	86.007388 
1065.689024  	86.075691 
1066.653448  	86.215032 
1067.617873  	86.343503 
1068.582297  	86.490483 
1069.546722  	86.677329 
1070.511146  	86.845722 
1071.475571  	86.971093 
1072.439995  	87.101912 
1073.404420  	87.187767 
1074.368844  	87.250442 
1075.333268  	87.279466 
1076.297693  	87.244138 
1077.262117  	87.226232 
1078.226542  	87.264556 
1079.190966  	87.284692 
1080.155391  	87.220681 
1081.119815  	87.170255 
1082.084240  	87.134693 
1083.048664  	87.072864 
1084.013089  	87.060887 
1084.977513  	87.015000 
1085.941937  	86.889179 
1086.906362  	86.767718 
1087.870786  	86.696492 
1088.835211  	86.641780 
1089.799635  	86.543502 
1090.764060  	86.457103 
1091.728484  	86.427971 
1092.692909  	86.417221 
1093.657333  	86.362505 
1094.621758  	86.277390 
1095.586182  	86.240311 
1096.550606  	86.234617 
1097.515031  	86.279543 
1098.479455  	86.316773 
1099.443880  	86.304221 
1100.408304  	86.302749 
1101.372729  	86.311479 
1102.337153  	86.318792 
1103.301578  	86.341488 
1104.266002  	86.360162 
1105.230427  	86.343945 
1106.194851  	86.349374 
1107.159275  	86.368698 
1108.123700  	86.385318 
1109.088124  	86.362819 
1110.052549  	86.337337 
1111.016973  	86.365317 
1111.981398  	86.380129 
1112.945822  	86.374154 
1113.910247  	86.374983 
1114.874671  	86.366421 
1115.839096  	86.346776 
1116.803520  	86.317335 
1117.767945  	86.268339 
1118.732369  	86.240296 
1119.696793  	86.196940 
1120.661218  	86.111534 
1121.625642  	85.972424 
1122.590067  	85.888540 
1123.554491  	85.823585 
1124.518916  	85.699596 
1125.483340  	85.580702 
1126.447765  	85.460534 
1127.412189  	85.338289 
1128.376614  	85.190664 
1129.341038  	85.017020 
1130.305462  	84.843148 
1131.269887  	84.585812 
1132.234311  	84.212421 
1133.198736  	83.780508 
1134.163160  	83.297204 
1135.127585  	82.750102 
1136.092009  	82.162935 
1137.056434  	81.632038 
1138.020858  	81.283929 
1138.985283  	81.122911 
1139.949707  	81.080307 
1140.914131  	81.152995 
1141.878556  	81.274975 
1142.842980  	81.324936 
1143.807405  	81.343076 
1144.771829  	81.350794 
1145.736254  	81.362852 
1146.700678  	81.399273 
1147.665103  	81.423738 
1148.629527  	81.519416 
1149.593952  	81.679010 
1150.558376  	81.907081 
1151.522800  	82.141729 
1152.487225  	82.376419 
1153.451649  	82.640350 
1154.416074  	82.895484 
1155.380498  	83.088986 
1156.344923  	83.278052 
1157.309347  	83.456469 
1158.273772  	83.541076 
1159.238196  	83.535653 
1160.202621  	83.578940 
1161.167045  	83.567177 
1162.131469  	83.435097 
1163.095894  	83.280656 
1164.060318  	83.161838 
1165.024743  	82.984722 
1165.989167  	82.734375 
1166.953592  	82.496930 
1167.918016  	82.236809 
1168.882441  	81.901722 
1169.846865  	81.485065 
1170.811290  	81.020422 
1171.775714  	80.510245 
1172.740138  	79.952490 
1173.704563  	79.317331 
1174.668987  	78.617963 
1175.633412  	77.999917 
1176.597836  	77.464163 
1177.562261  	76.960826 
1178.526685  	76.589428 
1179.491110  	76.436852 
1180.455534  	76.445627 
1181.419959  	76.591618 
1182.384383  	76.836541 
1183.348808  	77.079101 
1184.313232  	77.295670 
1185.277656  	77.443477 
1186.242081  	77.507955 
1187.206505  	77.470965 
1188.170930  	77.318064 
1189.135354  	77.011924 
1190.099779  	76.567400 
1191.064203  	76.015842 
1192.028628  	75.296970 
1192.993052  	74.419122 
1193.957477  	73.521420 
1194.921901  	72.683685 
1195.886325  	72.002848 
1196.850750  	71.604844 
1197.815174  	71.654208 
1198.779599  	72.198639 
1199.744023  	73.116949 
1200.708448  	74.230960 
1201.672872  	75.394315 
1202.637297  	76.567109 
1203.601721  	77.636787 
1204.566146  	78.501255 
1205.530570  	79.217499 
1206.494994  	79.867011 
1207.459419  	80.381176 
1208.423843  	80.714988 
1209.388268  	80.958475 
1210.352692  	81.142857 
1211.317117  	81.203947 
1212.281541  	81.196453 
1213.245966  	81.257177 
1214.210390  	81.282121 
1215.174815  	81.209612 
1216.139239  	81.122990 
1217.103663  	81.029610 
1218.068088  	80.922956 
1219.032512  	80.700241 
1219.996937  	80.374852 
1220.961361  	79.983133 
1221.925786  	79.529620 
1222.890210  	79.042383 
1223.854635  	78.663137 
1224.819059  	78.561822 
1225.783484  	78.767820 
1226.747908  	79.062623 
1227.712332  	79.244343 
1228.676757  	79.294533 
1229.641181  	79.216891 
1230.605606  	79.067383 
1231.570030  	78.888662 
1232.534455  	78.679163 
1233.498879  	78.477061 
1234.463304  	78.286146 
1235.427728  	78.085508 
1236.392153  	77.945374 
1237.356577  	77.856531 
1238.321002  	77.754181 
1239.285426  	77.636944 
1240.249850  	77.508156 
1241.214275  	77.404863 
1242.178699  	77.298773 
1243.143124  	77.157919 
1244.107548  	77.027290 
1245.071973  	76.950782 
1246.036397  	76.829594 
1247.000822  	76.657383 
1247.965246  	76.524790 
1248.929671  	76.394166 
1249.894095  	76.220819 
1250.858519  	76.066643 
1251.822944  	75.892250 
1252.787368  	75.713772 
1253.751793  	75.556796 
1254.716217  	75.347436 
1255.680642  	75.138977 
1256.645066  	74.963763 
1257.609491  	74.704385 
1258.573915  	74.370489 
1259.538340  	74.031694 
1260.502764  	73.689350 
1261.467188  	73.469998 
1262.431613  	73.217361 
1263.396037  	72.888686 
1264.360462  	72.554304 
1265.324886  	72.223449 
1266.289311  	71.913572 
1267.253735  	71.631982 
1268.218160  	71.341639 
1269.182584  	71.025732 
1270.147009  	70.726359 
1271.111433  	70.518553 
1272.075857  	70.325960 
1273.040282  	70.259661 
1274.004706  	70.255749 
1274.969131  	70.358943 
1275.933555  	70.581714 
1276.897980  	70.947135 
1277.862404  	71.468259 
1278.826829  	72.107215 
1279.791253  	72.794941 
1280.755678  	73.531809 
1281.720102  	74.294081 
1282.684526  	75.026309 
1283.648951  	75.670410 
1284.613375  	76.228843 
1285.577800  	76.799380 
1286.542224  	77.268537 
1287.506649  	77.552490 
1288.471073  	77.888346 
1289.435498  	78.302809 
1290.399922  	78.585321 
1291.364347  	78.821041 
1292.328771  	79.049888 
1293.293195  	79.219792 
1294.257620  	79.328828 
1295.222044  	79.385859 
1296.186469  	79.369903 
1297.150893  	79.415602 
1298.115318  	79.554832 
1299.079742  	79.560450 
1300.044167  	79.523736 
1301.008591  	79.527168 
1301.973016  	79.527352 
1302.937440  	79.537323 
1303.901865  	79.621328 
1304.866289  	79.765107 
1305.830713  	79.891601 
1306.795138  	80.005299 
1307.759562  	80.111810 
1308.723987  	80.249389 
1309.688411  	80.486740 
1310.652836  	80.652643 
1311.617260  	80.674437 
1312.581685  	80.492247 
1313.546109  	80.619409 
1314.510534  	80.823395 
1315.474958  	81.011123 
1316.439382  	80.984770 
1317.403807  	80.893400 
1318.368231  	80.856583 
1319.332656  	80.734900 
1320.297080  	80.939554 
1321.261505  	81.083070 
1322.225929  	81.134752 
1323.190354  	81.042649 
1324.154778  	80.979545 
1325.119203  	80.896283 
1326.083627  	80.788338 
1327.048051  	80.697533 
1328.012476  	80.638924 
1328.976900  	80.568358 
1329.941325  	80.523640 
1330.905749  	80.558204 
1331.870174  	80.606766 
1332.834598  	80.589336 
1333.799023  	80.568275 
1334.763447  	80.478728 
1335.727872  	80.182548 
1336.692296  	79.722902 
1337.656720  	79.538707 
1338.621145  	78.918640 
1339.585569  	78.291525 
1340.549994  	78.421768 
1341.514418  	79.234572 
1342.478843  	79.515735 
1343.443267  	79.391980 
1344.407692  	79.244636 
1345.372116  	79.101946 
1346.336541  	78.927979 
1347.300965  	78.753279 
1348.265389  	78.519797 
1349.229814  	78.217882 
1350.194238  	78.063031 
1351.158663  	77.924212 
1352.123087  	77.678339 
1353.087512  	77.440711 
1354.051936  	77.082963 
1355.016361  	76.673967 
1355.980785  	76.623711 
1356.945210  	76.458951 
1357.909634  	76.136831 
1358.874059  	75.947392 
1359.838483  	75.697554 
1360.802907  	75.011051 
1361.767332  	74.453600 
1362.731756  	73.619257 
1363.696181  	73.536921 
1364.660605  	74.245046 
1365.625030  	74.226913 
1366.589454  	74.018182 
1367.553879  	73.610662 
1368.518303  	73.045427 
1369.482728  	72.962316 
1370.447152  	73.206112 
1371.411576  	73.268137 
1372.376001  	73.258937 
1373.340425  	72.925177 
1374.304850  	72.938122 
1375.269274  	73.732634 
1376.233699  	74.763533 
1377.198123  	75.228147 
1378.162548  	75.433466 
1379.126972  	75.898253 
1380.091397  	76.365887 
1381.055821  	76.833122 
1382.020245  	77.126666 
1382.984670  	77.366555 
1383.949094  	77.592128 
1384.913519  	77.808305 
1385.877943  	77.656489 
1386.842368  	77.038273 
1387.806792  	77.216894 
1388.771217  	78.338257 
1389.735641  	78.835164 
1390.700066  	79.041897 
1391.664490  	79.310365 
1392.628914  	79.581714 
1393.593339  	79.285713 
1394.557763  	78.555585 
1395.522188  	78.772629 
1396.486612  	79.502047 
1397.451037  	79.554399 
1398.415461  	79.083259 
1399.379886  	79.069140 
1400.344310  	79.832893 
1401.308735  	80.109216 
1402.273159  	79.975242 
1403.237583  	79.691816 
1404.202008  	78.955746 
1405.166432  	78.097480 
1406.130857  	78.204598 
1407.095281  	78.042145 
1408.059706  	77.367094 
1409.024130  	76.453221 
1409.988555  	75.223011 
1410.952979  	73.842408 
1411.917404  	72.280466 
1412.881828  	70.843458 
1413.846252  	69.290138 
1414.810677  	67.818926 
1415.775101  	66.699308 
1416.739526  	66.306776 
1417.703950  	66.864905 
1418.668375  	67.502630 
1419.632799  	69.288902 
1420.597224  	72.201326 
1421.561648  	73.267758 
1422.526073  	73.967013 
1423.490497  	73.824831 
1424.454922  	74.271248 
1425.419346  	75.442474 
1426.383770  	75.937958 
1427.348195  	76.043153 
1428.312619  	75.873606 
1429.277044  	75.415974 
1430.241468  	75.070798 
1431.205893  	75.297647 
1432.170317  	75.061890 
1433.134742  	74.694444 
1434.099166  	74.681728 
1435.063591  	74.342750 
1436.028015  	73.119207 
1436.992439  	72.640583 
1437.956864  	73.887388 
1438.921288  	74.293640 
1439.885713  	74.417696 
1440.850137  	74.527320 
1441.814562  	74.650660 
1442.778986  	74.789314 
1443.743411  	74.835974 
1444.707835  	74.848446 
1445.672260  	74.814817 
1446.636684  	74.610534 
1447.601108  	73.938953 
1448.565533  	73.938235 
1449.529957  	74.388184 
1450.494382  	74.242055 
1451.458806  	73.603317 
1452.423231  	72.988377 
1453.387655  	72.898334 
1454.352080  	72.181061 
1455.316504  	70.957124 
1456.280929  	69.765354 
1457.245353  	68.809685 
1458.209777  	68.395730 
1459.174202  	68.472153 
1460.138626  	68.741268 
1461.103051  	68.420214 
1462.067475  	67.540826 
1463.031900  	66.666435 
1463.996324  	65.618796 
1464.960749  	65.057165 
1465.925173  	66.354491 
1466.889598  	67.618633 
1467.854022  	68.827137 
1468.818446  	69.834300 
1469.782871  	70.202869 
1470.747295  	69.649997 
1471.711720  	67.959560 
1472.676144  	66.238207 
1473.640569  	65.971697 
1474.604993  	66.623182 
1475.569418  	66.532028 
1476.533842  	67.066309 
1477.498267  	69.100716 
1478.462691  	70.597313 
1479.427116  	72.000245 
1480.391540  	73.180367 
1481.355964  	74.192447 
1482.320389  	75.848931 
1483.284813  	77.031422 
1484.249238  	77.800520 
1485.213662  	78.065372 
1486.178087  	77.821495 
1487.142511  	77.431896 
1488.106936  	77.582580 
1489.071360  	76.677900 
1490.035785  	75.409017 
1491.000209  	76.236262 
1491.964633  	77.283521 
1492.929058  	77.424898 
1493.893482  	77.106805 
1494.857907  	76.455468 
1495.822331  	75.280518 
1496.786756  	74.715130 
1497.751180  	74.764755 
1498.715605  	73.966676 
1499.680029  	73.858827 
1500.644454  	73.725324 
1501.608878  	73.001121 
1502.573302  	72.624390 
1503.537727  	72.328668 
1504.502151  	71.341101 
1505.466576  	69.455346 
1506.431000  	66.186748 
1507.395425  	64.808067 
1508.359849  	65.550915 
1509.324274  	65.912664 
1510.288698  	65.950815 
1511.253123  	65.922958 
1512.217547  	64.981064 
1513.181971  	64.616546 
1514.146396  	64.047168 
1515.110820  	62.565369 
1516.075245  	60.983541 
1517.039669  	59.283781 
1518.004094  	59.431019 
1518.968518  	59.262539 
1519.932943  	57.728845 
1520.897367  	55.189761 
1521.861792  	54.457601 
1522.826216  	54.340128 
1523.790640  	54.065443 
1524.755065  	52.896389 
1525.719489  	51.717974 
1526.683914  	51.142007 
1527.648338  	50.179421 
1528.612763  	49.665042 
1529.577187  	49.606230 
1530.541612  	49.187131 
1531.506036  	48.395320 
1532.470461  	47.766586 
1533.434885  	47.171433 
1534.399309  	48.078414 
1535.363734  	48.767124 
1536.328158  	49.308246 
1537.292583  	49.699687 
1538.257007  	49.245056 
1539.221432  	48.220293 
1540.185856  	49.849308 
1541.150281  	51.152148 
1542.114705  	51.732777 
1543.079130  	53.097040 
1544.043554  	53.613339 
1545.007979  	54.094762 
1545.972403  	55.990024 
1546.936827  	57.390547 
1547.901252  	58.140181 
1548.865676  	58.416841 
1549.830101  	58.048098 
1550.794525  	59.498382 
1551.758950  	60.895950 
1552.723374  	61.391396 
1553.687799  	61.151696 
1554.652223  	61.616025 
1555.616648  	63.123440 
1556.581072  	63.318233 
1557.545496  	62.430848 
1558.509921  	60.741243 
1559.474345  	61.104585 
1560.438770  	64.685323 
1561.403194  	66.934281 
1562.367619  	67.829242 
1563.332043  	68.525300 
1564.296468  	68.788427 
1565.260892  	69.391877 
1566.225317  	70.558221 
1567.189741  	71.233813 
1568.154165  	71.406205 
1569.118590  	70.776822 
1570.083014  	71.815065 
1571.047439  	73.503585 
1572.011863  	74.202592 
1572.976288  	74.712317 
1573.940712  	75.197765 
1574.905137  	75.173953 
1575.869561  	74.569340 
1576.833986  	75.219242 
1577.798410  	76.370867 
1578.762834  	77.084440 
1579.727259  	77.583726 
1580.691683  	77.902726 
1581.656108  	78.177230 
1582.620532  	78.310077 
1583.584957  	78.434475 
1584.549381  	78.543119 
1585.513806  	78.639288 
1586.478230  	78.638758 
1587.442655  	78.646428 
1588.407079  	78.530850 
1589.371503  	78.298069 
1590.335928  	78.024369 
1591.300352  	77.843203 
1592.264777  	77.557406 
1593.229201  	77.238553 
1594.193626  	76.624293 
1595.158050  	76.159549 
1596.122475  	75.710336 
1597.086899  	75.252294 
1598.051324  	74.680169 
1599.015748  	73.995234 
1599.980173  	73.191498 
1600.944597  	72.249029 
1601.909021  	71.199506 
1602.873446  	70.100927 
1603.837870  	69.056777 
1604.802295  	68.197858 
1605.766719  	67.111577 
1606.731144  	65.922615 
1607.695568  	64.835679 
1608.659993  	63.942890 
1609.624417  	62.739628 
1610.588842  	61.948121 
1611.553266  	60.934514 
1612.517690  	59.764790 
1613.482115  	58.468954 
1614.446539  	57.169858 
1615.410964  	55.562701 
1616.375388  	53.687604 
1617.339813  	52.303209 
1618.304237  	51.893536 
1619.268662  	50.932683 
1620.233086  	49.992750 
1621.197511  	48.985416 
1622.161935  	47.892743 
1623.126359  	46.425047 
1624.090784  	46.020478 
1625.055208  	45.772817 
1626.019633  	45.206952 
1626.984057  	44.304003 
1627.948482  	43.542722 
1628.912906  	43.291163 
1629.877331  	43.061074 
1630.841755  	42.751036 
1631.806180  	42.752928 
1632.770604  	42.915179 
1633.735028  	43.059189 
1634.699453  	42.522096 
1635.663877  	43.230739 
1636.628302  	45.253084 
1637.592726  	46.249267 
1638.557151  	48.026827 
1639.521575  	49.302315 
1640.486000  	50.527590 
1641.450424  	51.936134 
1642.414849  	53.238128 
1643.379273  	54.746700 
1644.343697  	55.898061 
1645.308122  	56.337111 
1646.272546  	57.083394 
1647.236971  	58.453423 
1648.201395  	60.181293 
1649.165820  	62.648642 
1650.130244  	64.003569 
1651.094669  	64.734098 
1652.059093  	64.412644 
1653.023518  	63.114320 
1653.987942  	65.832748 
1654.952366  	68.743695 
1655.916791  	70.601974 
1656.881215  	71.731333 
1657.845640  	72.943675 
1658.810064  	74.137923 
1659.774489  	75.166285 
1660.738913  	75.940009 
1661.703338  	76.360310 
1662.667762  	76.826916 
1663.632187  	78.522683 
1664.596611  	79.792334 
1665.561036  	80.728213 
1666.525460  	81.673289 
1667.489884  	82.104945 
1668.454309  	81.662840 
1669.418733  	81.991858 
1670.383158  	83.639626 
1671.347582  	83.986528 
1672.312007  	85.083178 
1673.276431  	86.152267 
1674.240856  	86.209943 
1675.205280  	85.662373 
1676.169705  	86.908150 
1677.134129  	88.028062 
1678.098553  	88.555244 
1679.062978  	88.655554 
1680.027402  	87.997770 
1680.991827  	88.629490 
1681.956251  	89.605325 
1682.920676  	88.961072 
1683.885100  	86.238065 
1684.849525  	86.679292 
1685.813949  	90.110669 
1686.778374  	91.058007 
1687.742798  	90.892314 
1688.707222  	90.687038 
1689.671647  	91.096295 
1690.636071  	91.477766 
1691.600496  	92.181739 
1692.564920  	92.378046 
1693.529345  	92.341307 
1694.493769  	91.894627 
1695.458194  	90.751185 
1696.422618  	90.073346 
1697.387043  	90.921310 
1698.351467  	91.262231 
1699.315891  	90.850540 
1700.280316  	88.580010 
1701.244740  	90.473044 
1702.209165  	91.632788 
1703.173589  	91.917582 
1704.138014  	91.505905 
1705.102438  	91.362724 
1706.066863  	91.323529 
1707.031287  	91.353119 
1707.995712  	92.161509 
1708.960136  	92.482286 
1709.924560  	92.095482 
1710.888985  	92.124485 
1711.853409  	92.540977 
1712.817834  	92.307360 
1713.782258  	91.536435 
1714.746683  	90.594128 
1715.711107  	90.715402 
1716.675532  	90.820018 
1717.639956  	89.510007 
1718.604381  	89.371908 
1719.568805  	91.335509 
1720.533230  	92.131755 
1721.497654  	92.233361 
1722.462078  	92.118602 
1723.426503  	91.781233 
1724.390927  	91.968504 
1725.355352  	92.283162 
1726.319776  	92.259551 
1727.284201  	92.243788 
1728.248625  	92.173526 
1729.213050  	91.540225 
1730.177474  	90.511024 
1731.141899  	91.229383 
1732.106323  	91.411008 
1733.070747  	90.246728 
1734.035172  	88.252307 
1734.999596  	89.751624 
1735.964021  	91.464644 
1736.928445  	91.870542 
1737.892870  	91.853575 
1738.857294  	91.698217 
1739.821719  	91.182279 
1740.786143  	91.953350 
1741.750568  	92.473473 
1742.714992  	91.844882 
1743.679416  	91.124491 
1744.643841  	91.902765 
1745.608265  	92.388708 
1746.572690  	92.200408 
1747.537114  	91.826400 
1748.501539  	91.547781 
1749.465963  	91.719761 
1750.430388  	91.982795 
1751.394812  	91.256521 
1752.359237  	92.371943 
1753.323661  	93.336933 
1754.288085  	93.753789 
1755.252510  	93.803613 
1756.216934  	93.235589 
1757.181359  	92.704397 
1758.145783  	93.290462 
1759.110208  	93.652257 
1760.074632  	93.834779 
1761.039057  	93.263408 
1762.003481  	92.514943 
1762.967906  	93.411077 
1763.932330  	93.987796 
1764.896754  	94.119783 
1765.861179  	94.208318 
1766.825603  	94.022871 
1767.790028  	93.210098 
1768.754452  	93.011968 
1769.718877  	93.840381 
1770.683301  	93.529148 
1771.647726  	92.619638 
1772.612150  	92.269435 
1773.576575  	93.293778 
1774.540999  	93.782312 
1775.505423  	93.484876 
1776.469848  	93.793944 
1777.434272  	94.349506 
1778.398697  	94.168909 
1779.363121  	93.905125 
1780.327546  	93.449956 
1781.291970  	93.422355 
1782.256395  	94.038927 
1783.220819  	94.338123 
1784.185244  	94.000317 
1785.149668  	93.543610 
1786.114093  	94.063258 
1787.078517  	94.398336 
1788.042941  	94.362439 
1789.007366  	94.313565 
1789.971790  	94.010938 
1790.936215  	93.222597 
1791.900639  	92.816454 
1792.865064  	92.793880 
1793.829488  	93.632928 
1794.793913  	93.959456 
1795.758337  	93.413265 
1796.722762  	93.533280 
1797.687186  	94.213758 
1798.651610  	94.211035 
1799.616035  	93.670114 
1800.580459  	93.643956 
1801.544884  	93.427540 
1802.509308  	93.305136 
1803.473733  	94.014405 
1804.438157  	94.421477 
1805.402582  	94.400497 
1806.367006  	94.378687 
1807.331431  	94.148976 
1808.295855  	94.098085 
1809.260279  	94.333696 
1810.224704  	93.894298 
1811.189128  	93.573492 
1812.153553  	93.938812 
1813.117977  	94.247559 
1814.082402  	94.547879 
1815.046826  	94.547843 
1816.011251  	94.581801 
1816.975675  	94.343186 
1817.940100  	94.192562 
1818.904524  	94.447479 
1819.868948  	94.554024 
1820.833373  	94.472887 
1821.797797  	94.451754 
1822.762222  	94.247546 
1823.726646  	94.210301 
1824.691071  	93.636985 
1825.655495  	93.107577 
1826.619920  	94.027997 
1827.584344  	94.385395 
1828.548769  	93.938363 
1829.513193  	92.915112 
1830.477617  	93.003996 
1831.442042  	94.092124 
1832.406466  	94.332775 
1833.370891  	94.236194 
1834.335315  	94.420099 
1835.299740  	94.570440 
1836.264164  	94.357271 
1837.228589  	93.927274 
1838.193013  	94.099410 
1839.157438  	94.442965 
1840.121862  	94.490588 
1841.086287  	94.451508 
1842.050711  	94.137103 
1843.015135  	93.806552 
1843.979560  	93.094276 
1844.943984  	93.093369 
1845.908409  	93.822979 
1846.872833  	94.003778 
1847.837258  	93.604704 
1848.801682  	93.852219 
1849.766107  	94.319794 
1850.730531  	94.544952 
1851.694956  	94.543575 
1852.659380  	94.479043 
1853.623804  	94.488519 
1854.588229  	94.491254 
1855.552653  	94.490991 
1856.517078  	94.488890 
1857.481502  	94.435723 
1858.445927  	94.306666 
1859.410351  	94.240812 
1860.374776  	94.335631 
1861.339200  	94.251551 
1862.303625  	94.296696 
1863.268049  	94.420352 
1864.232473  	94.474053 
1865.196898  	94.491619 
1866.161322  	94.190259 
1867.125747  	93.777371 
1868.090171  	93.266535 
1869.054596  	92.839207 
1870.019020  	93.253608 
1870.983445  	93.877431 
1871.947869  	94.348983 
1872.912294  	94.547749 
1873.876718  	94.549970 
1874.841142  	94.464865 
1875.805567  	94.453462 
1876.769991  	94.431090 
1877.734416  	94.481071 
1878.698840  	94.441418 
1879.663265  	94.297627 
1880.627689  	94.378110 
1881.592114  	94.469261 
1882.556538  	94.438372 
1883.520963  	94.508165 
1884.485387  	94.449999 
1885.449811  	94.348889 
1886.414236  	94.430560 
1887.378660  	94.441117 
1888.343085  	94.196656 
1889.307509  	93.553122 
1890.271934  	93.615151 
1891.236358  	94.197792 
1892.200783  	94.309693 
1893.165207  	94.342945 
1894.129632  	94.227614 
1895.094056  	93.965069 
1896.058480  	94.135225 
1897.022905  	94.435932 
1897.987329  	94.400424 
1898.951754  	94.385026 
1899.916178  	94.394006 
1900.880603  	94.462684 
1901.845027  	94.418590 
1902.809452  	94.471267 
1903.773876  	94.406533 
1904.738301  	94.389430 
1905.702725  	94.395597 
1906.667150  	94.401635 
1907.631574  	94.141632 
1908.595998  	94.091472 
1909.560423  	94.010190 
1910.524847  	94.020295 
1911.489272  	94.376642 
1912.453696  	94.392976 
1913.418121  	94.236088 
1914.382545  	94.244683 
1915.346970  	94.347551 
1916.311394  	94.424903 
1917.275819  	94.031648 
1918.240243  	93.365917 
1919.204667  	93.967588 
1920.169092  	94.416268 
1921.133516  	94.265316 
1922.097941  	93.758627 
1923.062365  	93.309505 
1924.026790  	94.049314 
1924.991214  	94.543109 
1925.955639  	94.479548 
1926.920063  	94.546610 
1927.884488  	94.555950 
1928.848912  	94.445440 
1929.813336  	94.476288 
1930.777761  	94.539914 
1931.742185  	94.577075 
1932.706610  	94.537699 
1933.671034  	94.574253 
1934.635459  	94.530986 
1935.599883  	94.422789 
1936.564308  	94.418648 
1937.528732  	94.539934 
1938.493157  	94.622433 
1939.457581  	94.743566 
1940.422005  	94.715791 
1941.386430  	94.377703 
1942.350854  	93.537793 
1943.315279  	93.754052 
1944.279703  	94.514950 
1945.244128  	94.543951 
1946.208552  	94.329332 
1947.172977  	94.282643 
1948.137401  	94.460478 
1949.101826  	94.611244 
1950.066250  	94.816836 
1951.030674  	94.865436 
1951.995099  	94.760381 
1952.959523  	94.727736 
1953.923948  	94.516848 
1954.888372  	94.458949 
1955.852797  	94.571937 
1956.817221  	94.926545 
1957.781646  	95.079422 
1958.746070  	95.026289 
1959.710495  	94.939403 
1960.674919  	94.719845 
1961.639344  	94.535152 
1962.603768  	94.426110 
1963.568192  	94.480821 
1964.532617  	94.918059 
1965.497041  	94.918232 
1966.461466  	94.581472 
1967.425890  	94.341161 
1968.390315  	94.808179 
1969.354739  	94.785917 
1970.319164  	94.639294 
1971.283588  	94.563334 
1972.248013  	94.607177 
1973.212437  	94.759985 
1974.176861  	94.732061 
1975.141286  	94.508028 
1976.105710  	94.852566 
1977.070135  	95.113099 
1978.034559  	95.047254 
1978.998984  	94.597348 
1979.963408  	94.222583 
1980.927833  	94.203751 
1981.892257  	94.312731 
1982.856682  	94.232130 
1983.821106  	94.516239 
1984.785530  	94.618392 
1985.749955  	94.501242 
1986.714379  	94.424510 
1987.678804  	94.156243 
1988.643228  	93.958148 
1989.607653  	94.438533 
1990.572077  	94.449951 
1991.536502  	93.979534 
1992.500926  	93.628511 
1993.465351  	93.757199 
1994.429775  	94.163686 
1995.394199  	94.598631 
1996.358624  	94.499432 
1997.323048  	94.266270 
1998.287473  	94.101047 
1999.251897  	94.251847 
2000.216322  	94.641059 
2001.180746  	95.005740 
2002.145171  	95.039776 
2003.109595  	95.063359 
2004.074020  	95.025498 
2005.038444  	95.016962 
2006.002868  	95.067745 
2006.967293  	95.130475 
2007.931717  	94.715542 
2008.896142  	94.422663 
2009.860566  	94.518770 
2010.824991  	94.596604 
2011.789415  	94.405637 
2012.753840  	94.656806 
2013.718264  	94.540253 
2014.682689  	94.294457 
2015.647113  	94.431966 
2016.611537  	94.316967 
2017.575962  	94.183186 
2018.540386  	94.274068 
2019.504811  	94.378959 
2020.469235  	94.668171 
2021.433660  	94.793964 
2022.398084  	94.743339 
2023.362509  	94.678621 
2024.326933  	94.859002 
2025.291358  	94.634337 
2026.255782  	94.452517 
2027.220207  	94.239341 
2028.184631  	94.221973 
2029.149055  	94.744301 
2030.113480  	95.094106 
2031.077904  	95.003029 
2032.042329  	94.764023 
2033.006753  	94.642775 
2033.971178  	94.806105 
2034.935602  	94.843500 
2035.900027  	94.928835 
2036.864451  	94.808579 
2037.828876  	94.612781 
2038.793300  	94.498808 
2039.757724  	94.324460 
2040.722149  	94.243319 
2041.686573  	94.147886 
2042.650998  	93.986875 
2043.615422  	93.980466 
2044.579847  	94.278268 
2045.544271  	94.580418 
2046.508696  	94.688874 
2047.473120  	94.820008 
2048.437545  	94.849715 
2049.401969  	94.560218 
2050.366393  	94.023838 
2051.330818  	94.053620 
2052.295242  	94.442634 
2053.259667  	94.771735 
2054.224091  	94.484922 
2055.188516  	93.960619 
2056.152940  	94.066536 
2057.117365  	94.154251 
2058.081789  	94.119874 
2059.046214  	94.322009 
2060.010638  	94.254656 
2060.975062  	94.148851 
2061.939487  	94.277352 
2062.903911  	94.199904 
2063.868336  	93.996956 
2064.832760  	93.980810 
2065.797185  	94.124283 
2066.761609  	94.258090 
2067.726034  	94.267645 
2068.690458  	94.415679 
2069.654883  	94.422133 
2070.619307  	94.302464 
2071.583731  	94.220274 
2072.548156  	94.182785 
2073.512580  	94.026590 
2074.477005  	94.061031 
2075.441429  	94.264296 
2076.405854  	94.250118 
2077.370278  	94.150044 
2078.334703  	94.218642 
2079.299127  	94.179626 
2080.263552  	94.104851 
2081.227976  	94.088146 
2082.192401  	94.177277 
2083.156825  	94.095698 
2084.121249  	94.059995 
2085.085674  	94.170897 
2086.050098  	94.260281 
2087.014523  	94.225854 
2087.978947  	94.278202 
2088.943372  	94.303052 
2089.907796  	94.175173 
2090.872221  	94.205096 
2091.836645  	94.547787 
2092.801070  	94.587955 
2093.765494  	94.516749 
2094.729918  	94.444019 
2095.694343  	94.298373 
2096.658767  	94.127816 
2097.623192  	94.216342 
2098.587616  	94.189776 
2099.552041  	94.245023 
2100.516465  	94.263153 
2101.480890  	94.238944 
2102.445314  	94.154949 
2103.409739  	94.128959 
2104.374163  	94.143419 
2105.338587  	94.183598 
2106.303012  	94.166837 
2107.267436  	94.096709 
2108.231861  	94.023445 
2109.196285  	94.106039 
2110.160710  	94.216404 
2111.125134  	94.311585 
2112.089559  	94.169367 
2113.053983  	94.157653 
2114.018408  	94.209231 
2114.982832  	94.192201 
2115.947256  	94.018047 
2116.911681  	94.106311 
2117.876105  	94.328867 
2118.840530  	94.494900 
2119.804954  	94.511548 
2120.769379  	94.399210 
2121.733803  	94.266444 
2122.698228  	94.400124 
2123.662652  	94.393557 
2124.627077  	94.368809 
2125.591501  	94.496914 
2126.555925  	94.675814 
2127.520350  	94.532015 
2128.484774  	94.407753 
2129.449199  	94.552959 
2130.413623  	94.722075 
2131.378048  	94.679971 
2132.342472  	94.882465 
2133.306897  	94.895874 
2134.271321  	94.607543 
2135.235746  	94.405621 
2136.200170  	94.422905 
2137.164594  	94.601459 
2138.129019  	94.743677 
2139.093443  	94.706880 
2140.057868  	94.802520 
2141.022292  	94.655571 
2141.986717  	94.518244 
2142.951141  	94.554538 
2143.915566  	94.883477 
2144.879990  	94.901260 
2145.844415  	94.776978 
2146.808839  	94.720178 
2147.773264  	94.882523 
2148.737688  	94.945580 
2149.702112  	94.881289 
2150.666537  	94.807209 
2151.630961  	94.781808 
2152.595386  	94.766787 
2153.559810  	94.945336 
2154.524235  	95.126554 
2155.488659  	95.323113 
2156.453084  	95.515171 
2157.417508  	95.377283 
2158.381933  	95.102684 
2159.346357  	94.732158 
2160.310781  	94.204210 
2161.275206  	93.591266 
2162.239630  	93.866859 
2163.204055  	94.600223 
2164.168479  	94.745698 
2165.132904  	94.279412 
2166.097328  	93.915268 
2167.061753  	94.245490 
2168.026177  	94.374205 
2168.990602  	94.336043 
2169.955026  	94.373381 
2170.919450  	94.657341 
2171.883875  	94.449429 
2172.848299  	94.299441 
2173.812724  	94.313413 
2174.777148  	94.734808 
2175.741573  	94.561166 
2176.705997  	93.993874 
2177.670422  	93.974659 
2178.634846  	94.383346 
2179.599271  	94.494597 
2180.563695  	94.603725 
2181.528119  	94.735546 
2182.492544  	94.647422 
2183.456968  	94.161905 
2184.421393  	93.896525 
2185.385817  	94.263739 
2186.350242  	94.440686 
2187.314666  	94.156152 
2188.279091  	94.162163 
2189.243515  	94.281350 
2190.207940  	94.427879 
2191.172364  	94.446759 
2192.136788  	94.317975 
2193.101213  	94.245863 
2194.065637  	94.228830 
2195.030062  	94.123173 
2195.994486  	93.936692 
2196.958911  	94.046253 
2197.923335  	94.242100 
2198.887760  	94.083336 
2199.852184  	94.216568 
2200.816609  	94.180417 
2201.781033  	94.284025 
2202.745458  	94.430647 
2203.709882  	94.373755 
2204.674306  	94.291322 
2205.638731  	94.159794 
2206.603155  	94.065515 
2207.567580  	94.071070 
2208.532004  	94.017593 
2209.496429  	94.082630 
2210.460853  	94.168327 
2211.425278  	94.187672 
2212.389702  	94.057989 
2213.354127  	93.990662 
2214.318551  	94.098446 
2215.282975  	94.179104 
2216.247400  	94.195287 
2217.211824  	94.304833 
2218.176249  	94.310670 
2219.140673  	94.246348 
2220.105098  	94.135016 
2221.069522  	94.149850 
2222.033947  	94.225751 
2222.998371  	94.298398 
2223.962796  	94.294532 
2224.927220  	94.359646 
2225.891644  	94.225868 
2226.856069  	94.122789 
2227.820493  	94.104084 
2228.784918  	94.225582 
2229.749342  	94.274387 
2230.713767  	94.387025 
2231.678191  	94.275860 
2232.642616  	94.243155 
2233.607040  	94.336697 
2234.571465  	94.311816 
2235.535889  	94.172125 
2236.500313  	94.101473 
2237.464738  	94.096556 
2238.429162  	94.140620 
2239.393587  	94.057170 
2240.358011  	94.124355 
2241.322436  	94.366432 
2242.286860  	94.258166 
2243.251285  	94.119676 
2244.215709  	94.122011 
2245.180134  	94.092172 
2246.144558  	94.095235 
2247.108982  	94.203311 
2248.073407  	94.200187 
2249.037831  	94.103134 
2250.002256  	94.147565 
2250.966680  	94.210512 
2251.931105  	94.316828 
2252.895529  	94.296269 
2253.859954  	94.262031 
2254.824378  	94.144650 
2255.788803  	94.121212 
2256.753227  	94.171449 
2257.717651  	94.245385 
2258.682076  	94.163484 
2259.646500  	94.123136 
2260.610925  	94.022108 
2261.575349  	94.063971 
2262.539774  	94.139464 
2263.504198  	94.201648 
2264.468623  	94.165876 
2265.433047  	94.175588 
2266.397472  	94.180857 
2267.361896  	94.143058 
2268.326321  	94.164382 
2269.290745  	94.149848 
2270.255169  	94.166297 
2271.219594  	94.254402 
2272.184018  	94.205489 
2273.148443  	94.133780 
2274.112867  	94.069135 
2275.077292  	94.040922 
2276.041716  	93.975955 
2277.006141  	94.073280 
2277.970565  	94.165308 
2278.934990  	94.143414 
2279.899414  	94.018957 
2280.863838  	93.939355 
2281.828263  	93.899327 
2282.792687  	93.873147 
2283.757112  	93.835824 
2284.721536  	93.851796 
2285.685961  	93.884423 
2286.650385  	93.927391 
2287.614810  	93.883175 
2288.579234  	93.815637 
2289.543659  	93.770851 
2290.508083  	93.883323 
2291.472507  	93.862098 
2292.436932  	93.922302 
2293.401356  	93.971837 
2294.365781  	93.943311 
2295.330205  	93.921262 
2296.294630  	93.868307 
2297.259054  	93.851624 
2298.223479  	93.859025 
2299.187903  	93.874050 
2300.152328  	93.890006 
2301.116752  	93.843933 
2302.081176  	93.853975 
2303.045601  	93.763884 
2304.010025  	93.845554 
2304.974450  	93.813655 
2305.938874  	93.832860 
2306.903299  	93.756529 
2307.867723  	93.833009 
2308.832148  	93.743837 
2309.796572  	93.810905 
2310.760997  	93.783747 
2311.725421  	93.805317 
2312.689845  	93.861158 
2313.654270  	93.918024 
2314.618694  	93.865409 
2315.583119  	94.041296 
2316.547543  	94.082829 
2317.511968  	94.143164 
2318.476392  	94.182783 
2319.440817  	94.265646 
2320.405241  	94.213655 
2321.369666  	94.296611 
2322.334090  	94.290428 
2323.298515  	94.257174 
2324.262939  	94.272673 
2325.227363  	94.648125 
2326.191788  	94.879593 
2327.156212  	95.082845 
2328.120637  	95.205189 
2329.085061  	95.233338 
2330.049486  	95.241106 
2331.013910  	95.302984 
2331.978335  	95.446083 
2332.942759  	95.580664 
2333.907184  	95.707619 
2334.871608  	95.832434 
2335.836032  	95.991754 
2336.800457  	96.103631 
2337.764881  	96.054758 
2338.729306  	95.988667 
2339.693730  	95.923757 
2340.658155  	95.976384 
2341.622579  	96.104838 
2342.587004  	96.094627 
2343.551428  	95.911108 
2344.515853  	95.717375 
2345.480277  	95.550940 
2346.444701  	95.276864 
2347.409126  	94.966400 
2348.373550  	94.635941 
2349.337975  	94.490604 
2350.302399  	94.819549 
2351.266824  	95.294064 
2352.231248  	95.714996 
2353.195673  	95.856725 
2354.160097  	95.997371 
2355.124522  	96.252035 
2356.088946  	96.538831 
2357.053370  	96.608068 
2358.017795  	96.699746 
2358.982219  	96.756417 
2359.946644  	97.089277 
2360.911068  	97.175867 
2361.875493  	96.886190 
2362.839917  	96.688102 
2363.804342  	96.681005 
2364.768766  	96.598949 
2365.733191  	96.559190 
2366.697615  	96.408561 
2367.662039  	96.209324 
2368.626464  	95.938936 
2369.590888  	95.656960 
2370.555313  	95.389801 
2371.519737  	95.196588 
2372.484162  	95.027661 
2373.448586  	94.844390 
2374.413011  	94.685678 
2375.377435  	94.591278 
2376.341860  	94.425118 
2377.306284  	94.253345 
2378.270708  	94.116694 
2379.235133  	93.951131 
2380.199557  	93.949772 
2381.163982  	94.010271 
2382.128406  	94.015120 
2383.092831  	94.017951 
2384.057255  	93.984644 
2385.021680  	94.044993 
2385.986104  	94.107762 
2386.950529  	94.131934 
2387.914953  	94.152613 
2388.879378  	94.166116 
2389.843802  	94.233358 
2390.808226  	94.224438 
2391.772651  	94.165936 
2392.737075  	94.194347 
2393.701500  	94.243166 
2394.665924  	94.278844 
2395.630349  	94.275145 
2396.594773  	94.256829 
2397.559198  	94.197950 
2398.523622  	94.210354 
2399.488047  	94.292816 
2400.452471  	94.266264 
2401.416895  	94.205740 
2402.381320  	94.221668 
2403.345744  	94.249500 
2404.310169  	94.224872 
2405.274593  	94.174438 
2406.239018  	94.165428 
2407.203442  	94.207788 
2408.167867  	94.252067 
2409.132291  	94.205599 
2410.096716  	94.104308 
2411.061140  	94.096610 
2412.025564  	94.118909 
2412.989989  	94.071371 
2413.954413  	94.076755 
2414.918838  	94.144552 
2415.883262  	94.163523 
2416.847687  	94.141411 
2417.812111  	94.155807 
2418.776536  	94.144886 
2419.740960  	94.156124 
2420.705385  	94.197437 
2421.669809  	94.133289 
2422.634233  	94.091882 
2423.598658  	94.059801 
2424.563082  	94.103474 
2425.527507  	94.171744 
2426.491931  	94.155941 
2427.456356  	94.085659 
2428.420780  	94.116444 
2429.385205  	94.184245 
2430.349629  	94.165591 
2431.314054  	94.093936 
2432.278478  	94.066844 
2433.242902  	94.082896 
2434.207327  	94.073510 
2435.171751  	94.097039 
2436.136176  	94.154193 
2437.100600  	94.185000 
2438.065025  	94.124169 
2439.029449  	94.151970 
2439.993874  	94.146554 
2440.958298  	94.124150 
2441.922723  	94.109196 
2442.887147  	94.066595 
2443.851572  	94.076102 
2444.815996  	94.106884 
2445.780420  	94.123939 
2446.744845  	94.111259 
2447.709269  	94.067743 
2448.673694  	94.096028 
2449.638118  	94.072868 
2450.602543  	94.017254 
2451.566967  	94.006161 
2452.531392  	94.038241 
2453.495816  	94.000685 
2454.460241  	93.970792 
2455.424665  	93.981759 
2456.389089  	93.966898 
2457.353514  	93.931280 
2458.317938  	93.958233 
2459.282363  	93.996711 
2460.246787  	94.015963 
2461.211212  	94.005511 
2462.175636  	94.050984 
2463.140061  	94.082947 
2464.104485  	94.067249 
2465.068910  	94.034300 
2466.033334  	94.027715 
2466.997758  	94.029927 
2467.962183  	94.011137 
2468.926607  	93.992781 
2469.891032  	94.007049 
2470.855456  	94.033761 
2471.819881  	94.062504 
2472.784305  	94.108421 
2473.748730  	94.124736 
2474.713154  	94.082231 
2475.677579  	94.017891 
2476.642003  	93.940944 
2477.606427  	93.951966 
2478.570852  	94.014225 
2479.535276  	94.049938 
2480.499701  	94.042962 
2481.464125  	94.051671 
2482.428550  	94.082267 
2483.392974  	94.104840 
2484.357399  	94.139198 
2485.321823  	94.067606 
2486.286248  	93.959062 
2487.250672  	93.971581 
2488.215096  	94.031565 
2489.179521  	94.021218 
2490.143945  	93.987895 
2491.108370  	93.948710 
2492.072794  	93.950781 
2493.037219  	93.990302 
2494.001643  	93.978203 
2494.966068  	93.992381 
2495.930492  	94.046902 
2496.894917  	94.021142 
2497.859341  	93.980206 
2498.823765  	93.967928 
2499.788190  	93.945883 
2500.752614  	93.981085 
2501.717039  	93.975044 
2502.681463  	93.949430 
2503.645888  	93.960044 
2504.610312  	93.935546 
2505.574737  	93.937943 
2506.539161  	93.984567 
2507.503586  	93.993551 
2508.468010  	93.973809 
2509.432435  	93.929040 
2510.396859  	93.916416 
2511.361283  	93.927852 
2512.325708  	93.926093 
2513.290132  	93.962733 
2514.254557  	94.017451 
2515.218981  	93.968471 
2516.183406  	93.946469 
2517.147830  	93.958385 
2518.112255  	93.926920 
2519.076679  	93.896918 
2520.041104  	93.920887 
2521.005528  	93.954097 
2521.969952  	93.877081 
2522.934377  	93.805474 
2523.898801  	93.916497 
2524.863226  	93.977069 
2525.827650  	93.968147 
2526.792075  	93.938151 
2527.756499  	93.906902 
2528.720924  	93.899835 
2529.685348  	93.866936 
2530.649773  	93.858472 
2531.614197  	93.898557 
2532.578621  	93.928769 
2533.543046  	93.949574 
2534.507470  	93.954171 
2535.471895  	93.944169 
2536.436319  	93.911189 
2537.400744  	93.896490 
2538.365168  	93.857994 
2539.329593  	93.854547 
2540.294017  	93.798173 
2541.258442  	93.820375 
2542.222866  	93.873496 
2543.187290  	93.891574 
2544.151715  	93.913811 
2545.116139  	93.915229 
2546.080564  	93.857236 
2547.044988  	93.766643 
2548.009413  	93.678108 
2548.973837  	93.707044 
2549.938262  	93.729482 
2550.902686  	93.791601 
2551.867111  	93.863297 
2552.831535  	93.805377 
2553.795959  	93.723989 
2554.760384  	93.757784 
2555.724808  	93.742785 
2556.689233  	93.751769 
2557.653657  	93.775899 
2558.618082  	93.751394 
2559.582506  	93.772186 
2560.546931  	93.737925 
2561.511355  	93.729837 
2562.475780  	93.756277 
2563.440204  	93.687952 
2564.404629  	93.697537 
2565.369053  	93.732345 
2566.333477  	93.769300 
2567.297902  	93.820501 
2568.262326  	93.808660 
2569.226751  	93.677854 
2570.191175  	93.627017 
2571.155600  	93.659728 
2572.120024  	93.665788 
2573.084449  	93.684549 
2574.048873  	93.627575 
2575.013298  	93.535274 
2575.977722  	93.561667 
2576.942146  	93.630769 
2577.906571  	93.595297 
2578.870995  	93.603442 
2579.835420  	93.619790 
2580.799844  	93.576176 
2581.764269  	93.536521 
2582.728693  	93.592604 
2583.693118  	93.611079 
2584.657542  	93.537325 
2585.621967  	93.513823 
2586.586391  	93.481509 
2587.550815  	93.508139 
2588.515240  	93.545052 
2589.479664  	93.517211 
2590.444089  	93.481422 
2591.408513  	93.521911 
2592.372938  	93.576377 
2593.337362  	93.571936 
2594.301787  	93.524977 
2595.266211  	93.472439 
2596.230636  	93.471121 
2597.195060  	93.531721 
2598.159484  	93.550136 
2599.123909  	93.542294 
2600.088333  	93.523301 
2601.052758  	93.499673 
2602.017182  	93.482886 
2602.981607  	93.459772 
2603.946031  	93.473164 
2604.910456  	93.504217 
2605.874880  	93.482937 
2606.839305  	93.484338 
2607.803729  	93.507901 
2608.768153  	93.535207 
2609.732578  	93.514574 
2610.697002  	93.479431 
2611.661427  	93.468632 
2612.625851  	93.467651 
2613.590276  	93.493965 
2614.554700  	93.491815 
2615.519125  	93.455541 
2616.483549  	93.454614 
2617.447974  	93.427597 
2618.412398  	93.435679 
2619.376822  	93.461995 
2620.341247  	93.479256 
2621.305671  	93.464496 
2622.270096  	93.460140 
2623.234520  	93.472129 
2624.198945  	93.474152 
2625.163369  	93.479718 
2626.127794  	93.454944 
2627.092218  	93.464912 
2628.056643  	93.452958 
2629.021067  	93.412389 
2629.985492  	93.439891 
2630.949916  	93.469720 
2631.914340  	93.453909 
2632.878765  	93.423009 
2633.843189  	93.450448 
2634.807614  	93.449895 
2635.772038  	93.422146 
2636.736463  	93.395806 
2637.700887  	93.405947 
2638.665312  	93.430211 
2639.629736  	93.424499 
2640.594161  	93.420718 
2641.558585  	93.440471 
2642.523009  	93.397991 
2643.487434  	93.392760 
2644.451858  	93.398297 
2645.416283  	93.343722 
2646.380707  	93.324290 
2647.345132  	93.359693 
2648.309556  	93.384109 
2649.273981  	93.376014 
2650.238405  	93.385895 
2651.202830  	93.400896 
2652.167254  	93.363352 
2653.131678  	93.349052 
2654.096103  	93.352099 
2655.060527  	93.346727 
2656.024952  	93.316619 
2656.989376  	93.294069 
2657.953801  	93.296714 
2658.918225  	93.335959 
2659.882650  	93.357524 
2660.847074  	93.355386 
2661.811499  	93.365303 
2662.775923  	93.370741 
2663.740347  	93.395587 
2664.704772  	93.405307 
2665.669196  	93.420186 
2666.633621  	93.418306 
2667.598045  	93.396053 
2668.562470  	93.388828 
2669.526894  	93.378694 
2670.491319  	93.366213 
2671.455743  	93.392694 
2672.420168  	93.410961 
2673.384592  	93.401334 
2674.349016  	93.389574 
2675.313441  	93.394891 
2676.277865  	93.416481 
2677.242290  	93.396765 
2678.206714  	93.358313 
2679.171139  	93.325025 
2680.135563  	93.332212 
2681.099988  	93.363757 
2682.064412  	93.361168 
2683.028837  	93.338585 
2683.993261  	93.312782 
2684.957686  	93.303953 
2685.922110  	93.317478 
2686.886534  	93.282306 
2687.850959  	93.250742 
2688.815383  	93.257024 
2689.779808  	93.257296 
2690.744232  	93.251068 
2691.708657  	93.259405 
2692.673081  	93.268811 
2693.637506  	93.268233 
2694.601930  	93.269275 
2695.566355  	93.287540 
2696.530779  	93.287216 
2697.495203  	93.263930 
2698.459628  	93.255415 
2699.424052  	93.249370 
2700.388477  	93.205287 
2701.352901  	93.176535 
2702.317326  	93.211901 
2703.281750  	93.272273 
2704.246175  	93.271883 
2705.210599  	93.222793 
2706.175024  	93.190626 
2707.139448  	93.192035 
2708.103872  	93.207246 
2709.068297  	93.221007 
2710.032721  	93.192415 
2710.997146  	93.172661 
2711.961570  	93.156383 
2712.925995  	93.161437 
2713.890419  	93.155578 
2714.854844  	93.149133 
2715.819268  	93.160257 
2716.783693  	93.156220 
2717.748117  	93.126920 
2718.712541  	93.114378 
2719.676966  	93.108465 
2720.641390  	93.086680 
2721.605815  	93.064053 
2722.570239  	93.061839 
2723.534664  	93.053689 
2724.499088  	93.007873 
2725.463513  	92.987910 
2726.427937  	92.972662 
2727.392362  	92.956336 
2728.356786  	92.938470 
2729.321210  	92.900442 
2730.285635  	92.893511 
2731.250059  	92.882187 
2732.214484  	92.857511 
2733.178908  	92.836617 
2734.143333  	92.837945 
2735.107757  	92.820405 
2736.072182  	92.801816 
2737.036606  	92.783158 
2738.001031  	92.755172 
2738.965455  	92.718729 
2739.929879  	92.728301 
2740.894304  	92.718556 
2741.858728  	92.699359 
2742.823153  	92.663809 
2743.787577  	92.651416 
2744.752002  	92.670053 
2745.716426  	92.651756 
2746.680851  	92.631069 
2747.645275  	92.635890 
2748.609700  	92.611803 
2749.574124  	92.615607 
2750.538549  	92.613407 
2751.502973  	92.554629 
2752.467397  	92.552924 
2753.431822  	92.589002 
2754.396246  	92.598119 
2755.360671  	92.579035 
2756.325095  	92.571860 
2757.289520  	92.551221 
2758.253944  	92.521780 
2759.218369  	92.511789 
2760.182793  	92.492137 
2761.147218  	92.468882 
2762.111642  	92.472410 
2763.076066  	92.464055 
2764.040491  	92.467297 
2765.004915  	92.478103 
2765.969340  	92.447976 
2766.933764  	92.428822 
2767.898189  	92.407954 
2768.862613  	92.418549 
2769.827038  	92.418386 
2770.791462  	92.401820 
2771.755887  	92.364915 
2772.720311  	92.342982 
2773.684735  	92.332266 
2774.649160  	92.314472 
2775.613584  	92.319575 
2776.578009  	92.338463 
2777.542433  	92.321304 
2778.506858  	92.301233 
2779.471282  	92.300660 
2780.435707  	92.273535 
2781.400131  	92.229207 
2782.364556  	92.222012 
2783.328980  	92.237853 
2784.293404  	92.233107 
2785.257829  	92.208131 
2786.222253  	92.188552 
2787.186678  	92.140216 
2788.151102  	92.082392 
2789.115527  	92.115248 
2790.079951  	92.097673 
2791.044376  	92.053444 
2792.008800  	92.028215 
2792.973225  	91.966428 
2793.937649  	91.933782 
2794.902073  	91.903467 
2795.866498  	91.889796 
2796.830922  	91.878072 
2797.795347  	91.848104 
2798.759771  	91.814394 
2799.724196  	91.757672 
2800.688620  	91.700573 
2801.653045  	91.658136 
2802.617469  	91.630332 
2803.581894  	91.623548 
2804.546318  	91.590514 
2805.510743  	91.539876 
2806.475167  	91.496105 
2807.439591  	91.443786 
2808.404016  	91.365571 
2809.368440  	91.349916 
2810.332865  	91.341518 
2811.297289  	91.249235 
2812.261714  	91.183413 
2813.226138  	91.177681 
2814.190563  	91.133018 
2815.154987  	91.102312 
2816.119412  	91.049199 
2817.083836  	90.947117 
2818.048260  	90.850380 
2819.012685  	90.782812 
2819.977109  	90.750256 
2820.941534  	90.685081 
2821.905958  	90.598304 
2822.870383  	90.513326 
2823.834807  	90.447649 
2824.799232  	90.381672 
2825.763656  	90.352451 
2826.728081  	90.302986 
2827.692505  	90.214799 
2828.656929  	90.175729 
2829.621354  	90.159195 
2830.585778  	90.074498 
2831.550203  	89.958985 
2832.514627  	89.851346 
2833.479052  	89.730787 
2834.443476  	89.619258 
2835.407901  	89.507180 
2836.372325  	89.354027 
2837.336750  	89.143014 
2838.301174  	88.895726 
2839.265598  	88.613956 
2840.230023  	88.308580 
2841.194447  	87.959228 
2842.158872  	87.538621 
2843.123296  	87.026583 
2844.087721  	86.411060 
2845.052145  	85.684578 
2846.016570  	84.851516 
2846.980994  	83.917442 
2847.945419  	82.925979 
2848.909843  	81.901876 
2849.874267  	80.995161 
2850.838692  	80.328992 
2851.803116  	79.846406 
2852.767541  	79.455991 
2853.731965  	79.131792 
2854.696390  	78.826304 
2855.660814  	78.528387 
2856.625239  	78.299886 
2857.589663  	78.134121 
2858.554088  	78.001076 
2859.518512  	77.992383 
2860.482936  	78.069738 
2861.447361  	78.172692 
2862.411785  	78.378122 
2863.376210  	78.687410 
2864.340634  	78.968964 
2865.305059  	79.226456 
2866.269483  	79.504754 
2867.233908  	79.740644 
2868.198332  	79.910388 
2869.162757  	80.063289 
2870.127181  	80.210573 
2871.091606  	80.311744 
2872.056030  	80.413879 
2873.020454  	80.585906 
2873.984879  	80.780756 
2874.949303  	80.984298 
2875.913728  	81.272587 
2876.878152  	81.644861 
2877.842577  	82.026104 
2878.807001  	82.420978 
2879.771426  	82.854587 
2880.735850  	83.233864 
2881.700275  	83.573974 
2882.664699  	83.914092 
2883.629123  	84.235035 
2884.593548  	84.518424 
2885.557972  	84.718606 
2886.522397  	84.826438 
2887.486821  	84.918669 
2888.451246  	84.983925 
2889.415670  	84.990628 
2890.380095  	84.906385 
2891.344519  	84.804607 
2892.308944  	84.671161 
2893.273368  	84.479828 
2894.237792  	84.281848 
2895.202217  	84.019181 
2896.166641  	83.759982 
2897.131066  	83.471436 
2898.095490  	83.165707 
2899.059915  	82.865132 
2900.024339  	82.480976 
2900.988764  	82.086507 
2901.953188  	81.727192 
2902.917613  	81.343123 
2903.882037  	80.954319 
2904.846461  	80.561762 
2905.810886  	80.168930 
2906.775310  	79.788364 
2907.739735  	79.397154 
2908.704159  	78.990396 
2909.668584  	78.606406 
2910.633008  	78.180748 
2911.597433  	77.759290 
2912.561857  	77.269646 
2913.526282  	76.668286 
2914.490706  	76.034600 
2915.455130  	75.438360 
2916.419555  	74.911555 
2917.383979  	74.436392 
2918.348404  	74.005721 
2919.312828  	73.708028 
2920.277253  	73.443101 
2921.241677  	73.138266 
2922.206102  	72.868783 
2923.170526  	72.629146 
2924.134951  	72.405915 
2925.099375  	72.179289 
2926.063800  	71.935166 
2927.028224  	71.697590 
2927.992648  	71.439505 
2928.957073  	71.199127 
2929.921497  	70.968653 
2930.885922  	70.775179 
2931.850346  	70.675327 
2932.814771  	70.668497 
2933.779195  	70.726598 
2934.743620  	70.892536 
2935.708044  	71.143360 
2936.672469  	71.481277 
2937.636893  	71.929763 
2938.601317  	72.457243 
2939.565742  	73.013101 
2940.530166  	73.630969 
2941.494591  	74.256223 
2942.459015  	74.860427 
2943.423440  	75.363039 
2944.387864  	75.837839 
2945.352289  	76.320106 
2946.316713  	76.915242 
2947.281138  	77.637523 
2948.245562  	78.402177 
2949.209986  	79.137522 
2950.174411  	79.862703 
2951.138835  	80.636460 
2952.103260  	81.385040 
2953.067684  	82.034243 
2954.032109  	82.646704 
2954.996533  	83.240687 
2955.960958  	83.855212 
2956.925382  	84.429573 
2957.889807  	84.913368 
2958.854231  	85.358962 
2959.818655  	85.762047 
2960.783080  	86.105873 
2961.747504  	86.450098 
2962.711929  	86.809099 
2963.676353  	87.108490 
2964.640778  	87.377188 
2965.605202  	87.629400 
2966.569627  	87.895897 
2967.534051  	88.234430 
2968.498476  	88.588417 
2969.462900  	88.848013 
2970.427324  	89.078842 
2971.391749  	89.337579 
2972.356173  	89.609003 
2973.320598  	89.881390 
2974.285022  	90.105438 
2975.249447  	90.254131 
2976.213871  	90.433031 
2977.178296  	90.652826 
2978.142720  	90.831411 
2979.107145  	90.999776 
2980.071569  	91.167729 
2981.035993  	91.308295 
2982.000418  	91.450255 
2982.964842  	91.558713 
2983.929267  	91.617628 
2984.893691  	91.715779 
2985.858116  	91.810640 
2986.822540  	91.897046 
2987.786965  	91.987459 
2988.751389  	92.043372 
2989.715814  	92.076446 
2990.680238  	92.150350 
2991.644663  	92.205609 
2992.609087  	92.248701 
2993.573511  	92.275453 
2994.537936  	92.290122 
2995.502360  	92.351854 
2996.466785  	92.387607 
2997.431209  	92.404169 
2998.395634  	92.426376 
2999.360058  	92.433130 
3000.324483  	92.434350 
3001.288907  	92.422003 
3002.253332  	92.434183 
3003.217756  	92.439757 
3004.182180  	92.387968 
3005.146605  	92.365787 
3006.111029  	92.424026 
3007.075454  	92.476184 
3008.039878  	92.460856 
3009.004303  	92.444041 
3009.968727  	92.398557 
3010.933152  	92.355789 
3011.897576  	92.317964 
3012.862001  	92.259405 
3013.826425  	92.321795 
3014.790849  	92.368381 
3015.755274  	92.301277 
3016.719698  	92.281821 
3017.684123  	92.284297 
3018.648547  	92.220233 
3019.612972  	92.139787 
3020.577396  	92.118367 
3021.541821  	92.093735 
3022.506245  	92.059789 
3023.470670  	92.060322 
3024.435094  	92.057110 
3025.399518  	91.977747 
3026.363943  	91.920294 
3027.328367  	91.936498 
3028.292792  	91.920813 
3029.257216  	91.886837 
3030.221641  	91.773555 
3031.186065  	91.601294 
3032.150490  	91.535477 
3033.114914  	91.570959 
3034.079339  	91.497274 
3035.043763  	91.404395 
3036.008187  	91.327113 
3036.972612  	91.266755 
3037.937036  	91.195345 
3038.901461  	91.120413 
3039.865885  	91.045781 
3040.830310  	90.984109 
3041.794734  	90.915311 
3042.759159  	90.859117 
3043.723583  	90.786292 
3044.688008  	90.686101 
3045.652432  	90.583607 
3046.616857  	90.462637 
3047.581281  	90.293942 
3048.545705  	90.113937 
3049.510130  	90.002173 
3050.474554  	89.914140 
3051.438979  	89.820429 
3052.403403  	89.731998 
3053.367828  	89.586899 
3054.332252  	89.454963 
3055.296677  	89.393597 
3056.261101  	89.244659 
3057.225526  	89.133266 
3058.189950  	89.132826 
3059.154374  	89.108346 
3060.118799  	89.056221 
3061.083223  	89.027537 
3062.047648  	89.026505 
3063.012072  	88.958773 
3063.976497  	88.838710 
3064.940921  	88.766501 
3065.905346  	88.853516 
3066.869770  	88.821229 
3067.834195  	88.812697 
3068.798619  	88.813990 
3069.763043  	88.771216 
3070.727468  	88.809083 
3071.691892  	88.847391 
3072.656317  	88.816286 
3073.620741  	88.822573 
3074.585166  	88.848218 
3075.549590  	88.831364 
3076.514015  	88.833269 
3077.478439  	88.858722 
3078.442864  	88.877431 
3079.407288  	88.878682 
3080.371712  	88.893489 
3081.336137  	88.941394 
3082.300561  	88.925530 
3083.264986  	88.960519 
3084.229410  	89.059856 
3085.193835  	89.107952 
3086.158259  	89.175926 
3087.122684  	89.137563 
3088.087108  	89.075260 
3089.051533  	89.142393 
3090.015957  	89.199763 
3090.980381  	89.270262 
3091.944806  	89.357970 
3092.909230  	89.393875 
3093.873655  	89.409270 
3094.838079  	89.465723 
3095.802504  	89.504094 
3096.766928  	89.580737 
3097.731353  	89.674121 
3098.695777  	89.741053 
3099.660202  	89.777175 
3100.624626  	89.822448 
3101.589050  	89.839419 
3102.553475  	89.971496 
3103.517899  	90.088973 
3104.482324  	90.162471 
3105.446748  	90.207173 
3106.411173  	90.230160 
3107.375597  	90.278872 
3108.340022  	90.395026 
3109.304446  	90.483903 
3110.268871  	90.500543 
3111.233295  	90.526021 
3112.197720  	90.578218 
3113.162144  	90.614026 
3114.126568  	90.649633 
3115.090993  	90.683928 
3116.055417  	90.714095 
3117.019842  	90.796526 
3117.984266  	90.855330 
3118.948691  	90.814685 
3119.913115  	90.893238 
3120.877540  	90.988095 
3121.841964  	90.947062 
3122.806389  	90.885900 
3123.770813  	90.945371 
3124.735237  	90.984674 
3125.699662  	90.998251 
3126.664086  	91.008621 
3127.628511  	91.064787 
3128.592935  	91.082518 
3129.557360  	91.069100 
3130.521784  	91.105835 
3131.486209  	91.127708 
3132.450633  	91.075559 
3133.415058  	91.044467 
3134.379482  	91.142478 
3135.343906  	91.171160 
3136.308331  	91.107709 
3137.272755  	91.104040 
3138.237180  	91.135145 
3139.201604  	91.131985 
3140.166029  	91.085260 
3141.130453  	91.130800 
3142.094878  	91.066354 
3143.059302  	90.991686 
3144.023727  	91.013175 
3144.988151  	91.023444 
3145.952575  	90.962064 
3146.917000  	90.897356 
3147.881424  	90.878686 
3148.845849  	90.912458 
3149.810273  	90.853421 
3150.774698  	90.825870 
3151.739122  	90.814398 
3152.703547  	90.753217 
3153.667971  	90.697241 
3154.632396  	90.686349 
3155.596820  	90.638899 
3156.561244  	90.526592 
3157.525669  	90.484330 
3158.490093  	90.464816 
3159.454518  	90.433061 
3160.418942  	90.369888 
3161.383367  	90.313207 
3162.347791  	90.270014 
3163.312216  	90.172042 
3164.276640  	90.122435 
3165.241065  	90.129107 
3166.205489  	90.081891 
3167.169914  	89.974597 
3168.134338  	89.858831 
3169.098762  	89.767610 
3170.063187  	89.665948 
3171.027611  	89.593943 
3171.992036  	89.540705 
3172.956460  	89.463597 
3173.920885  	89.358203 
3174.885309  	89.300594 
3175.849734  	89.242631 
3176.814158  	89.140944 
3177.778583  	89.020161 
3178.743007  	88.956876 
3179.707431  	88.905097 
3180.671856  	88.845098 
3181.636280  	88.854629 
3182.600705  	88.786008 
3183.565129  	88.663468 
3184.529554  	88.568157 
3185.493978  	88.488932 
3186.458403  	88.429710 
3187.422827  	88.376050 
3188.387252  	88.344775 
3189.351676  	88.339559 
3190.316100  	88.295329 
3191.280525  	88.250093 
3192.244949  	88.196992 
3193.209374  	88.125882 
3194.173798  	87.987000 
3195.138223  	87.914345 
3196.102647  	87.873926 
3197.067072  	87.782550 
3198.031496  	87.704002 
3198.995921  	87.782651 
3199.960345  	87.793725 
3200.924769  	87.751766 
3201.889194  	87.725597 
3202.853618  	87.648464 
3203.818043  	87.519791 
3204.782467  	87.466378 
3205.746892  	87.448415 
3206.711316  	87.405416 
3207.675741  	87.352701 
3208.640165  	87.306534 
3209.604590  	87.224510 
3210.569014  	87.164819 
3211.533438  	87.191163 
3212.497863  	87.179721 
3213.462287  	87.042959 
3214.426712  	86.875805 
3215.391136  	86.853977 
3216.355561  	86.860497 
3217.319985  	86.839256 
3218.284410  	86.770407 
3219.248834  	86.669020 
3220.213259  	86.642104 
3221.177683  	86.589942 
3222.142107  	86.461808 
3223.106532  	86.372913 
3224.070956  	86.283584 
3225.035381  	86.130832 
3225.999805  	86.020182 
3226.964230  	85.923184 
3227.928654  	85.798204 
3228.893079  	85.726560 
3229.857503  	85.656625 
3230.821928  	85.470669 
3231.786352  	85.295583 
3232.750777  	85.212664 
3233.715201  	85.127740 
3234.679625  	84.922462 
3235.644050  	84.715993 
3236.608474  	84.534686 
3237.572899  	84.357206 
3238.537323  	84.214396 
3239.501748  	84.028108 
3240.466172  	83.784852 
3241.430597  	83.660961 
3242.395021  	83.504696 
3243.359446  	83.314827 
3244.323870  	83.046781 
3245.288294  	82.777174 
3246.252719  	82.619706 
3247.217143  	82.473414 
3248.181568  	82.239901 
3249.145992  	81.980563 
3250.110417  	81.764680 
3251.074841  	81.542840 
3252.039266  	81.316003 
3253.003690  	81.055133 
3253.968115  	80.727258 
3254.932539  	80.507406 
3255.896963  	80.251369 
3256.861388  	79.954987 
3257.825812  	79.699919 
3258.790237  	79.404562 
3259.754661  	79.118583 
3260.719086  	78.866885 
3261.683510  	78.593947 
3262.647935  	78.305313 
3263.612359  	77.992917 
3264.576784  	77.707151 
3265.541208  	77.366336 
3266.505632  	77.061347 
3267.470057  	76.790354 
3268.434481  	76.485739 
3269.398906  	76.146962 
3270.363330  	75.831859 
3271.327755  	75.524957 
3272.292179  	75.209423 
3273.256604  	74.812628 
3274.221028  	74.503704 
3275.185453  	74.265848 
3276.149877  	73.859410 
3277.114301  	73.443397 
3278.078726  	73.104024 
3279.043150  	72.695917 
3280.007575  	72.287700 
3280.971999  	71.900562 
3281.936424  	71.503637 
3282.900848  	71.093171 
3283.865273  	70.656271 
3284.829697  	70.239688 
3285.794122  	69.863756 
3286.758546  	69.505419 
3287.722971  	69.140211 
3288.687395  	68.781330 
3289.651819  	68.526579 
3290.616244  	68.247622 
3291.580668  	67.954704 
3292.545093  	67.747671 
3293.509517  	67.642580 
3294.473942  	67.519745 
3295.438366  	67.422163 
3296.402791  	67.403945 
3297.367215  	67.442902 
3298.331640  	67.537212 
3299.296064  	67.738243 
3300.260488  	67.964741 
3301.224913  	68.215543 
3302.189337  	68.551222 
3303.153762  	68.958846 
3304.118186  	69.389495 
3305.082611  	69.866958 
3306.047035  	70.373647 
3307.011460  	70.945028 
3307.975884  	71.489819 
3308.940309  	72.040795 
3309.904733  	72.730088 
3310.869157  	73.363688 
3311.833582  	74.014662 
3312.798006  	74.724641 
3313.762431  	75.374622 
3314.726855  	76.048290 
3315.691280  	76.666769 
3316.655704  	77.300773 
3317.620129  	77.929377 
3318.584553  	78.511189 
3319.548978  	79.045792 
3320.513402  	79.608590 
3321.477826  	80.149877 
3322.442251  	80.652578 
3323.406675  	81.111831 
3324.371100  	81.477140 
3325.335524  	81.860808 
3326.299949  	82.317357 
3327.264373  	82.713666 
3328.228798  	83.057706 
3329.193222  	83.348030 
3330.157647  	83.651566 
3331.122071  	83.999841 
3332.086495  	84.373877 
3333.050920  	84.639783 
3334.015344  	84.868354 
3334.979769  	85.042593 
3335.944193  	85.259824 
3336.908618  	85.421192 
3337.873042  	85.673307 
3338.837467  	86.012287 
3339.801891  	86.215797 
3340.766316  	86.436045 
3341.730740  	86.643609 
3342.695164  	86.789090 
3343.659589  	86.967872 
3344.624013  	87.162611 
3345.588438  	87.369291 
3346.552862  	87.546425 
3347.517287  	87.677990 
3348.481711  	87.785662 
3349.446136  	87.921108 
3350.410560  	88.059152 
3351.374985  	88.211710 
3352.339409  	88.353462 
3353.303834  	88.456683 
3354.268258  	88.588696 
3355.232682  	88.660171 
3356.197107  	88.615220 
3357.161531  	88.699820 
3358.125956  	88.820985 
3359.090380  	88.919191 
3360.054805  	88.932328 
3361.019229  	88.992499 
3361.983654  	89.055465 
3362.948078  	89.223114 
3363.912503  	89.330844 
3364.876927  	89.288919 
3365.841351  	89.358152 
3366.805776  	89.493578 
3367.770200  	89.525360 
3368.734625  	89.540366 
3369.699049  	89.627574 
3370.663474  	89.777641 
3371.627898  	89.888302 
3372.592323  	89.929881 
3373.556747  	89.977499 
3374.521172  	90.009445 
3375.485596  	90.008201 
3376.450020  	90.043060 
3377.414445  	90.094258 
3378.378869  	90.159301 
3379.343294  	90.226266 
3380.307718  	90.290986 
3381.272143  	90.377578 
3382.236567  	90.398140 
3383.200992  	90.351600 
3384.165416  	90.282916 
3385.129841  	90.265299 
3386.094265  	90.350093 
3387.058689  	90.479758 
3388.023114  	90.571668 
3388.987538  	90.589552 
3389.951963  	90.558553 
3390.916387  	90.515687 
3391.880812  	90.462090 
3392.845236  	90.346053 
3393.809661  	90.458605 
3394.774085  	90.686751 
3395.738510  	90.733590 
3396.702934  	90.713588 
3397.667358  	90.656370 
3398.631783  	90.746230 
3399.596207  	90.841713 
3400.560632  	90.770266 
3401.525056  	90.709324 
3402.489481  	90.757944 
3403.453905  	90.795035 
3404.418330  	90.852752 
3405.382754  	90.907466 
3406.347179  	90.937844 
3407.311603  	90.933111 
3408.276028  	90.913619 
3409.240452  	90.874167 
3410.204876  	90.855315 
3411.169301  	90.936525 
3412.133725  	91.033838 
3413.098150  	91.075040 
3414.062574  	91.041956 
3415.026999  	91.057722 
3415.991423  	91.052215 
3416.955848  	91.095579 
3417.920272  	91.127326 
3418.884697  	91.127425 
3419.849121  	90.919925 
3420.813545  	90.685306 
3421.777970  	90.786078 
3422.742394  	90.930514 
3423.706819  	91.021354 
3424.671243  	91.100790 
3425.635668  	91.144619 
3426.600092  	91.155417 
3427.564517  	91.191615 
3428.528941  	91.218472 
3429.493366  	91.223488 
3430.457790  	91.146068 
3431.422214  	91.123406 
3432.386639  	91.200043 
3433.351063  	91.234929 
3434.315488  	91.254260 
3435.279912  	91.241045 
3436.244337  	91.227163 
3437.208761  	91.241852 
3438.173186  	91.276726 
3439.137610  	91.255425 
3440.102035  	91.323517 
3441.066459  	91.404893 
3442.030883  	91.330602 
3442.995308  	91.170997 
3443.959732  	91.309342 
3444.924157  	91.338744 
3445.888581  	91.317416 
3446.853006  	90.967701 
3447.817430  	90.684512 
3448.781855  	91.157039 
3449.746279  	91.423615 
3450.710704  	91.456985 
3451.675128  	91.472434 
3452.639552  	91.481241 
3453.603977  	91.509278 
3454.568401  	91.485691 
3455.532826  	91.502340 
3456.497250  	91.541276 
3457.461675  	91.501268 
3458.426099  	91.485485 
3459.390524  	91.508361 
3460.354948  	91.506899 
3461.319373  	91.360224 
3462.283797  	91.310896 
3463.248221  	91.314892 
3464.212646  	91.458019 
3465.177070  	91.584694 
3466.141495  	91.517924 
3467.105919  	91.311054 
3468.070344  	91.436475 
3469.034768  	91.631602 
3469.999193  	91.625329 
3470.963617  	91.625904 
3471.928042  	91.674155 
3472.892466  	91.721726 
3473.856891  	91.676893 
3474.821315  	91.514095 
3475.785739  	91.560771 
3476.750164  	91.707612 
3477.714588  	91.753635 
3478.679013  	91.755230 
3479.643437  	91.712011 
3480.607862  	91.491555 
3481.572286  	91.339264 
3482.536711  	91.199208 
3483.501135  	91.410293 
3484.465560  	91.625252 
3485.429984  	91.663822 
3486.394408  	91.726236 
3487.358833  	91.671748 
3488.323257  	91.455900 
3489.287682  	91.507253 
3490.252106  	91.724473 
3491.216531  	91.760512 
3492.180955  	91.874118 
3493.145380  	91.936503 
3494.109804  	91.984029 
3495.074229  	91.903546 
3496.038653  	91.696620 
3497.003077  	91.626280 
3497.967502  	91.813881 
3498.931926  	91.926839 
3499.896351  	91.816568 
3500.860775  	91.764983 
3501.825200  	91.599827 
3502.789624  	91.264366 
3503.754049  	91.202425 
3504.718473  	91.567528 
3505.682898  	91.849368 
3506.647322  	92.055168 
3507.611746  	92.157032 
3508.576171  	91.869965 
3509.540595  	91.332092 
3510.505020  	91.524147 
3511.469444  	91.924069 
3512.433869  	92.028016 
3513.398293  	92.080720 
3514.362718  	92.171866 
3515.327142  	92.342981 
3516.291567  	92.384102 
3517.255991  	92.306486 
3518.220415  	92.255791 
3519.184840  	92.246491 
3520.149264  	92.338821 
3521.113689  	92.468370 
3522.078113  	92.234570 
3523.042538  	91.605802 
3524.006962  	91.403346 
3524.971387  	91.819119 
3525.935811  	91.943455 
3526.900236  	91.845908 
3527.864660  	91.733047 
3528.829085  	91.892319 
3529.793509  	92.062785 
3530.757933  	92.272505 
3531.722358  	92.349118 
3532.686782  	92.636744 
3533.651207  	92.811880 
3534.615631  	92.870296 
3535.580056  	92.643611 
3536.544480  	92.133406 
3537.508905  	92.291487 
3538.473329  	92.751483 
3539.437754  	92.811482 
3540.402178  	92.845832 
3541.366602  	92.839291 
3542.331027  	92.882327 
3543.295451  	92.693208 
3544.259876  	92.384631 
3545.224300  	91.657766 
3546.188725  	91.486970 
3547.153149  	91.617649 
3548.117574  	92.104059 
3549.081998  	92.824163 
3550.046423  	93.053027 
3551.010847  	92.915611 
3551.975271  	92.408649 
3552.939696  	92.265521 
3553.904120  	92.645517 
3554.868545  	92.993518 
3555.832969  	93.281562 
3556.797394  	93.190143 
3557.761818  	93.236390 
3558.726243  	93.388882 
3559.690667  	93.059336 
3560.655092  	92.648397 
3561.619516  	93.026507 
3562.583940  	93.051096 
3563.548365  	92.986711 
3564.512789  	92.957595 
3565.477214  	92.189686 
3566.441638  	90.362638 
3567.406063  	90.296170 
3568.370487  	90.672326 
3569.334912  	92.060707 
3570.299336  	93.025373 
3571.263761  	93.154826 
3572.228185  	93.464585 
3573.192609  	93.515320 
3574.157034  	93.396329 
3575.121458  	93.418311 
3576.085883  	93.536101 
3577.050307  	93.400574 
3578.014732  	93.353743 
3578.979156  	93.489847 
3579.943581  	93.204609 
3580.908005  	93.209151 
3581.872430  	93.602261 
3582.836854  	93.698653 
3583.801278  	93.606191 
3584.765703  	93.601646 
3585.730127  	93.214648 
3586.694552  	91.824999 
3587.658976  	91.065128 
3588.623401  	91.329836 
3589.587825  	92.305961 
3590.552250  	93.460520 
3591.516674  	93.748254 
3592.481099  	93.690162 
3593.445523  	93.162613 
3594.409948  	93.270062 
3595.374372  	92.921027 
3596.338796  	92.807127 
3597.303221  	93.534581 
3598.267645  	93.587046 
3599.232070  	93.297460 
3600.196494  	93.323376 
3601.160919  	93.069325 
3602.125343  	93.404159 
3603.089768  	93.659754 
3604.054192  	93.987808 
3605.018617  	94.147016 
3605.983041  	93.964861 
3606.947465  	93.083458 
3607.911890  	92.739593 
3608.876314  	92.882218 
3609.840739  	92.634502 
3610.805163  	93.507762 
3611.769588  	93.460389 
3612.734012  	92.431380 
3613.698437  	92.617249 
3614.662861  	92.754930 
3615.627286  	92.832926 
3616.591710  	93.684467 
3617.556134  	93.177094 
3618.520559  	92.446330 
3619.484983  	92.392196 
3620.449408  	92.432487 
3621.413832  	93.120851 
3622.378257  	93.775250 
3623.342681  	94.179478 
3624.307106  	94.347371 
3625.271530  	94.332201 
3626.235955  	93.900745 
3627.200379  	93.635499 
3628.164803  	92.798933 
3629.129228  	90.369141 
3630.093652  	90.963057 
3631.058077  	93.104225 
3632.022501  	93.930366 
3632.986926  	94.023238 
3633.951350  	93.417651 
3634.915775  	93.743319 
3635.880199  	94.327671 
3636.844624  	94.373748 
3637.809048  	94.201115 
3638.773472  	94.153164 
3639.737897  	94.382849 
3640.702321  	94.438049 
3641.666746  	94.174452 
3642.631170  	93.793239 
3643.595595  	94.070642 
3644.560019  	94.459426 
3645.524444  	94.183169 
3646.488868  	93.251597 
3647.453293  	91.743192 
3648.417717  	91.892611 
3649.382142  	91.571962 
3650.346566  	90.740718 
3651.310990  	90.971341 
3652.275415  	92.839503 
3653.239839  	94.004909 
3654.204264  	94.367949 
3655.168688  	94.282944 
3656.133113  	93.398527 
3657.097537  	93.236322 
3658.061962  	94.228395 
3659.026386  	94.373596 
3659.990811  	94.294977 
3660.955235  	94.447221 
3661.919659  	94.658810 
3662.884084  	94.700563 
3663.848508  	94.738748 
3664.812933  	94.710531 
3665.777357  	94.731607 
3666.741782  	94.734672 
3667.706206  	94.612306 
3668.670631  	93.796820 
3669.635055  	92.816464 
3670.599480  	92.101064 
3671.563904  	92.651717 
3672.528328  	94.085140 
3673.492753  	94.258031 
3674.457177  	93.174234 
3675.421602  	90.639004 
3676.386026  	91.106244 
3677.350451  	92.848494 
3678.314875  	93.482952 
3679.279300  	93.428259 
3680.243724  	93.552997 
3681.208149  	94.374197 
3682.172573  	94.721957 
3683.136997  	94.773405 
3684.101422  	94.659917 
3685.065846  	94.550500 
3686.030271  	94.671323 
3686.994695  	94.561551 
3687.959120  	93.841779 
3688.923544  	93.011023 
3689.887969  	93.434209 
3690.852393  	92.872132 
3691.816818  	92.816452 
3692.781242  	94.201347 
3693.745666  	94.526125 
3694.710091  	94.626898 
3695.674515  	94.753782 
3696.638940  	94.612167 
3697.603364  	94.682068 
3698.567789  	94.972308 
3699.532213  	94.967318 
3700.496638  	94.874870 
3701.461062  	94.168556 
3702.425487  	93.631445 
3703.389911  	94.515164 
3704.354335  	94.880777 
3705.318760  	94.747020 
3706.283184  	94.739262 
3707.247609  	94.883710 
3708.212033  	94.837924 
3709.176458  	94.208163 
3710.140882  	93.701612 
3711.105307  	93.391292 
3712.069731  	92.347369 
3713.034156  	92.647920 
3713.998580  	93.892474 
3714.963005  	93.914295 
3715.927429  	94.243966 
3716.891853  	94.791630 
3717.856278  	94.864005 
3718.820702  	94.319408 
3719.785127  	94.087655 
3720.749551  	94.608442 
3721.713976  	94.203673 
3722.678400  	93.046490 
3723.642825  	93.666542 
3724.607249  	93.983779 
3725.571674  	93.424646 
3726.536098  	93.177189 
3727.500522  	93.379555 
3728.464947  	94.281160 
3729.429371  	94.778467 
3730.393796  	94.690571 
3731.358220  	94.296907 
3732.322645  	93.578371 
3733.287069  	93.747254 
3734.251494  	93.136471 
3735.215918  	90.465069 
3736.180343  	90.775584 
3737.144767  	92.083110 
3738.109191  	92.927620 
3739.073616  	93.418886 
3740.038040  	93.975439 
3741.002465  	93.702313 
3741.966889  	93.863472 
3742.931314  	94.325262 
3743.895738  	93.352655 
3744.860163  	90.492027 
3745.824587  	92.576066 
3746.789012  	93.399266 
3747.753436  	93.430009 
3748.717860  	93.298279 
3749.682285  	92.785547 
3750.646709  	92.773814 
3751.611134  	92.402719 
3752.575558  	91.240484 
3753.539983  	92.803017 
3754.504407  	93.793942 
3755.468832  	94.259273 
3756.433256  	93.997457 
3757.397681  	94.048492 
3758.362105  	94.246646 
3759.326529  	93.369020 
3760.290954  	92.976684 
3761.255378  	94.235438 
3762.219803  	94.567565 
3763.184227  	94.633960 
3764.148652  	94.690705 
3765.113076  	94.320804 
3766.077501  	93.554947 
3767.041925  	94.229783 
3768.006350  	94.724115 
3768.970774  	94.386520 
3769.935199  	93.478783 
3770.899623  	93.668199 
3771.864047  	94.410227 
3772.828472  	94.678419 
3773.792896  	94.803480 
3774.757321  	94.920140 
3775.721745  	95.041804 
3776.686170  	95.107954 
3777.650594  	94.968645 
3778.615019  	94.555735 
3779.579443  	93.779816 
3780.543868  	93.927408 
3781.508292  	94.647553 
3782.472716  	94.738986 
3783.437141  	94.775181 
3784.401565  	94.436604 
3785.365990  	94.075934 
3786.330414  	94.365399 
3787.294839  	94.665346 
3788.259263  	94.845042 
3789.223688  	94.889307 
3790.188112  	94.921033 
3791.152537  	94.994627 
3792.116961  	94.968982 
3793.081385  	95.041371 
3794.045810  	95.065094 
3795.010234  	94.905526 
3795.974659  	94.392946 
3796.939083  	93.666844 
3797.903508  	93.909932 
3798.867932  	94.384265 
3799.832357  	94.489813 
3800.796781  	93.624118 
3801.761206  	92.263821 
3802.725630  	92.782187 
3803.690054  	93.720346 
3804.654479  	94.502615 
3805.618903  	94.601818 
3806.583328  	93.943052 
3807.547752  	93.420724 
3808.512177  	94.324004 
3809.476601  	94.621856 
3810.441026  	94.713206 
3811.405450  	94.865908 
3812.369875  	94.964743 
3813.334299  	95.019241 
3814.298723  	94.906476 
3815.263148  	94.268190 
3816.227572  	92.914306 
3817.191997  	93.463792 
3818.156421  	94.296387 
3819.120846  	94.245944 
3820.085270  	93.638271 
3821.049695  	92.153489 
3822.014119  	92.048467 
3822.978544  	93.548954 
3823.942968  	94.076518 
3824.907392  	94.309657 
3825.871817  	94.285992 
3826.836241  	93.810736 
3827.800666  	93.981331 
3828.765090  	94.583720 
3829.729515  	94.832279 
3830.693939  	94.653883 
3831.658364  	93.919821 
3832.622788  	94.058222 
3833.587213  	94.597885 
3834.551637  	94.152301 
3835.516062  	93.704053 
3836.480486  	94.153905 
3837.444910  	93.608121 
3838.409335  	92.644957 
3839.373759  	93.183307 
3840.338184  	92.648938 
3841.302608  	92.788757 
3842.267033  	93.992195 
3843.231457  	93.952948 
3844.195882  	93.303792 
3845.160306  	94.133360 
3846.124731  	94.661472 
3847.089155  	94.782436 
3848.053579  	94.811836 
3849.018004  	94.673762 
3849.982428  	94.322802 
3850.946853  	94.298260 
3851.911277  	93.565257 
3852.875702  	92.137938 
3853.840126  	91.350526 
3854.804551  	91.618473 
3855.768975  	93.529376 
3856.733400  	93.597041 
3857.697824  	93.209760 
3858.662248  	94.169597 
3859.626673  	94.765341 
3860.591097  	94.762161 
3861.555522  	94.184425 
3862.519946  	93.702882 
3863.484371  	94.002519 
3864.448795  	93.274693 
3865.413220  	92.362467 
3866.377644  	93.737725 
3867.342069  	94.603841 
3868.306493  	94.513450 
3869.270917  	93.408053 
3870.235342  	91.725794 
3871.199766  	92.866933 
3872.164191  	93.948920 
3873.128615  	94.161228 
3874.093040  	92.975519 
3875.057464  	93.102913 
3876.021889  	94.593255 
3876.986313  	94.883615 
3877.950738  	94.929622 
3878.915162  	94.851921 
3879.879586  	93.932396 
3880.844011  	92.386249 
3881.808435  	93.491379 
3882.772860  	94.297157 
3883.737284  	94.072481 
3884.701709  	94.022348 
3885.666133  	93.217724 
3886.630558  	92.947527 
3887.594982  	94.316641 
3888.559407  	94.754466 
3889.523831  	94.795539 
3890.488256  	94.368192 
3891.452680  	93.321539 
3892.417104  	93.404337 
3893.381529  	94.167949 
3894.345953  	94.077202 
3895.310378  	94.398676 
3896.274802  	94.862907 
3897.239227  	94.908672 
3898.203651  	94.314366 
3899.168076  	93.366237 
3900.132500  	93.320883 
3901.096925  	93.902494 
3902.061349  	92.763830 
3903.025773  	92.854676 
3903.990198  	93.137944 
3904.954622  	92.673872 
3905.919047  	93.053244 
3906.883471  	93.781220 
3907.847896  	94.636110 
3908.812320  	94.878300 
3909.776745  	94.917116 
3910.741169  	94.957300 
3911.705594  	94.994846 
3912.670018  	95.007143 
3913.634442  	95.006617 
3914.598867  	95.051600 
3915.563291  	94.888201 
3916.527716  	94.038389 
3917.492140  	93.401940 
3918.456565  	94.178537 
3919.420989  	94.346997 
3920.385414  	93.780414 
3921.349838  	94.327279 
3922.314263  	94.888525 
3923.278687  	94.604066 
3924.243111  	93.912208 
3925.207536  	93.478769 
3926.171960  	94.099096 
3927.136385  	94.805607 
3928.100809  	94.875243 
3929.065234  	94.721713 
3930.029658  	94.409728 
3930.994083  	94.227056 
3931.958507  	93.840652 
3932.922932  	93.510310 
3933.887356  	94.196596 
3934.851780  	94.565999 
3935.816205  	94.859587 
3936.780629  	94.999157 
3937.745054  	94.925103 
3938.709478  	94.724893 
3939.673903  	94.851857 
3940.638327  	94.945807 
3941.602752  	94.852258 
3942.567176  	94.064257 
3943.531601  	93.679292 
3944.496025  	94.372011 
3945.460449  	94.713092 
3946.424874  	94.854108 
3947.389298  	94.376770 
3948.353723  	94.012529 
3949.318147  	94.218066 
3950.282572  	93.989534 
3951.246996  	94.364631 
3952.211421  	94.835446 
3953.175845  	94.751965 
3954.140270  	94.842545 
3955.104694  	94.928559 
3956.069119  	94.848828 
3957.033543  	94.711061 
3957.997967  	94.735924 
3958.962392  	94.838381 
3959.926816  	94.855113 
3960.891241  	94.768619 
3961.855665  	94.405413 
3962.820090  	94.425664 
3963.784514  	94.839077 
3964.748939  	94.857922 
3965.713363  	94.879087 
3966.677788  	94.949811 
3967.642212  	94.940815 
3968.606636  	94.793198 
3969.571061  	94.669085 
3970.535485  	94.815792 
3971.499910  	94.881673 
3972.464334  	94.691180 
3973.428759  	94.745295 
3974.393183  	94.819566 
3975.357608  	94.685431 
3976.322032  	94.612982 
3977.286457  	94.771462 
3978.250881  	94.941888 
3979.215305  	94.930023 
3980.179730  	94.884702 
3981.144154  	94.873619 
3982.108579  	94.818068 
3983.073003  	94.822296 
3984.037428  	94.949579 
3985.001852  	94.925852 
3985.966277  	94.884557 
3986.930701  	94.918097 
3987.895126  	94.950900 
3988.859550  	94.959648 
3989.823974  	94.845903 
3990.788399  	94.653375 
3991.752823  	94.745267 
3992.717248  	94.913305 
3993.681672  	94.898132 
3994.646097  	94.793772 
3995.610521  	94.724324 
3996.574946  	94.885955 
3997.539370  	94.973672 
3998.503795  	94.970351 
3999.468219  	94.984349 
4000.432643  	95.036781 
4001.397068  	95.016663 
4002.361492  	94.982201 
4003.325917  	94.946223 
4004.290341  	94.920806 
4005.254766  	94.926969 
4006.219190  	94.951169 
4007.183615  	94.943182 
4008.148039  	94.850155 
4009.112464  	94.748570 
4010.076888  	94.821033 
4011.041313  	94.891068 
4012.005737  	94.929339 
4012.970161  	94.894090 
4013.934586  	94.899792 
4014.899010  	94.906330 
4015.863435  	94.882267 
4016.827859  	94.901493 
4017.792284  	94.922796 
4018.756708  	94.882971 
4019.721133  	94.789613 
4020.685557  	94.809046 
4021.649982  	94.880494 
4022.614406  	94.952251 
4023.578830  	95.003374 
4024.543255  	94.954022 
4025.507679  	94.830535 
4026.472104  	94.839697 
4027.436528  	94.904860 
4028.400953  	94.932578 
4029.365377  	94.908574 
4030.329802  	94.898548 
4031.294226  	94.931323 
4032.258651  	94.984414 
4033.223075  	95.052175 
4034.187499  	95.056375 
4035.151924  	94.979905 
4036.116348  	94.959714 
4037.080773  	95.024687 
4038.045197  	95.042090 
4039.009622  	95.025061 
4039.974046  	95.050291 
4040.938471  	95.061540 
4041.902895  	95.027389 
4042.867320  	95.011474 
4043.831744  	94.934524 
4044.796168  	94.855452 
4045.760593  	94.863385 
4046.725017  	94.957456 
4047.689442  	95.003731 
4048.653866  	94.973453 
4049.618291  	94.964069 
4050.582715  	94.986366 
4051.547140  	94.987466 
4052.511564  	95.010773 
4053.475989  	94.999520 
4054.440413  	94.943520 
4055.404837  	94.927591 
4056.369262  	94.959601 
4057.333686  	95.023095 
4058.298111  	94.999849 
4059.262535  	94.949339 
4060.226960  	94.919837 
4061.191384  	94.939752 
4062.155809  	94.979217 
4063.120233  	94.993861 
4064.084658  	94.999287 
4065.049082  	95.019981 
4066.013506  	95.026637 
4066.977931  	94.997031 
4067.942355  	94.994797 
4068.906780  	95.023952 
4069.871204  	95.012934 
4070.835629  	94.986868 
4071.800053  	94.975879 
4072.764478  	94.923880 
4073.728902  	94.874204 
4074.693327  	94.956487 
4075.657751  	95.068141 
4076.622176  	95.063705 
4077.586600  	95.069016 
4078.551024  	95.021986 
4079.515449  	94.962952 
4080.479873  	94.983165 
4081.444298  	95.007921 
4082.408722  	95.007773 
4083.373147  	94.968129 
4084.337571  	94.976793 
4085.301996  	95.003976 
4086.266420  	94.988358 
4087.230845  	94.994982 
4088.195269  	95.020084 
4089.159693  	95.042144 
4090.124118  	95.046750 
4091.088542  	95.032977 
4092.052967  	95.058861 
4093.017391  	95.075860 
4093.981816  	95.055147 
4094.946240  	95.011908 
4095.910665  	95.035376 
4096.875089  	95.082537 
4097.839514  	95.029901 
4098.803938  	94.918515 
4099.768362  	94.944175 
4100.732787  	95.016949 
4101.697211  	95.039664 
4102.661636  	95.052940 
4103.626060  	95.084758 
4104.590485  	95.068139 
4105.554909  	94.964760 
4106.519334  	94.928790 
4107.483758  	94.925227 
4108.448183  	94.951409 
4109.412607  	94.993978 
4110.377031  	94.986052 
4111.341456  	95.001434 
4112.305880  	95.047271 
4113.270305  	95.027070 
4114.234729  	95.004211 
4115.199154  	95.048852 
4116.163578  	95.034359 
4117.128003  	94.939411 
4118.092427  	94.947329 
4119.056852  	94.970964 
4120.021276  	94.942459 
4120.985700  	94.975061 
4121.950125  	94.990312 
4122.914549  	94.992249 
4123.878974  	95.032820 
4124.843398  	95.022244 
4125.807823  	95.006696 
4126.772247  	94.992744 
4127.736672  	94.991877 
4128.701096  	95.034460 
4129.665521  	95.040923 
4130.629945  	95.017592 
4131.594370  	95.020590 
4132.558794  	95.049047 
4133.523218  	95.035776 
4134.487643  	95.039609 
4135.452067  	95.039812 
4136.416492  	95.037504 
4137.380916  	95.032757 
4138.345341  	94.988590 
4139.309765  	94.951724 
4140.274190  	94.964150 
4141.238614  	95.016601 
4142.203039  	95.043094 
4143.167463  	95.083974 
4144.131887  	95.032828 
4145.096312  	94.989826 
4146.060736  	95.008547 
4147.025161  	95.035724 
4147.989585  	95.030330 
4148.954010  	94.984976 
4149.918434  	94.966312 
4150.882859  	94.935023 
4151.847283  	94.979503 
4152.811708  	95.012099 
4153.776132  	95.014190 
4154.740556  	95.007442 
4155.704981  	94.956219 
4156.669405  	94.924498 
4157.633830  	94.968291 
4158.598254  	95.017818 
4159.562679  	94.986704 
4160.527103  	94.914312 
4161.491528  	94.942134 
4162.455952  	94.998087 
4163.420377  	95.036796 
4164.384801  	95.033633 
4165.349225  	95.036055 
4166.313650  	95.008074 
4167.278074  	94.957489 
4168.242499  	94.960528 
4169.206923  	95.016361 
4170.171348  	95.037513 
4171.135772  	95.025502 
4172.100197  	94.994095 
4173.064621  	94.983120 
4174.029046  	94.969064 
4174.993470  	94.981560 
4175.957894  	95.019696 
4176.922319  	95.066700 
4177.886743  	95.041825 
4178.851168  	94.970073 
4179.815592  	94.940359 
4180.780017  	94.958403 
4181.744441  	94.989402 
4182.708866  	95.015975 
4183.673290  	95.024431 
4184.637715  	95.015527 
4185.602139  	95.003908 
4186.566563  	94.950715 
4187.530988  	94.896486 
4188.495412  	94.920957 
4189.459837  	94.957310 
4190.424261  	94.954952 
4191.388686  	94.989660 
4192.353110  	95.037007 
4193.317535  	95.016974 
4194.281959  	94.938768 
4195.246384  	94.932388 
4196.210808  	94.973131 
4197.175233  	94.940633 
4198.139657  	94.905355 
4199.104081  	94.946959 
4200.068506  	94.954444 
4201.032930  	94.949290 
4201.997355  	94.960172 
4202.961779  	95.005220 
4203.926204  	94.973860 
4204.890628  	94.915355 
4205.855053  	94.929283 
4206.819477  	94.948498 
4207.783902  	94.929366 
4208.748326  	94.945133 
4209.712750  	94.977189 
4210.677175  	94.995650 
4211.641599  	94.953947 
4212.606024  	94.935016 
4213.570448  	94.985523 
4214.534873  	95.012660 
4215.499297  	94.973532 
4216.463722  	94.986999 
4217.428146  	94.964988 
4218.392571  	94.926592 
4219.356995  	94.959907 
4220.321419  	94.989554 
4221.285844  	95.052914 
4222.250268  	95.076809 
4223.214693  	94.963628 
4224.179117  	94.907350 
4225.143542  	94.966697 
4226.107966  	95.027823 
4227.072391  	95.031964 
4228.036815  	94.988981 
4229.001240  	94.974656 
4229.965664  	94.955960 
4230.930088  	95.005485 
4231.894513  	95.050872 
4232.858937  	95.077356 
4233.823362  	95.106748 
4234.787786  	95.055318 
4235.752211  	95.008092 
4236.716635  	95.013161 
4237.681060  	95.056411 
4238.645484  	95.070610 
4239.609909  	95.043508 
4240.574333  	94.999244 
4241.538757  	95.039252 
4242.503182  	95.101195 
4243.467606  	95.121415 
4244.432031  	95.051498 
4245.396455  	94.985030 
4246.360880  	94.993344 
4247.325304  	95.032191 
4248.289729  	95.029814 
4249.254153  	95.008795 
4250.218578  	95.058419 
4251.183002  	95.080309 
4252.147427  	95.029424 
4253.111851  	95.027598 
4254.076275  	94.978660 
4255.040700  	94.924858 
4256.005124  	94.966285 
4256.969549  	95.107099 
4257.933973  	95.111297 
4258.898398  	94.988516 
4259.862822  	94.932933 
4260.827247  	94.929655 
4261.791671  	94.978893 
4262.756096  	95.050958 
4263.720520  	95.066989 
4264.684944  	95.040778 
4265.649369  	94.963449 
4266.613793  	94.984692 
4267.578218  	95.002516 
4268.542642  	95.002699 
4269.507067  	95.042287 
4270.471491  	95.046529 
4271.435916  	95.008112 
4272.400340  	94.973662 
4273.364765  	94.983626 
4274.329189  	95.032661 
4275.293613  	95.070071 
4276.258038  	95.070812 
4277.222462  	95.065453 
4278.186887  	95.019696 
4279.151311  	94.936983 
4280.115736  	94.929858 
4281.080160  	95.057073 
4282.044585  	95.092213 
4283.009009  	95.029196 
4283.973434  	94.993408 
4284.937858  	95.005625 
4285.902282  	94.987743 
4286.866707  	95.014227 
4287.831131  	95.046295 
4288.795556  	95.080322 
4289.759980  	95.048974 
4290.724405  	95.020191 
4291.688829  	95.063964 
4292.653254  	95.074082 
4293.617678  	95.075685 
4294.582103  	95.128977 
4295.546527  	95.115043 
4296.510951  	95.089949 
4297.475376  	95.080016 
4298.439800  	95.068686 
4299.404225  	95.083061 
4300.368649  	95.115277 
4301.333074  	95.065617 
4302.297498  	94.978887 
4303.261923  	94.948607 
4304.226347  	95.045996 
4305.190772  	95.233535 
4306.155196  	95.180398 
4307.119620  	95.062719 
4308.084045  	95.038122 
4309.048469  	95.043744 
4310.012894  	95.044477 
4310.977318  	95.066366 
4311.941743  	95.033972 
4312.906167  	94.982975 
4313.870592  	94.981329 
4314.835016  	95.034945 
4315.799441  	95.079261 
4316.763865  	95.071550 
4317.728290  	95.053930 
4318.692714  	95.107852 
4319.657138  	95.084431 
4320.621563  	95.010699 
4321.585987  	94.963703 
4322.550412  	94.971941 
4323.514836  	94.982433 
4324.479261  	95.034719 
4325.443685  	95.066615 
4326.408110  	95.066856 
4327.372534  	95.034588 
4328.336959  	95.033639 
4329.301383  	95.035976 
4330.265807  	95.031111 
4331.230232  	95.074074 
4332.194656  	95.086339 
4333.159081  	95.082428 
4334.123505  	95.040823 
4335.087930  	94.944809 
4336.052354  	94.926070 
4337.016779  	94.972022 
4337.981203  	95.017503 
4338.945628  	95.042029 
4339.910052  	95.011759 
4340.874476  	94.986659 
4341.838901  	95.006406 
4342.803325  	94.992335 
4343.767750  	94.942943 
4344.732174  	94.905109 
4345.696599  	94.903169 
4346.661023  	94.944968 
4347.625448  	94.887771 
4348.589872  	94.866198 
4349.554297  	94.945217 
4350.518721  	95.017200 
4351.483145  	95.025407 
4352.447570  	94.932292 
4353.411994  	94.926249 
4354.376419  	94.948446 
4355.340843  	94.962343 
4356.305268  	94.971744 
4357.269692  	94.962469 
4358.234117  	94.978884 
4359.198541  	94.971950 
4360.162966  	95.008617 
4361.127390  	94.937690 
4362.091814  	94.886290 
4363.056239  	94.927488 
4364.020663  	94.988961 
4364.985088  	95.010233 
4365.949512  	94.961243 
4366.913937  	94.878068 
4367.878361  	94.886000 
4368.842786  	94.936509 
4369.807210  	95.033868 
4370.771635  	95.053645 
4371.736059  	94.988907 
4372.700484  	94.985525 
4373.664908  	95.035530 
4374.629332  	95.025880 
4375.593757  	95.040375 
4376.558181  	95.081586 
4377.522606  	95.106213 
4378.487030  	95.004525 
4379.451455  	94.954367 
4380.415879  	94.965732 
4381.380304  	94.968771 
4382.344728  	95.025876 
4383.309153  	95.070863 
4384.273577  	95.071324 
4385.238001  	95.066696 
4386.202426  	95.062884 
4387.166850  	95.081622 
4388.131275  	95.077546 
4389.095699  	95.038333 
4390.060124  	95.048072 
4391.024548  	95.078498 
4391.988973  	95.120119 
4392.953397  	95.166536 
4393.917822  	95.142588 
4394.882246  	95.097707 
4395.846670  	95.100049 
4396.811095  	95.078512 
4397.775519  	95.095342 
4398.739944  	95.139759 
4399.704368  	95.185015 
4400.668793  	95.253157 
4401.633217  	95.127620 
4402.597642  	95.048376 
4403.562066  	95.160667 
4404.526491  	95.221375 
4405.490915  	95.230005 
4406.455339  	95.172834 
4407.419764  	95.164437 
4408.384188  	95.229739 
4409.348613  	95.237966 
4410.313037  	95.196018 
4411.277462  	95.168677 
4412.241886  	95.137080 
4413.206311  	95.126581 
4414.170735  	95.175784 
4415.135160  	95.211189 
4416.099584  	95.169442 
4417.064008  	95.090718 
4418.028433  	95.058806 
4418.992857  	95.122500 
4419.957282  	95.154037 
4420.921706  	95.114161 
4421.886131  	95.145463 
4422.850555  	95.126160 
4423.814980  	95.077698 
4424.779404  	95.115611 
4425.743829  	95.141592 
4426.708253  	95.158400 
4427.672677  	95.151239 
4428.637102  	95.164464 
4429.601526  	95.189828 
4430.565951  	95.143245 
4431.530375  	95.121440 
4432.494800  	95.158357 
4433.459224  	95.162028 
4434.423649  	95.137468 
4435.388073  	95.114006 
4436.352498  	95.199728 
4437.316922  	95.283294 
4438.281347  	95.238368 
4439.245771  	95.140660 
4440.210195  	95.144918 
4441.174620  	95.213829 
4442.139044  	95.216004 
4443.103469  	95.215958 
4444.067893  	95.198463 
4445.032318  	95.213080 
4445.996742  	95.200171 
4446.961167  	95.186021 
4447.925591  	95.168771 
4448.890016  	95.141525 
4449.854440  	95.128983 
4450.818864  	95.214665 
4451.783289  	95.291940 
4452.747713  	95.250231 
4453.712138  	95.251020 
4454.676562  	95.224755 
4455.640987  	95.223104 
4456.605411  	95.286470 
4457.569836  	95.304765 
4458.534260  	95.274091 
4459.498685  	95.275687 
4460.463109  	95.226099 
4461.427533  	95.180402 
4462.391958  	95.162727 
4463.356382  	95.122380 
4464.320807  	95.155175 
4465.285231  	95.204891 
4466.249656  	95.225452 
4467.214080  	95.201239 
4468.178505  	95.142098 
4469.142929  	95.147997 
4470.107354  	95.213121 
4471.071778  	95.238795 
4472.036202  	95.213347 
4473.000627  	95.256746 
4473.965051  	95.227201 
4474.929476  	95.136948 
4475.893900  	95.177804 
4476.858325  	95.197356 
4477.822749  	95.230996 
4478.787174  	95.257891 
4479.751598  	95.264180 
4480.716023  	95.173895 
4481.680447  	95.101753 
4482.644871  	95.096502 
4483.609296  	95.118428 
4484.573720  	95.166132 
4485.538145  	95.194028 
4486.502569  	95.200314 
4487.466994  	95.228686 
4488.431418  	95.244484 
4489.395843  	95.199643 
4490.360267  	95.225845 
4491.324692  	95.238227 
4492.289116  	95.180068 
4493.253541  	95.126679 
4494.217965  	95.171661 
4495.182389  	95.213338 
4496.146814  	95.211203 
4497.111238  	95.206336 
4498.075663  	95.194045 
4499.040087  	95.194981 
4500.004512  	95.236282 
4500.968936  	95.212933 
4501.933361  	95.128880 
4502.897785  	95.183396 
4503.862210  	95.280478 
4504.826634  	95.289223 
4505.791058  	95.227580 
4506.755483  	95.149813 
4507.719907  	95.122427 
4508.684332  	95.192725 
4509.648756  	95.151031 
4510.613181  	95.090956 
4511.577605  	95.211260 
4512.542030  	95.309493 
4513.506454  	95.274118 
4514.470879  	95.193215 
4515.435303  	95.125042 
4516.399727  	95.151820 
4517.364152  	95.165875 
4518.328576  	95.213533 
4519.293001  	95.220778 
4520.257425  	95.175563 
4521.221850  	95.140593 
4522.186274  	95.224568 
4523.150699  	95.272725 
4524.115123  	95.187177 
4525.079548  	95.171325 
4526.043972  	95.196504 
4527.008396  	95.213190 
4527.972821  	95.216888 
4528.937245  	95.191125 
4529.901670  	95.101660 
4530.866094  	95.139369 
4531.830519  	95.218429 
4532.794943  	95.218055 
4533.759368  	95.181492 
4534.723792  	95.131971 
4535.688217  	95.104332 
4536.652641  	95.165541 
4537.617065  	95.212705 
4538.581490  	95.244817 
4539.545914  	95.234177 
4540.510339  	95.201372 
4541.474763  	95.097895 
4542.439188  	95.104872 
4543.403612  	95.188763 
4544.368037  	95.125546 
4545.332461  	95.041405 
4546.296886  	95.088854 
4547.261310  	95.139076 
4548.225734  	95.169451 
4549.190159  	95.217743 
4550.154583  	95.266412 
4551.119008  	95.181796 
4552.083432  	95.143315 
4553.047857  	95.213768 
4554.012281  	95.255044 
4554.976706  	95.202845 
4555.941130  	95.172756 
4556.905555  	95.187158 
4557.869979  	95.234215 
4558.834404  	95.262736 
4559.798828  	95.176323 
4560.763252  	95.071106 
4561.727677  	95.057324 
4562.692101  	95.076477 
4563.656526  	95.168954 
4564.620950  	95.236813 
4565.585375  	95.169507 
4566.549799  	95.151333 
4567.514224  	95.206259 
4568.478648  	95.152845 
4569.443073  	95.090424 
4570.407497  	95.121733 
4571.371921  	95.231671 
4572.336346  	95.248380 
4573.300770  	95.256002 
4574.265195  	95.209953 
4575.229619  	95.155259 
4576.194044  	95.165883 
4577.158468  	95.178433 
4578.122893  	95.217815 
4579.087317  	95.207569 
4580.051742  	95.196810 
4581.016166  	95.225362 
4581.980590  	95.268488 
4582.945015  	95.291739 
4583.909439  	95.250577 
4584.873864  	95.183828 
4585.838288  	95.108667 
4586.802713  	95.204225 
4587.767137  	95.177447 
4588.731562  	95.085270 
4589.695986  	95.132184 
4590.660411  	95.173042 
4591.624835  	95.195462 
4592.589259  	95.201831 
4593.553684  	95.215985 
4594.518108  	95.133295 
4595.482533  	95.096674 
4596.446957  	95.177276 
4597.411382  	95.144483 
4598.375806  	95.118636 
4599.340231  	95.188451 
4600.304655  	95.201014 
4601.269080  	95.123296 
4602.233504  	95.117817 
4603.197928  	95.197704 
4604.162353  	95.240931 
4605.126777  	95.234273 
4606.091202  	95.208974 
4607.055626  	95.210689 
4608.020051  	95.260294 
4608.984475  	95.229213 
4609.948900  	95.223818 
4610.913324  	95.207807 
4611.877749  	95.205347 
4612.842173  	95.239617 
4613.806598  	95.279591 
4614.771022  	95.266288 
4615.735446  	95.267743 
4616.699871  	95.232702 
4617.664295  	95.102226 
4618.628720  	95.131380 
4619.593144  	95.195297 
4620.557569  	95.234950 
4621.521993  	95.248812 
4622.486418  	95.248827 
4623.450842  	95.256866 
4624.415267  	95.227306 
4625.379691  	95.276068 
4626.344115  	95.283526 
4627.308540  	95.274839 
4628.272964  	95.235372 
4629.237389  	95.195803 
4630.201813  	95.146960 
4631.166238  	95.182512 
4632.130662  	95.271117 
4633.095087  	95.259984 
4634.059511  	95.201539 
4635.023936  	95.312602 
4635.988360  	95.396703 
4636.952784  	95.286741 
4637.917209  	95.265080 
4638.881633  	95.224301 
4639.846058  	95.221901 
4640.810482  	95.246611 
4641.774907  	95.227393 
4642.739331  	95.174296 
4643.703756  	95.143053 
4644.668180  	95.159274 
4645.632605  	95.096731 
4646.597029  	95.136487 
4647.561453  	95.171463 
4648.525878  	95.162438 
4649.490302  	95.235752 
4650.454727  	95.281686 
4651.419151  	95.289730 
4652.383576  	95.237384 
4653.348000  	95.189906 
4654.312425  	95.215048 
4655.276849  	95.276564 
4656.241274  	95.230574 
4657.205698  	95.261501 
4658.170122  	95.267181 
4659.134547  	95.226195 
4660.098971  	95.205867 
4661.063396  	95.249523 
4662.027820  	95.324300 
4662.992245  	95.264730 
4663.956669  	95.163099 
4664.921094  	95.218686 
4665.885518  	95.278613 
4666.849943  	95.283343 
4667.814367  	95.259985 
4668.778791  	95.284649 
4669.743216  	95.289855 
4670.707640  	95.254607 
4671.672065  	95.220426 
4672.636489  	95.195340 
4673.600914  	95.232130 
4674.565338  	95.293292 
4675.529763  	95.304079 
4676.494187  	95.309241 
4677.458612  	95.320698 
4678.423036  	95.331271 
4679.387461  	95.344297 
4680.351885  	95.322875 
4681.316309  	95.223206 
4682.280734  	95.196926 
4683.245158  	95.194134 
4684.209583  	95.249460 
4685.174007  	95.228013 
4686.138432  	95.204284 
4687.102856  	95.199136 
4688.067281  	95.189987 
4689.031705  	95.215644 
4689.996130  	95.322630 
4690.960554  	95.366909 
4691.924978  	95.309618 
4692.889403  	95.200961 
4693.853827  	95.206163 
4694.818252  	95.234515 
4695.782676  	95.241770 
4696.747101  	95.232689 
4697.711525  	95.287387 
4698.675950  	95.297983 
4699.640374  	95.241543 