##TITLE=No Description
##DATA TYPE=INFRARED SPECTRUM
##XUNITS=1/CM
##YUNITS=%T
400.236149  	126.395117 
401.200574  	100.030893 
402.164998  	76.993722 
403.129423  	62.341177 
404.093847  	66.599298 
405.058272  	79.090975 
406.022696  	73.279001 
406.987120  	66.637272 
407.951545  	83.863090 
408.915969  	96.538876 
409.880394  	88.540637 
410.844818  	81.280139 
411.809243  	88.345419 
412.773667  	92.908951 
413.738092  	85.356176 
414.702516  	75.592844 
415.666941  	74.691952 
416.631365  	81.377933 
417.595789  	84.642795 
418.560214  	82.599319 
419.524638  	79.927643 
420.489063  	79.823973 
421.453487  	81.630562 
422.417912  	82.786765 
423.382336  	83.633902 
424.346761  	81.159098 
425.311185  	76.924824 
426.275610  	78.035497 
427.240034  	81.915888 
428.204458  	84.496626 
429.168883  	83.980886 
430.133307  	81.550255 
431.097732  	80.400033 
432.062156  	80.104097 
433.026581  	79.520817 
433.991005  	81.875859 
434.955430  	82.619422 
435.919854  	81.422817 
436.884279  	78.555917 
437.848703  	77.616315 
438.813127  	78.013494 
439.777552  	78.203422 
440.741976  	78.899891 
441.706401  	80.061894 
442.670825  	78.377068 
443.635250  	77.296883 
444.599674  	78.098949 
445.564099  	79.175053 
446.528523  	78.957001 
447.492948  	77.513066 
448.457372  	78.731714 
449.421796  	78.800178 
450.386221  	77.993641 
451.350645  	77.333633 
452.315070  	76.921540 
453.279494  	76.244200 
454.243919  	76.592998 
455.208343  	76.585507 
456.172768  	75.785889 
457.137192  	75.835952 
458.101617  	76.954955 
459.066041  	76.754867 
460.030466  	76.818332 
460.994890  	76.931443 
461.959314  	76.626466 
462.923739  	77.185118 
463.888163  	77.200443 
464.852588  	76.269784 
465.817012  	76.523934 
466.781437  	75.743063 
467.745861  	74.533220 
468.710286  	74.263710 
469.674710  	73.928988 
470.639135  	73.969035 
471.603559  	74.172854 
472.567983  	74.395663 
473.532408  	75.590333 
474.496832  	75.504343 
475.461257  	75.045709 
476.425681  	74.747917 
477.390106  	75.253217 
478.354530  	75.599378 
479.318955  	74.915459 
480.283379  	74.295192 
481.247804  	74.552201 
482.212228  	74.598730 
483.176652  	74.807260 
484.141077  	74.744666 
485.105501  	74.653884 
486.069926  	74.080247 
487.034350  	74.088220 
487.998775  	74.496653 
488.963199  	74.465721 
489.927624  	74.148629 
490.892048  	73.450608 
491.856473  	73.064636 
492.820897  	73.385952 
493.785321  	73.221928 
494.749746  	73.106930 
495.714170  	73.303700 
496.678595  	72.959297 
497.643019  	73.082196 
498.607444  	73.221659 
499.571868  	72.560809 
500.536293  	72.349866 
501.500717  	72.046449 
502.465142  	71.548429 
503.429566  	71.831468 
504.393990  	71.811723 
505.358415  	72.142843 
506.322839  	71.644959 
507.287264  	71.039952 
508.251688  	71.442807 
509.216113  	71.800504 
510.180537  	71.647801 
511.144962  	71.452321 
512.109386  	71.520187 
513.073811  	71.490562 
514.038235  	71.239580 
515.002660  	70.754721 
515.967084  	70.077195 
516.931508  	69.433006 
517.895933  	70.092768 
518.860357  	70.269879 
519.824782  	70.021497 
520.789206  	70.205703 
521.753631  	70.368995 
522.718055  	70.213216 
523.682480  	69.955408 
524.646904  	69.656314 
525.611329  	68.788355 
526.575753  	68.538914 
527.540177  	68.922841 
528.504602  	68.772128 
529.469026  	68.549843 
530.433451  	68.542252 
531.397875  	68.356478 
532.362300  	68.094427 
533.326724  	68.166166 
534.291149  	68.131357 
535.255573  	68.146295 
536.219998  	68.249222 
537.184422  	68.639129 
538.148846  	69.109974 
539.113271  	69.739574 
540.077695  	69.756169 
541.042120  	70.039257 
542.006544  	70.272697 
542.970969  	70.452000 
543.935393  	70.711128 
544.899818  	70.549611 
545.864242  	70.190489 
546.828667  	70.192479 
547.793091  	69.815694 
548.757515  	69.752778 
549.721940  	69.744068 
550.686364  	69.724458 
551.650789  	69.788863 
552.615213  	69.252638 
553.579638  	69.281878 
554.544062  	69.305878 
555.508487  	69.033742 
556.472911  	68.454625 
557.437336  	67.775870 
558.401760  	67.648940 
559.366184  	67.671497 
560.330609  	67.265862 
561.295033  	66.830551 
562.259458  	66.577117 
563.223882  	65.936094 
564.188307  	65.341962 
565.152731  	65.101797 
566.117156  	64.590265 
567.081580  	63.881691 
568.046005  	63.565744 
569.010429  	62.889243 
569.974853  	62.194645 
570.939278  	61.710149 
571.903702  	61.246720 
572.868127  	60.709090 
573.832551  	59.990430 
574.796976  	59.491536 
575.761400  	59.105765 
576.725825  	59.208147 
577.690249  	59.367314 
578.654674  	59.684116 
579.619098  	60.107173 
580.583523  	60.549883 
581.547947  	61.573563 
582.512371  	62.695780 
583.476796  	63.498926 
584.441220  	64.249897 
585.405645  	65.077382 
586.370069  	66.245728 
587.334494  	67.180956 
588.298918  	67.691474 
589.263343  	68.129697 
590.227767  	68.677834 
591.192192  	68.878542 
592.156616  	69.093631 
593.121040  	69.873433 
594.085465  	70.454976 
595.049889  	70.444746 
596.014314  	70.519541 
596.978738  	70.920694 
597.943163  	71.111680 
598.907587  	71.170550 
599.872012  	71.089093 
600.836436  	71.239987 
601.800861  	71.586894 
602.765285  	71.702746 
603.729709  	71.727708 
604.694134  	71.832600 
605.658558  	72.060234 
606.622983  	72.135588 
607.587407  	72.027176 
608.551832  	72.117026 
609.516256  	72.330134 
610.480681  	72.270272 
611.445105  	72.353291 
612.409530  	72.505106 
613.373954  	72.574097 
614.338378  	72.422220 
615.302803  	72.167757 
616.267227  	72.110405 
617.231652  	72.502585 
618.196076  	72.490292 
619.160501  	72.279941 
620.124925  	72.112227 
621.089350  	72.309369 
622.053774  	72.476100 
623.018199  	72.548567 
623.982623  	72.373091 
624.947047  	72.350868 
625.911472  	72.227866 
626.875896  	72.239297 
627.840321  	72.247408 
628.804745  	72.356112 
629.769170  	72.317707 
630.733594  	72.218253 
631.698019  	72.187544 
632.662443  	72.234036 
633.626868  	72.155892 
634.591292  	72.050474 
635.555717  	71.893616 
636.520141  	72.029693 
637.484565  	71.892876 
638.448990  	71.890677 
639.413414  	71.701413 
640.377839  	71.761336 
641.342263  	71.630331 
642.306688  	71.376093 
643.271112  	71.367216 
644.235537  	71.273063 
645.199961  	71.089699 
646.164386  	71.044226 
647.128810  	70.813882 
648.093234  	70.610189 
649.057659  	70.440726 
650.022083  	70.313941 
650.986508  	70.162928 
651.950932  	69.941848 
652.915357  	69.627600 
653.879781  	69.403857 
654.844206  	69.224001 
655.808630  	68.873154 
656.773055  	68.350575 
657.737479  	68.181688 
658.701903  	67.941736 
659.666328  	67.621917 
660.630752  	67.434758 
661.595177  	67.184074 
662.559601  	66.828888 
663.524026  	66.608992 
664.488450  	66.406416 
665.452875  	66.128631 
666.417299  	65.905229 
667.381724  	65.759955 
668.346148  	65.123008 
669.310572  	64.895622 
670.274997  	64.717040 
671.239421  	64.443037 
672.203846  	64.207413 
673.168270  	64.023038 
674.132695  	63.699832 
675.097119  	63.469143 
676.061544  	63.317025 
677.025968  	63.167275 
677.990393  	62.950350 
678.954817  	62.772762 
679.919241  	62.626918 
680.883666  	62.555603 
681.848090  	62.527804 
682.812515  	62.486221 
683.776939  	62.491776 
684.741364  	62.537734 
685.705788  	62.486542 
686.670213  	62.669570 
687.634637  	62.804981 
688.599062  	62.987446 
689.563486  	63.347528 
690.527910  	63.883666 
691.492335  	64.323692 
692.456759  	64.745675 
693.421184  	65.168193 
694.385608  	65.689389 
695.350033  	66.148772 
696.314457  	66.599088 
697.278882  	67.075404 
698.243306  	67.548010 
699.207731  	67.956122 
700.172155  	68.361535 
701.136580  	68.637841 
702.101004  	68.980401 
703.065428  	69.449510 
704.029853  	69.736478 
704.994277  	69.917349 
705.958702  	70.275858 
706.923126  	70.575831 
707.887551  	70.887785 
708.851975  	71.199551 
709.816400  	71.295730 
710.780824  	71.419078 
711.745249  	71.526379 
712.709673  	71.635491 
713.674097  	71.767940 
714.638522  	72.013513 
715.602946  	72.184804 
716.567371  	72.154764 
717.531795  	72.142393 
718.496220  	72.123770 
719.460644  	72.145112 
720.425069  	72.230615 
721.389493  	72.350823 
722.353918  	72.378976 
723.318342  	72.326027 
724.282766  	72.283775 
725.247191  	72.247370 
726.211615  	72.150661 
727.176040  	72.069483 
728.140464  	72.004652 
729.104889  	72.015015 
730.069313  	72.142281 
731.033738  	72.662427 
731.998162  	73.387238 
732.962587  	74.229066 
733.927011  	74.928469 
734.891435  	75.635178 
735.855860  	76.370026 
736.820284  	77.152592 
737.784709  	77.828981 
738.749133  	78.408047 
739.713558  	78.891609 
740.677982  	79.257444 
741.642407  	79.599039 
742.606831  	79.927230 
743.571256  	80.227378 
744.535680  	80.373255 
745.500104  	80.550826 
746.464529  	80.744050 
747.428953  	80.788920 
748.393378  	80.891841 
749.357802  	80.995169 
750.322227  	81.130100 
751.286651  	81.232685 
752.251076  	81.341756 
753.215500  	81.463719 
754.179925  	81.546852 
755.144349  	81.577688 
756.108774  	81.750533 
757.073198  	81.851530 
758.037622  	81.934960 
759.002047  	81.976393 
759.966471  	82.063713 
760.930896  	82.219130 
761.895320  	82.396625 
762.859745  	82.496378 
763.824169  	82.685184 
764.788594  	82.822552 
765.753018  	82.935709 
766.717443  	83.053412 
767.681867  	83.204772 
768.646291  	83.290277 
769.610716  	83.436758 
770.575140  	83.601866 
771.539565  	83.745794 
772.503989  	83.760860 
773.468414  	83.958734 
774.432838  	84.171305 
775.397263  	84.291122 
776.361687  	84.205524 
777.326112  	84.350933 
778.290536  	84.562934 
779.254960  	84.745968 
780.219385  	84.821630 
781.183809  	85.195444 
782.148234  	85.005710 
783.112658  	84.870091 
784.077083  	85.032502 
785.041507  	85.234423 
786.005932  	85.372643 
786.970356  	85.235151 
787.934781  	85.177812 
788.899205  	85.351836 
789.863629  	85.547575 
790.828054  	85.526841 
791.792478  	85.524000 
792.756903  	85.561887 
793.721327  	85.611461 
794.685752  	85.615437 
795.650176  	85.699008 
796.614601  	85.735336 
797.579025  	85.823774 
798.543450  	85.832734 
799.507874  	85.900273 
800.472298  	86.187526 
801.436723  	86.435771 
802.401147  	86.487841 
803.365572  	86.557597 
804.329996  	86.726889 
805.294421  	86.885479 
806.258845  	87.022407 
807.223270  	87.107635 
808.187694  	87.100246 
809.152119  	87.243886 
810.116543  	87.320045 
811.080967  	87.298946 
812.045392  	87.287645 
813.009816  	87.308881 
813.974241  	87.401676 
814.938665  	87.595412 
815.903090  	87.643133 
816.867514  	87.594716 
817.831939  	87.690426 
818.796363  	87.939403 
819.760788  	88.125597 
820.725212  	88.189806 
821.689637  	88.239551 
822.654061  	88.350481 
823.618485  	88.398843 
824.582910  	88.407174 
825.547334  	88.368745 
826.511759  	88.405681 
827.476183  	88.551522 
828.440608  	88.695472 
829.405032  	88.724363 
830.369457  	88.720198 
831.333881  	88.774552 
832.298306  	88.813216 
833.262730  	88.763087 
834.227154  	88.833321 
835.191579  	88.949573 
836.156003  	89.006139 
837.120428  	89.000782 
838.084852  	88.951669 
839.049277  	88.966032 
840.013701  	89.034059 
840.978126  	89.071107 
841.942550  	89.158873 
842.906975  	89.225027 
843.871399  	89.192902 
844.835823  	89.161898 
845.800248  	89.161043 
846.764672  	89.191387 
847.729097  	89.346108 
848.693521  	89.358984 
849.657946  	89.336675 
850.622370  	89.355684 
851.586795  	89.372041 
852.551219  	89.315065 
853.515644  	89.328329 
854.480068  	89.405597 
855.444492  	89.405367 
856.408917  	89.417479 
857.373341  	89.451638 
858.337766  	89.498841 
859.302190  	89.570596 
860.266615  	89.541081 
861.231039  	89.583801 
862.195464  	89.630984 
863.159888  	89.599582 
864.124313  	89.637134 
865.088737  	89.644042 
866.053161  	89.670555 
867.017586  	89.697411 
867.982010  	89.652951 
868.946435  	89.720662 
869.910859  	89.769042 
870.875284  	89.741132 
871.839708  	89.694400 
872.804133  	89.682641 
873.768557  	89.686052 
874.732982  	89.638224 
875.697406  	89.593768 
876.661831  	89.520505 
877.626255  	89.454706 
878.590679  	89.462850 
879.555104  	89.470411 
880.519528  	89.429420 
881.483953  	89.392595 
882.448377  	89.371505 
883.412802  	89.411066 
884.377226  	89.427813 
885.341651  	89.390516 
886.306075  	89.352235 
887.270500  	89.365359 
888.234924  	89.410102 
889.199348  	89.347791 
890.163773  	89.202614 
891.128197  	89.173406 
892.092622  	89.227930 
893.057046  	89.151964 
894.021471  	89.013667 
894.985895  	88.976720 
895.950320  	88.894144 
896.914744  	88.776528 
897.879169  	88.669414 
898.843593  	88.506097 
899.808017  	88.257696 
900.772442  	87.915101 
901.736866  	87.568136 
902.701291  	87.278166 
903.665715  	86.952933 
904.630140  	86.658200 
905.594564  	86.487534 
906.558989  	86.513296 
907.523413  	86.791674 
908.487838  	87.073647 
909.452262  	87.332685 
910.416686  	87.629227 
911.381111  	87.807452 
912.345535  	87.813749 
913.309960  	87.755072 
914.274384  	87.691487 
915.238809  	87.599161 
916.203233  	87.494703 
917.167658  	87.410340 
918.132082  	87.263218 
919.096507  	87.109941 
920.060931  	86.990225 
921.025355  	86.789889 
921.989780  	86.518836 
922.954204  	86.274823 
923.918629  	85.982951 
924.883053  	85.692478 
925.847478  	85.327016 
926.811902  	84.850865 
927.776327  	84.329231 
928.740751  	83.810883 
929.705176  	83.201374 
930.669600  	82.437121 
931.634024  	81.669619 
932.598449  	81.003880 
933.562873  	80.485027 
934.527298  	80.286369 
935.491722  	80.510464 
936.456147  	81.155694 
937.420571  	82.126688 
938.384996  	83.151518 
939.349420  	84.077690 
940.313845  	84.904410 
941.278269  	85.640198 
942.242694  	86.247435 
943.207118  	86.666212 
944.171542  	86.999583 
945.135967  	87.304710 
946.100391  	87.548669 
947.064816  	87.684096 
948.029240  	87.822068 
948.993665  	87.970973 
949.958089  	88.086261 
950.922514  	88.200881 
951.886938  	88.330225 
952.851363  	88.388751 
953.815787  	88.432069 
954.780211  	88.520436 
955.744636  	88.613842 
956.709060  	88.695813 
957.673485  	88.750712 
958.637909  	88.757613 
959.602334  	88.750733 
960.566758  	88.790262 
961.531183  	88.814949 
962.495607  	88.809891 
963.460032  	88.851818 
964.424456  	88.923294 
965.388880  	88.884545 
966.353305  	88.853036 
967.317729  	88.925858 
968.282154  	88.957086 
969.246578  	88.938189 
970.211003  	88.930044 
971.175427  	88.914530 
972.139852  	88.878763 
973.104276  	88.827026 
974.068701  	88.764091 
975.033125  	88.769484 
975.997549  	88.783754 
976.961974  	88.720412 
977.926398  	88.668690 
978.890823  	88.638572 
979.855247  	88.572562 
980.819672  	88.477690 
981.784096  	88.426525 
982.748521  	88.379916 
983.712945  	88.238635 
984.677370  	88.041342 
985.641794  	87.923022 
986.606218  	87.864135 
987.570643  	87.807323 
988.535067  	87.789746 
989.499492  	87.807780 
990.463916  	87.818271 
991.428341  	87.765139 
992.392765  	87.672944 
993.357190  	87.600688 
994.321614  	87.526911 
995.286039  	87.456177 
996.250463  	87.399161 
997.214888  	87.360976 
998.179312  	87.321995 
999.143736  	87.278447 
1000.108161  	87.230040 
1001.072585  	87.175375 
1002.037010  	87.147403 
1003.001434  	87.075996 
1003.965859  	86.985744 
1004.930283  	86.952542 
1005.894708  	86.864019 
1006.859132  	86.728526 
1007.823557  	86.629149 
1008.787981  	86.567220 
1009.752405  	86.449236 
1010.716830  	86.322368 
1011.681254  	86.273998 
1012.645679  	86.271013 
1013.610103  	86.246880 
1014.574528  	86.174594 
1015.538952  	86.122468 
1016.503377  	86.158117 
1017.467801  	86.175584 
1018.432226  	86.143054 
1019.396650  	86.107860 
1020.361074  	86.090155 
1021.325499  	86.071214 
1022.289923  	86.019152 
1023.254348  	85.959940 
1024.218772  	85.878164 
1025.183197  	85.797379 
1026.147621  	85.703106 
1027.112046  	85.650081 
1028.076470  	85.562173 
1029.040895  	85.457370 
1030.005319  	85.381327 
1030.969743  	85.324109 
1031.934168  	85.296057 
1032.898592  	85.268371 
1033.863017  	85.178656 
1034.827441  	85.054154 
1035.791866  	84.983621 
1036.756290  	84.921769 
1037.720715  	84.879656 
1038.685139  	84.838990 
1039.649564  	84.859602 
1040.613988  	84.856929 
1041.578412  	84.833327 
1042.542837  	84.883159 
1043.507261  	84.961208 
1044.471686  	85.018782 
1045.436110  	85.069939 
1046.400535  	85.149406 
1047.364959  	85.241758 
1048.329384  	85.289653 
1049.293808  	85.325318 
1050.258233  	85.390752 
1051.222657  	85.440622 
1052.187081  	85.436431 
1053.151506  	85.386398 
1054.115930  	85.406426 
1055.080355  	85.382710 
1056.044779  	85.280577 
1057.009204  	85.223551 
1057.973628  	85.215642 
1058.938053  	85.219951 
1059.902477  	85.142283 
1060.866902  	85.031864 
1061.831326  	85.024462 
1062.795751  	85.008183 
1063.760175  	84.951385 
1064.724599  	84.927994 
1065.689024  	85.002360 
1066.653448  	85.146260 
1067.617873  	85.295564 
1068.582297  	85.425465 
1069.546722  	85.586010 
1070.511146  	85.774838 
1071.475571  	85.911002 
1072.439995  	86.013499 
1073.404420  	86.106455 
1074.368844  	86.211235 
1075.333268  	86.248670 
1076.297693  	86.224312 
1077.262117  	86.180280 
1078.226542  	86.236384 
1079.190966  	86.244883 
1080.155391  	86.157698 
1081.119815  	86.133297 
1082.084240  	86.140187 
1083.048664  	86.100485 
1084.013089  	86.097818 
1084.977513  	86.069159 
1085.941937  	85.933984 
1086.906362  	85.777533 
1087.870786  	85.679042 
1088.835211  	85.625270 
1089.799635  	85.578825 
1090.764060  	85.534243 
1091.728484  	85.492243 
1092.692909  	85.446536 
1093.657333  	85.342429 
1094.621758  	85.252717 
1095.586182  	85.269817 
1096.550606  	85.259775 
1097.515031  	85.248429 
1098.479455  	85.277596 
1099.443880  	85.301114 
1100.408304  	85.301466 
1101.372729  	85.295923 
1102.337153  	85.292763 
1103.301578  	85.300709 
1104.266002  	85.306019 
1105.230427  	85.317912 
1106.194851  	85.304827 
1107.159275  	85.323200 
1108.123700  	85.328427 
1109.088124  	85.322247 
1110.052549  	85.326201 
1111.016973  	85.346847 
1111.981398  	85.321599 
1112.945822  	85.343119 
1113.910247  	85.392526 
1114.874671  	85.373422 
1115.839096  	85.344718 
1116.803520  	85.331814 
1117.767945  	85.282976 
1118.732369  	85.247429 
1119.696793  	85.244728 
1120.661218  	85.169226 
1121.625642  	85.052530 
1122.590067  	84.987404 
1123.554491  	84.922452 
1124.518916  	84.817938 
1125.483340  	84.739276 
1126.447765  	84.667502 
1127.412189  	84.554572 
1128.376614  	84.425758 
1129.341038  	84.269573 
1130.305462  	84.091290 
1131.269887  	83.860206 
1132.234311  	83.534375 
1133.198736  	83.124823 
1134.163160  	82.668064 
1135.127585  	82.142135 
1136.092009  	81.573704 
1137.056434  	81.113124 
1138.020858  	80.828628 
1138.985283  	80.687282 
1139.949707  	80.627134 
1140.914131  	80.670552 
1141.878556  	80.785600 
1142.842980  	80.818848 
1143.807405  	80.816580 
1144.771829  	80.859944 
1145.736254  	80.875006 
1146.700678  	80.855443 
1147.665103  	80.864005 
1148.629527  	80.930302 
1149.593952  	81.057847 
1150.558376  	81.246141 
1151.522800  	81.424558 
1152.487225  	81.626266 
1153.451649  	81.869901 
1154.416074  	82.118919 
1155.380498  	82.281659 
1156.344923  	82.403234 
1157.309347  	82.548467 
1158.273772  	82.629339 
1159.238196  	82.605066 
1160.202621  	82.608229 
1161.167045  	82.602767 
1162.131469  	82.521627 
1163.095894  	82.407477 
1164.060318  	82.285584 
1165.024743  	82.125947 
1165.989167  	81.949237 
1166.953592  	81.756549 
1167.918016  	81.522494 
1168.882441  	81.218866 
1169.846865  	80.846812 
1170.811290  	80.411012 
1171.775714  	79.952654 
1172.740138  	79.461949 
1173.704563  	78.847416 
1174.668987  	78.183975 
1175.633412  	77.656407 
1176.597836  	77.162905 
1177.562261  	76.699993 
1178.526685  	76.370082 
1179.491110  	76.261525 
1180.455534  	76.298140 
1181.419959  	76.470759 
1182.384383  	76.687112 
1183.348808  	76.899171 
1184.313232  	77.117145 
1185.277656  	77.270914 
1186.242081  	77.347077 
1187.206505  	77.332494 
1188.170930  	77.220505 
1189.135354  	76.938229 
1190.099779  	76.495772 
1191.064203  	75.959739 
1192.028628  	75.301230 
1192.993052  	74.469567 
1193.957477  	73.585909 
1194.921901  	72.751539 
1195.886325  	72.073331 
1196.850750  	71.701384 
1197.815174  	71.751098 
1198.779599  	72.271268 
1199.744023  	73.166208 
1200.708448  	74.218324 
1201.672872  	75.334940 
1202.637297  	76.449710 
1203.601721  	77.453605 
1204.566146  	78.281460 
1205.530570  	78.958348 
1206.494994  	79.533947 
1207.459419  	80.010217 
1208.423843  	80.355330 
1209.388268  	80.564009 
1210.352692  	80.731121 
1211.317117  	80.837017 
1212.281541  	80.831654 
1213.245966  	80.876243 
1214.210390  	80.919894 
1215.174815  	80.868267 
1216.139239  	80.794775 
1217.103663  	80.709986 
1218.068088  	80.588105 
1219.032512  	80.403340 
1219.996937  	80.128708 
1220.961361  	79.772294 
1221.925786  	79.350098 
1222.890210  	78.901133 
1223.854635  	78.562732 
1224.819059  	78.436289 
1225.783484  	78.600729 
1226.747908  	78.865969 
1227.712332  	79.042484 
1228.676757  	79.100111 
1229.641181  	79.018259 
1230.605606  	78.847634 
1231.570030  	78.660773 
1232.534455  	78.467155 
1233.498879  	78.283979 
1234.463304  	78.098915 
1235.427728  	77.914980 
1236.392153  	77.787769 
1237.356577  	77.681953 
1238.321002  	77.562701 
1239.285426  	77.461360 
1240.249850  	77.364197 
1241.214275  	77.267692 
1242.178699  	77.141936 
1243.143124  	76.980391 
1244.107548  	76.829307 
1245.071973  	76.758734 
1246.036397  	76.643867 
1247.000822  	76.477840 
1247.965246  	76.346216 
1248.929671  	76.233629 
1249.894095  	76.087989 
1250.858519  	75.914265 
1251.822944  	75.727980 
1252.787368  	75.531596 
1253.751793  	75.368943 
1254.716217  	75.189982 
1255.680642  	74.989011 
1256.645066  	74.783784 
1257.609491  	74.556462 
1258.573915  	74.285864 
1259.538340  	73.933493 
1260.502764  	73.553961 
1261.467188  	73.359381 
1262.431613  	73.115148 
1263.396037  	72.790421 
1264.360462  	72.488161 
1265.324886  	72.167149 
1266.289311  	71.834327 
1267.253735  	71.580543 
1268.218160  	71.314289 
1269.182584  	70.998223 
1270.147009  	70.686374 
1271.111433  	70.476730 
1272.075857  	70.290874 
1273.040282  	70.283495 
1274.004706  	70.317665 
1274.969131  	70.431418 
1275.933555  	70.659850 
1276.897980  	71.033042 
1277.862404  	71.558272 
1278.826829  	72.187795 
1279.791253  	72.830254 
1280.755678  	73.526872 
1281.720102  	74.286192 
1282.684526  	75.010202 
1283.648951  	75.632203 
1284.613375  	76.171767 
1285.577800  	76.684151 
1286.542224  	77.101939 
1287.506649  	77.334965 
1288.471073  	77.636357 
1289.435498  	78.083417 
1290.399922  	78.363908 
1291.364347  	78.574637 
1292.328771  	78.798325 
1293.293195  	78.973083 
1294.257620  	79.103835 
1295.222044  	79.163197 
1296.186469  	79.140461 
1297.150893  	79.153953 
1298.115318  	79.276336 
1299.079742  	79.273250 
1300.044167  	79.245215 
1301.008591  	79.247919 
1301.973016  	79.280317 
1302.937440  	79.298827 
1303.901865  	79.368715 
1304.866289  	79.497660 
1305.830713  	79.615378 
1306.795138  	79.698212 
1307.759562  	79.761403 
1308.723987  	79.907283 
1309.688411  	80.157795 
1310.652836  	80.264145 
1311.617260  	80.233748 
1312.581685  	79.975509 
1313.546109  	80.091907 
1314.510534  	80.294637 
1315.474958  	80.514275 
1316.439382  	80.457801 
1317.403807  	80.342685 
1318.368231  	80.321781 
1319.332656  	80.170016 
1320.297080  	80.417069 
1321.261505  	80.595654 
1322.225929  	80.682010 
1323.190354  	80.589171 
1324.154778  	80.522572 
1325.119203  	80.453559 
1326.083627  	80.378909 
1327.048051  	80.311493 
1328.012476  	80.248114 
1328.976900  	80.170223 
1329.941325  	80.092296 
1330.905749  	80.118277 
1331.870174  	80.186863 
1332.834598  	80.148082 
1333.799023  	80.088811 
1334.763447  	79.996377 
1335.727872  	79.673280 
1336.692296  	79.062216 
1337.656720  	78.835480 
1338.621145  	78.123121 
1339.585569  	77.369663 
1340.549994  	77.535538 
1341.514418  	78.639399 
1342.478843  	79.118841 
1343.443267  	78.994287 
1344.407692  	78.840304 
1345.372116  	78.724247 
1346.336541  	78.592770 
1347.300965  	78.427152 
1348.265389  	78.199438 
1349.229814  	77.872327 
1350.194238  	77.727717 
1351.158663  	77.615617 
1352.123087  	77.404552 
1353.087512  	77.192327 
1354.051936  	76.836343 
1355.016361  	76.362285 
1355.980785  	76.357984 
1356.945210  	76.265826 
1357.909634  	75.938006 
1358.874059  	75.741151 
1359.838483  	75.503758 
1360.802907  	74.698211 
1361.767332  	74.097636 
1362.731756  	73.170111 
1363.696181  	73.079334 
1364.660605  	74.086171 
1365.625030  	74.180805 
1366.589454  	73.962017 
1367.553879  	73.519424 
1368.518303  	72.900488 
1369.482728  	72.865202 
1370.447152  	73.207622 
1371.411576  	73.241453 
1372.376001  	73.179704 
1373.340425  	72.730709 
1374.304850  	72.586664 
1375.269274  	73.442043 
1376.233699  	74.610962 
1377.198123  	75.125518 
1378.162548  	75.270121 
1379.126972  	75.701063 
1380.091397  	76.152982 
1381.055821  	76.639181 
1382.020245  	76.947338 
1382.984670  	77.212770 
1383.949094  	77.455835 
1384.913519  	77.634223 
1385.877943  	77.387609 
1386.842368  	76.567353 
1387.806792  	76.607626 
1388.771217  	77.920020 
1389.735641  	78.567552 
1390.700066  	78.745718 
1391.664490  	78.990627 
1392.628914  	79.266741 
1393.593339  	78.894670 
1394.557763  	77.907067 
1395.522188  	77.984140 
1396.486612  	78.897336 
1397.451037  	79.005011 
1398.415461  	78.476102 
1399.379886  	78.426633 
1400.344310  	79.314732 
1401.308735  	79.760117 
1402.273159  	79.645501 
1403.237583  	79.342440 
1404.202008  	78.548425 
1405.166432  	77.563647 
1406.130857  	77.851882 
1407.095281  	77.865864 
1408.059706  	77.223540 
1409.024130  	76.367769 
1409.988555  	75.206941 
1410.952979  	73.904494 
1411.917404  	72.365270 
1412.881828  	71.081861 
1413.846252  	69.714647 
1414.810677  	68.327922 
1415.775101  	67.125536 
1416.739526  	66.607498 
1417.703950  	67.056607 
1418.668375  	67.639685 
1419.632799  	69.150392 
1420.597224  	72.201547 
1421.561648  	73.422060 
1422.526073  	74.088167 
1423.490497  	73.717639 
1424.454922  	74.005973 
1425.419346  	75.341316 
1426.383770  	75.880654 
1427.348195  	75.932810 
1428.312619  	75.711305 
1429.277044  	75.208291 
1430.241468  	74.772772 
1431.205893  	75.064732 
1432.170317  	74.892919 
1433.134742  	74.484919 
1434.099166  	74.460659 
1435.063591  	74.119254 
1436.028015  	72.758092 
1436.992439  	71.984628 
1437.956864  	73.505372 
1438.921288  	74.169668 
1439.885713  	74.345303 
1440.850137  	74.431569 
1441.814562  	74.519806 
1442.778986  	74.628257 
1443.743411  	74.661621 
1444.707835  	74.641279 
1445.672260  	74.570034 
1446.636684  	74.377380 
1447.601108  	73.565067 
1448.565533  	73.470054 
1449.529957  	74.113471 
1450.494382  	74.052806 
1451.458806  	73.354454 
1452.423231  	72.646180 
1453.387655  	72.652053 
1454.352080  	71.907727 
1455.316504  	70.489935 
1456.280929  	69.217929 
1457.245353  	68.151498 
1458.209777  	67.892725 
1459.174202  	68.176185 
1460.138626  	68.732133 
1461.103051  	68.625136 
1462.067475  	67.824632 
1463.031900  	67.046519 
1463.996324  	66.098246 
1464.960749  	65.435434 
1465.925173  	66.799701 
1466.889598  	68.199380 
1467.854022  	69.371879 
1468.818446  	70.329094 
1469.782871  	70.642725 
1470.747295  	70.007560 
1471.711720  	68.055613 
1472.676144  	66.089280 
1473.640569  	65.876747 
1474.604993  	66.816769 
1475.569418  	66.885289 
1476.533842  	67.178918 
1477.498267  	69.253636 
1478.462691  	70.866967 
1479.427116  	72.197308 
1480.391540  	73.225144 
1481.355964  	74.025010 
1482.320389  	75.673007 
1483.284813  	76.885467 
1484.249238  	77.568989 
1485.213662  	77.726256 
1486.178087  	77.364472 
1487.142511  	76.809841 
1488.106936  	76.826844 
1489.071360  	75.791494 
1490.035785  	74.288515 
1491.000209  	75.275522 
1491.964633  	76.639573 
1492.929058  	76.961164 
1493.893482  	76.659041 
1494.857907  	76.018811 
1495.822331  	74.720307 
1496.786756  	73.921063 
1497.751180  	74.192336 
1498.715605  	73.439525 
1499.680029  	73.284723 
1500.644454  	73.327111 
1501.608878  	72.626056 
1502.573302  	72.245587 
1503.537727  	72.009935 
1504.502151  	71.085816 
1505.466576  	69.085175 
1506.431000  	65.285355 
1507.395425  	63.572347 
1508.359849  	64.603720 
1509.324274  	65.272906 
1510.288698  	65.449282 
1511.253123  	65.672277 
1512.217547  	64.793199 
1513.181971  	64.465216 
1514.146396  	63.982616 
1515.110820  	62.379893 
1516.075245  	60.721390 
1517.039669  	58.876387 
1518.004094  	59.190722 
1518.968518  	59.322699 
1519.932943  	57.772193 
1520.897367  	54.934769 
1521.861792  	54.249573 
1522.826216  	54.368144 
1523.790640  	54.272207 
1524.755065  	53.127435 
1525.719489  	51.856708 
1526.683914  	51.372289 
1527.648338  	50.453072 
1528.612763  	50.037853 
1529.577187  	50.181883 
1530.541612  	49.891682 
1531.506036  	49.032666 
1532.470461  	48.419897 
1533.434885  	47.815915 
1534.399309  	48.731488 
1535.363734  	49.588440 
1536.328158  	50.233262 
1537.292583  	50.694896 
1538.257007  	50.173000 
1539.221432  	48.887525 
1540.185856  	50.412507 
1541.150281  	51.904727 
1542.114705  	52.467629 
1543.079130  	53.648199 
1544.043554  	54.190206 
1545.007979  	54.674571 
1545.972403  	56.680380 
1546.936827  	58.294249 
1547.901252  	59.065742 
1548.865676  	59.223174 
1549.830101  	58.524541 
1550.794525  	59.969787 
1551.758950  	61.587519 
1552.723374  	62.096819 
1553.687799  	61.751044 
1554.652223  	61.878492 
1555.616648  	63.444488 
1556.581072  	63.799537 
1557.545496  	62.823621 
1558.509921  	60.498561 
1559.474345  	60.923255 
1560.438770  	64.600844 
1561.403194  	67.097673 
1562.367619  	68.119809 
1563.332043  	68.812693 
1564.296468  	69.015016 
1565.260892  	69.486688 
1566.225317  	70.675118 
1567.189741  	71.380373 
1568.154165  	71.512086 
1569.118590  	70.687900 
1570.083014  	71.455080 
1571.047439  	73.360196 
1572.011863  	74.180751 
1572.976288  	74.626440 
1573.940712  	75.041796 
1574.905137  	75.059481 
1575.869561  	74.419672 
1576.833986  	74.658095 
1577.798410  	75.939157 
1578.762834  	76.803217 
1579.727259  	77.305122 
1580.691683  	77.592783 
1581.656108  	77.837782 
1582.620532  	77.981135 
1583.584957  	78.116063 
1584.549381  	78.205437 
1585.513806  	78.273409 
1586.478230  	78.253059 
1587.442655  	78.253590 
1588.407079  	78.158226 
1589.371503  	77.928055 
1590.335928  	77.653111 
1591.300352  	77.509049 
1592.264777  	77.258212 
1593.229201  	77.006637 
1594.193626  	76.369299 
1595.158050  	75.903423 
1596.122475  	75.541844 
1597.086899  	75.153503 
1598.051324  	74.664697 
1599.015748  	74.016792 
1599.980173  	73.251613 
1600.944597  	72.352729 
1601.909021  	71.393229 
1602.873446  	70.357673 
1603.837870  	69.388753 
1604.802295  	68.660514 
1605.766719  	67.641949 
1606.731144  	66.462679 
1607.695568  	65.433943 
1608.659993  	64.632846 
1609.624417  	63.438443 
1610.588842  	62.748407 
1611.553266  	61.870397 
1612.517690  	60.768128 
1613.482115  	59.532048 
1614.446539  	58.295193 
1615.410964  	56.765648 
1616.375388  	54.893089 
1617.339813  	53.367132 
1618.304237  	53.180114 
1619.268662  	52.367580 
1620.233086  	51.411221 
1621.197511  	50.418476 
1622.161935  	49.399810 
1623.126359  	47.960218 
1624.090784  	47.513788 
1625.055208  	47.405412 
1626.019633  	46.947219 
1626.984057  	46.055268 
1627.948482  	45.224745 
1628.912906  	44.992308 
1629.877331  	44.825937 
1630.841755  	44.512871 
1631.806180  	44.475499 
1632.770604  	44.589692 
1633.735028  	44.712430 
1634.699453  	44.166505 
1635.663877  	44.560440 
1636.628302  	46.569151 
1637.592726  	47.593007 
1638.557151  	49.337026 
1639.521575  	50.685866 
1640.486000  	51.872099 
1641.450424  	53.253143 
1642.414849  	54.527076 
1643.379273  	56.006493 
1644.343697  	57.138251 
1645.308122  	57.499863 
1646.272546  	57.926971 
1647.236971  	59.124053 
1648.201395  	60.836022 
1649.165820  	63.424906 
1650.130244  	64.889595 
1651.094669  	65.614318 
1652.059093  	65.273827 
1653.023518  	63.523923 
1653.987942  	65.708075 
1654.952366  	69.045800 
1655.916791  	71.182663 
1656.881215  	72.397628 
1657.845640  	73.595795 
1658.810064  	74.801452 
1659.774489  	75.783180 
1660.738913  	76.439742 
1661.703338  	76.788951 
1662.667762  	77.112199 
1663.632187  	78.707284 
1664.596611  	80.145331 
1665.561036  	81.128279 
1666.525460  	82.027330 
1667.489884  	82.382424 
1668.454309  	81.799539 
1669.418733  	81.830055 
1670.383158  	83.548198 
1671.347582  	83.969325 
1672.312007  	84.964406 
1673.276431  	86.131679 
1674.240856  	86.299214 
1675.205280  	85.572972 
1676.169705  	86.550229 
1677.134129  	87.894168 
1678.098553  	88.499910 
1679.062978  	88.488918 
1680.027402  	87.480740 
1680.991827  	87.985041 
1681.956251  	89.208094 
1682.920676  	88.531121 
1683.885100  	85.310712 
1684.849525  	85.549789 
1685.813949  	89.386476 
1686.778374  	90.604047 
1687.742798  	90.394493 
1688.707222  	90.013082 
1689.671647  	90.543070 
1690.636071  	90.953443 
1691.600496  	91.753700 
1692.564920  	92.008649 
1693.529345  	91.922266 
1694.493769  	91.446059 
1695.458194  	90.174840 
1696.422618  	89.021708 
1697.387043  	90.144074 
1698.351467  	90.689619 
1699.315891  	90.354102 
1700.280316  	87.723466 
1701.244740  	89.335793 
1702.209165  	90.947223 
1703.173589  	91.401306 
1704.138014  	90.851557 
1705.102438  	90.598521 
1706.066863  	90.702085 
1707.031287  	90.711508 
1707.995712  	91.631391 
1708.960136  	92.057192 
1709.924560  	91.527817 
1710.888985  	91.455487 
1711.853409  	91.917487 
1712.817834  	91.653604 
1713.782258  	90.748533 
1714.746683  	89.548310 
1715.711107  	89.537802 
1716.675532  	89.772966 
1717.639956  	88.354266 
1718.604381  	88.000794 
1719.568805  	90.291809 
1720.533230  	91.264501 
1721.497654  	91.344268 
1722.462078  	91.183226 
1723.426503  	90.682505 
1724.390927  	90.780120 
1725.355352  	91.208451 
1726.319776  	91.174483 
1727.284201  	91.075629 
1728.248625  	90.977583 
1729.213050  	90.257094 
1730.177474  	88.915493 
1731.141899  	89.700870 
1732.106323  	89.997162 
1733.070747  	88.750035 
1734.035172  	86.522367 
1734.999596  	88.183357 
1735.964021  	90.263252 
1736.928445  	90.824854 
1737.892870  	90.772070 
1738.857294  	90.650395 
1739.821719  	90.056517 
1740.786143  	90.859707 
1741.750568  	91.614808 
1742.714992  	90.928064 
1743.679416  	89.905789 
1744.643841  	90.813462 
1745.608265  	91.455582 
1746.572690  	91.221569 
1747.537114  	90.752380 
1748.501539  	90.380129 
1749.465963  	90.462591 
1750.430388  	90.928094 
1751.394812  	90.170510 
1752.359237  	91.377392 
1753.323661  	92.575942 
1754.288085  	93.045720 
1755.252510  	93.075270 
1756.216934  	92.408970 
1757.181359  	91.702572 
1758.145783  	92.394471 
1759.110208  	92.845578 
1760.074632  	93.063907 
1761.039057  	92.458520 
1762.003481  	91.492318 
1762.967906  	92.450206 
1763.932330  	93.224783 
1764.896754  	93.370031 
1765.861179  	93.401222 
1766.825603  	93.187398 
1767.790028  	92.183339 
1768.754452  	91.831798 
1769.718877  	92.934582 
1770.683301  	92.706254 
1771.647726  	91.595283 
1772.612150  	91.080253 
1773.576575  	92.231066 
1774.540999  	92.940259 
1775.505423  	92.564916 
1776.469848  	92.807473 
1777.434272  	93.497054 
1778.398697  	93.293151 
1779.363121  	92.988156 
1780.327546  	92.505222 
1781.291970  	92.383601 
1782.256395  	93.146658 
1783.220819  	93.512533 
1784.185244  	93.115516 
1785.149668  	92.504577 
1786.114093  	93.104662 
1787.078517  	93.574438 
1788.042941  	93.528391 
1789.007366  	93.436099 
1789.971790  	93.102523 
1790.936215  	92.136710 
1791.900639  	91.646086 
1792.865064  	91.596328 
1793.829488  	92.581969 
1794.793913  	93.106137 
1795.758337  	92.423376 
1796.722762  	92.438621 
1797.687186  	93.228523 
1798.651610  	93.294137 
1799.616035  	92.686253 
1800.580459  	92.650606 
1801.544884  	92.441406 
1802.509308  	92.270013 
1803.473733  	93.086565 
1804.438157  	93.632369 
1805.402582  	93.601969 
1806.367006  	93.564117 
1807.331431  	93.274256 
1808.295855  	93.139462 
1809.260279  	93.428858 
1810.224704  	92.974392 
1811.189128  	92.558898 
1812.153553  	92.942612 
1813.117977  	93.321797 
1814.082402  	93.701278 
1815.046826  	93.729512 
1816.011251  	93.755421 
1816.975675  	93.475958 
1817.940100  	93.288030 
1818.904524  	93.575836 
1819.868948  	93.717533 
1820.833373  	93.644404 
1821.797797  	93.547170 
1822.762222  	93.290156 
1823.726646  	93.290727 
1824.691071  	92.669556 
1825.655495  	91.920275 
1826.619920  	92.964368 
1827.584344  	93.500391 
1828.548769  	93.071094 
1829.513193  	91.913673 
1830.477617  	91.876806 
1831.442042  	93.113894 
1832.406466  	93.511908 
1833.370891  	93.349200 
1834.335315  	93.501624 
1835.299740  	93.715447 
1836.264164  	93.487321 
1837.228589  	92.934187 
1838.193013  	93.138915 
1839.157438  	93.563207 
1840.121862  	93.624780 
1841.086287  	93.545365 
1842.050711  	93.091977 
1843.015135  	92.800082 
1843.979560  	92.131961 
1844.943984  	91.869360 
1845.908409  	92.693138 
1846.872833  	92.980811 
1847.837258  	92.451485 
1848.801682  	92.743982 
1849.766107  	93.437623 
1850.730531  	93.720129 
1851.694956  	93.702025 
1852.659380  	93.704732 
1853.623804  	93.722972 
1854.588229  	93.677725 
1855.552653  	93.621664 
1856.517078  	93.542708 
1857.481502  	93.482047 
1858.445927  	93.356454 
1859.410351  	93.313842 
1860.374776  	93.399060 
1861.339200  	93.317132 
1862.303625  	93.396835 
1863.268049  	93.554485 
1864.232473  	93.559035 
1865.196898  	93.540275 
1866.161322  	93.212917 
1867.125747  	92.712586 
1868.090171  	92.074792 
1869.054596  	91.615254 
1870.019020  	92.151993 
1870.983445  	92.860297 
1871.947869  	93.394583 
1872.912294  	93.664323 
1873.876718  	93.704738 
1874.841142  	93.601811 
1875.805567  	93.556449 
1876.769991  	93.585654 
1877.734416  	93.644866 
1878.698840  	93.537123 
1879.663265  	93.453714 
1880.627689  	93.501150 
1881.592114  	93.521425 
1882.556538  	93.559243 
1883.520963  	93.585301 
1884.485387  	93.400058 
1885.449811  	93.344086 
1886.414236  	93.541688 
1887.378660  	93.602645 
1888.343085  	93.414697 
1889.307509  	92.583802 
1890.271934  	92.422459 
1891.236358  	93.238276 
1892.200783  	93.494948 
1893.165207  	93.481208 
1894.129632  	93.306544 
1895.094056  	92.878102 
1896.058480  	93.062101 
1897.022905  	93.490362 
1897.987329  	93.429965 
1898.951754  	93.415265 
1899.916178  	93.478290 
1900.880603  	93.582828 
1901.845027  	93.480437 
1902.809452  	93.523778 
1903.773876  	93.503083 
1904.738301  	93.538544 
1905.702725  	93.506167 
1906.667150  	93.555072 
1907.631574  	93.298205 
1908.595998  	93.176254 
1909.560423  	93.032554 
1910.524847  	92.910271 
1911.489272  	93.346594 
1912.453696  	93.520692 
1913.418121  	93.427066 
1914.382545  	93.389695 
1915.346970  	93.452281 
1916.311394  	93.458136 
1917.275819  	93.056294 
1918.240243  	92.426276 
1919.204667  	92.956804 
1920.169092  	93.407640 
1921.133516  	93.270090 
1922.097941  	92.691351 
1923.062365  	91.942831 
1924.026790  	92.884459 
1924.991214  	93.643665 
1925.955639  	93.502628 
1926.920063  	93.514404 
1927.884488  	93.596035 
1928.848912  	93.597561 
1929.813336  	93.594426 
1930.777761  	93.595158 
1931.742185  	93.663436 
1932.706610  	93.613057 
1933.671034  	93.804796 
1934.635459  	93.862836 
1935.599883  	93.805628 
1936.564308  	93.770985 
1937.528732  	93.599770 
1938.493157  	93.522883 
1939.457581  	93.695455 
1940.422005  	93.579286 
1941.386430  	93.225663 
1942.350854  	92.349485 
1943.315279  	92.567731 
1944.279703  	93.505226 
1945.244128  	93.547145 
1946.208552  	93.382967 
1947.172977  	93.432446 
1948.137401  	93.642258 
1949.101826  	93.715763 
1950.066250  	93.830450 
1951.030674  	93.811816 
1951.995099  	93.670732 
1952.959523  	93.698402 
1953.923948  	93.692797 
1954.888372  	93.647576 
1955.852797  	93.653814 
1956.817221  	93.976400 
1957.781646  	94.137477 
1958.746070  	93.947250 
1959.710495  	93.792900 
1960.674919  	93.886232 
1961.639344  	93.861785 
1962.603768  	93.647142 
1963.568192  	93.480300 
1964.532617  	93.916272 
1965.497041  	94.073272 
1966.461466  	93.613191 
1967.425890  	93.253025 
1968.390315  	93.946807 
1969.354739  	94.040416 
1970.319164  	93.730398 
1971.283588  	93.854992 
1972.248013  	93.901681 
1973.212437  	93.809663 
1974.176861  	93.709630 
1975.141286  	93.610611 
1976.105710  	93.916637 
1977.070135  	94.195575 
1978.034559  	94.185343 
1978.998984  	93.417734 
1979.963408  	92.856665 
1980.927833  	92.847158 
1981.892257  	93.155715 
1982.856682  	93.382865 
1983.821106  	93.464810 
1984.785530  	93.405836 
1985.749955  	93.316713 
1986.714379  	93.467375 
1987.678804  	93.260585 
1988.643228  	92.954096 
1989.607653  	93.295649 
1990.572077  	93.336975 
1991.536502  	92.759383 
1992.500926  	92.422720 
1993.465351  	92.799201 
1994.429775  	93.208359 
1995.394199  	93.502272 
1996.358624  	93.498606 
1997.323048  	93.413536 
1998.287473  	93.461681 
1999.251897  	93.764881 
2000.216322  	94.021210 
2001.180746  	94.242452 
2002.145171  	94.178586 
2003.109595  	94.127443 
2004.074020  	94.013027 
2005.038444  	93.998135 
2006.002868  	93.907923 
2006.967293  	94.085239 
2007.931717  	93.797172 
2008.896142  	93.796021 
2009.860566  	93.831280 
2010.824991  	93.965559 
2011.789415  	93.971461 
2012.753840  	94.004939 
2013.718264  	93.879988 
2014.682689  	93.893595 
2015.647113  	93.743110 
2016.611537  	93.288001 
2017.575962  	93.244120 
2018.540386  	93.409528 
2019.504811  	93.651404 
2020.469235  	94.079704 
2021.433660  	94.174006 
2022.398084  	94.211728 
2023.362509  	93.983470 
2024.326933  	93.924443 
2025.291358  	93.795609 
2026.255782  	93.770200 
2027.220207  	93.747852 
2028.184631  	93.758782 
2029.149055  	93.881817 
2030.113480  	94.094392 
2031.077904  	94.122411 
2032.042329  	93.732223 
2033.006753  	93.408776 
2033.971178  	93.547566 
2034.935602  	93.576794 
2035.900027  	93.549948 
2036.864451  	93.410441 
2037.828876  	93.580050 
2038.793300  	93.615772 
2039.757724  	93.337390 
2040.722149  	93.158084 
2041.686573  	93.237504 
2042.650998  	93.265715 
2043.615422  	93.071064 
2044.579847  	93.077201 
2045.544271  	93.392425 
2046.508696  	93.428119 
2047.473120  	93.499685 
2048.437545  	93.450261 
2049.401969  	93.501436 
2050.366393  	93.206003 
2051.330818  	93.214622 
2052.295242  	93.430421 
2053.259667  	93.637510 
2054.224091  	93.599613 
2055.188516  	93.375254 
2056.152940  	93.419055 
2057.117365  	93.342537 
2058.081789  	93.326067 
2059.046214  	93.516003 
2060.010638  	93.397114 
2060.975062  	93.169539 
2061.939487  	93.169889 
2062.903911  	93.175696 
2063.868336  	93.081731 
2064.832760  	92.862549 
2065.797185  	92.921013 
2066.761609  	93.231365 
2067.726034  	93.458944 
2068.690458  	93.486699 
2069.654883  	93.370952 
2070.619307  	93.286345 
2071.583731  	93.201066 
2072.548156  	93.188692 
2073.512580  	93.205468 
2074.477005  	93.127407 
2075.441429  	93.126988 
2076.405854  	93.180294 
2077.370278  	93.103864 
2078.334703  	93.069036 
2079.299127  	93.123900 
2080.263552  	93.158365 
2081.227976  	93.132718 
2082.192401  	93.113610 
2083.156825  	92.960667 
2084.121249  	93.021943 
2085.085674  	93.310503 
2086.050098  	93.356674 
2087.014523  	93.237269 
2087.978947  	93.255564 
2088.943372  	93.207591 
2089.907796  	93.123825 
2090.872221  	93.186380 
2091.836645  	93.411023 
2092.801070  	93.403819 
2093.765494  	93.437285 
2094.729918  	93.416119 
2095.694343  	93.334593 
2096.658767  	93.267426 
2097.623192  	93.261869 
2098.587616  	93.210016 
2099.552041  	93.265354 
2100.516465  	93.305760 
2101.480890  	93.335760 
2102.445314  	93.267856 
2103.409739  	93.121630 
2104.374163  	93.135703 
2105.338587  	93.258927 
2106.303012  	93.135332 
2107.267436  	93.022839 
2108.231861  	93.095078 
2109.196285  	93.191353 
2110.160710  	93.175948 
2111.125134  	93.154632 
2112.089559  	92.977270 
2113.053983  	92.987370 
2114.018408  	93.057780 
2114.982832  	93.097429 
2115.947256  	93.017741 
2116.911681  	93.149366 
2117.876105  	93.361009 
2118.840530  	93.374983 
2119.804954  	93.341695 
2120.769379  	93.330955 
2121.733803  	93.336385 
2122.698228  	93.438370 
2123.662652  	93.325609 
2124.627077  	93.271669 
2125.591501  	93.378337 
2126.555925  	93.643838 
2127.520350  	93.662934 
2128.484774  	93.647522 
2129.449199  	93.752926 
2130.413623  	93.745648 
2131.378048  	93.763592 
2132.342472  	94.091925 
2133.306897  	94.074343 
2134.271321  	93.673430 
2135.235746  	93.311002 
2136.200170  	93.399370 
2137.164594  	93.696835 
2138.129019  	93.813490 
2139.093443  	93.669014 
2140.057868  	93.678893 
2141.022292  	93.672684 
2141.986717  	93.678136 
2142.951141  	93.559112 
2143.915566  	93.653951 
2144.879990  	93.728237 
2145.844415  	93.754665 
2146.808839  	93.695435 
2147.773264  	93.834701 
2148.737688  	93.779301 
2149.702112  	93.904383 
2150.666537  	94.019446 
2151.630961  	93.880106 
2152.595386  	93.894896 
2153.559810  	94.014186 
2154.524235  	94.220172 
2155.488659  	94.491331 
2156.453084  	94.710742 
2157.417508  	94.775793 
2158.381933  	94.427310 
2159.346357  	93.836867 
2160.310781  	93.420895 
2161.275206  	93.210135 
2162.239630  	93.270610 
2163.204055  	93.610799 
2164.168479  	93.450371 
2165.132904  	93.155833 
2166.097328  	93.402843 
2167.061753  	93.818049 
2168.026177  	93.405442 
2168.990602  	93.123174 
2169.955026  	93.343089 
2170.919450  	93.810539 
2171.883875  	93.597894 
2172.848299  	93.345914 
2173.812724  	93.422852 
2174.777148  	93.533509 
2175.741573  	93.445833 
2176.705997  	93.183513 
2177.670422  	93.247839 
2178.634846  	93.460664 
2179.599271  	93.305264 
2180.563695  	93.370107 
2181.528119  	93.569711 
2182.492544  	93.582861 
2183.456968  	93.097373 
2184.421393  	92.997797 
2185.385817  	93.551917 
2186.350242  	93.648667 
2187.314666  	93.199586 
2188.279091  	93.139193 
2189.243515  	93.224177 
2190.207940  	93.223357 
2191.172364  	93.317600 
2192.136788  	93.499728 
2193.101213  	93.365870 
2194.065637  	93.130275 
2195.030062  	93.037806 
2195.994486  	93.014598 
2196.958911  	93.152562 
2197.923335  	93.383721 
2198.887760  	93.312675 
2199.852184  	93.362779 
2200.816609  	93.352901 
2201.781033  	93.242176 
2202.745458  	93.163571 
2203.709882  	93.189233 
2204.674306  	93.103190 
2205.638731  	93.084458 
2206.603155  	93.058925 
2207.567580  	93.164917 
2208.532004  	93.108889 
2209.496429  	93.068799 
2210.460853  	93.059121 
2211.425278  	93.221147 
2212.389702  	93.302458 
2213.354127  	93.087894 
2214.318551  	92.932104 
2215.282975  	92.995533 
2216.247400  	93.115889 
2217.211824  	93.273143 
2218.176249  	93.290219 
2219.140673  	93.291397 
2220.105098  	93.157615 
2221.069522  	93.134702 
2222.033947  	93.332441 
2222.998371  	93.332748 
2223.962796  	93.258340 
2224.927220  	93.258850 
2225.891644  	93.018497 
2226.856069  	92.907963 
2227.820493  	92.936723 
2228.784918  	93.157141 
2229.749342  	93.181417 
2230.713767  	93.162331 
2231.678191  	93.137977 
2232.642616  	93.078600 
2233.607040  	93.344565 
2234.571465  	93.446066 
2235.535889  	93.258822 
2236.500313  	93.131270 
2237.464738  	93.080163 
2238.429162  	93.176857 
2239.393587  	93.239793 
2240.358011  	93.181985 
2241.322436  	93.198562 
2242.286860  	93.114572 
2243.251285  	93.115574 
2244.215709  	93.143276 
2245.180134  	93.032386 
2246.144558  	92.983762 
2247.108982  	93.084270 
2248.073407  	93.219005 
2249.037831  	93.180755 
2250.002256  	93.121297 
2250.966680  	93.164516 
2251.931105  	93.238266 
2252.895529  	93.178440 
2253.859954  	93.125950 
2254.824378  	93.175678 
2255.788803  	93.147854 
2256.753227  	93.041409 
2257.717651  	93.128422 
2258.682076  	93.107053 
2259.646500  	93.052954 
2260.610925  	93.015606 
2261.575349  	92.938508 
2262.539774  	92.966915 
2263.504198  	93.143853 
2264.468623  	93.091966 
2265.433047  	93.053103 
2266.397472  	93.071521 
2267.361896  	93.027441 
2268.326321  	93.054373 
2269.290745  	93.118000 
2270.255169  	93.166763 
2271.219594  	93.152534 
2272.184018  	92.942229 
2273.148443  	92.905812 
2274.112867  	92.981261 
2275.077292  	92.960233 
2276.041716  	92.914991 
2277.006141  	92.977182 
2277.970565  	93.008189 
2278.934990  	92.919525 
2279.899414  	92.823664 
2280.863838  	92.884322 
2281.828263  	92.849834 
2282.792687  	92.786664 
2283.757112  	92.812399 
2284.721536  	92.813761 
2285.685961  	92.776128 
2286.650385  	92.810985 
2287.614810  	92.713092 
2288.579234  	92.630522 
2289.543659  	92.654498 
2290.508083  	92.756041 
2291.472507  	92.743523 
2292.436932  	92.777817 
2293.401356  	92.751325 
2294.365781  	92.668466 
2295.330205  	92.692348 
2296.294630  	92.693924 
2297.259054  	92.683170 
2298.223479  	92.543784 
2299.187903  	92.525841 
2300.152328  	92.594064 
2301.116752  	92.587655 
2302.081176  	92.647488 
2303.045601  	92.535775 
2304.010025  	92.588720 
2304.974450  	92.438395 
2305.938874  	92.460366 
2306.903299  	92.414827 
2307.867723  	92.423092 
2308.832148  	92.304052 
2309.796572  	92.364037 
2310.760997  	92.422612 
2311.725421  	92.359461 
2312.689845  	92.454482 
2313.654270  	92.503500 
2314.618694  	92.578464 
2315.583119  	92.687650 
2316.547543  	92.732953 
2317.511968  	92.772095 
2318.476392  	92.736415 
2319.440817  	92.718148 
2320.405241  	92.735039 
2321.369666  	92.816033 
2322.334090  	92.839492 
2323.298515  	92.870932 
2324.262939  	92.853441 
2325.227363  	93.220708 
2326.191788  	93.589744 
2327.156212  	93.798428 
2328.120637  	93.818878 
2329.085061  	93.861288 
2330.049486  	93.972005 
2331.013910  	94.088024 
2331.978335  	94.183080 
2332.942759  	94.312093 
2333.907184  	94.461278 
2334.871608  	94.589813 
2335.836032  	94.749477 
2336.800457  	94.902167 
2337.764881  	94.873826 
2338.729306  	94.906283 
2339.693730  	94.859289 
2340.658155  	94.973609 
2341.622579  	94.994879 
2342.587004  	94.849843 
2343.551428  	94.626993 
2344.515853  	94.377901 
2345.480277  	94.154571 
2346.444701  	93.916473 
2347.409126  	93.648758 
2348.373550  	93.277045 
2349.337975  	93.169713 
2350.302399  	93.505449 
2351.266824  	93.890281 
2352.231248  	94.322007 
2353.195673  	94.589269 
2354.160097  	94.779775 
2355.124522  	94.885522 
2356.088946  	95.126409 
2357.053370  	95.339353 
2358.017795  	95.516421 
2358.982219  	95.436092 
2359.946644  	95.609851 
2360.911068  	95.666267 
2361.875493  	95.635126 
2362.839917  	95.551091 
2363.804342  	95.411285 
2364.768766  	95.231462 
2365.733191  	95.291493 
2366.697615  	95.059821 
2367.662039  	94.751609 
2368.626464  	94.444502 
2369.590888  	94.162878 
2370.555313  	94.041846 
2371.519737  	93.871258 
2372.484162  	93.586357 
2373.448586  	93.488382 
2374.413011  	93.304624 
2375.377435  	93.084560 
2376.341860  	92.912234 
2377.306284  	92.852447 
2378.270708  	92.761825 
2379.235133  	92.646708 
2380.199557  	92.656665 
2381.163982  	92.678655 
2382.128406  	92.695725 
2383.092831  	92.781911 
2384.057255  	92.815851 
2385.021680  	92.875068 
2385.986104  	92.944981 
2386.950529  	93.022219 
2387.914953  	93.070508 
2388.879378  	93.052769 
2389.843802  	93.111049 
2390.808226  	93.148920 
2391.772651  	93.118680 
2392.737075  	93.079369 
2393.701500  	93.078105 
2394.665924  	93.119566 
2395.630349  	93.134226 
2396.594773  	93.137542 
2397.559198  	93.151510 
2398.523622  	93.202626 
2399.488047  	93.204270 
2400.452471  	93.195083 
2401.416895  	93.162989 
2402.381320  	93.139501 
2403.345744  	93.167098 
2404.310169  	93.176191 
2405.274593  	93.144383 
2406.239018  	93.157561 
2407.203442  	93.163736 
2408.167867  	93.155473 
2409.132291  	93.135379 
2410.096716  	93.146365 
2411.061140  	93.115984 
2412.025564  	93.065794 
2412.989989  	93.055858 
2413.954413  	93.121812 
2414.918838  	93.164871 
2415.883262  	93.086460 
2416.847687  	93.030319 
2417.812111  	93.073137 
2418.776536  	93.077903 
2419.740960  	93.090217 
2420.705385  	93.133518 
2421.669809  	93.119487 
2422.634233  	93.076160 
2423.598658  	93.067999 
2424.563082  	93.049252 
2425.527507  	93.044037 
2426.491931  	93.044978 
2427.456356  	93.076441 
2428.420780  	93.119602 
2429.385205  	93.112706 
2430.349629  	93.083734 
2431.314054  	93.033992 
2432.278478  	93.055197 
2433.242902  	93.080534 
2434.207327  	93.056958 
2435.171751  	93.054530 
2436.136176  	93.069212 
2437.100600  	93.116383 
2438.065025  	93.089736 
2439.029449  	93.107166 
2439.993874  	93.118815 
2440.958298  	93.082213 
2441.922723  	93.023586 
2442.887147  	92.971965 
2443.851572  	92.984618 
2444.815996  	93.059398 
2445.780420  	93.035643 
2446.744845  	92.935451 
2447.709269  	92.921019 
2448.673694  	93.000452 
2449.638118  	93.022580 
2450.602543  	92.945069 
2451.566967  	92.898073 
2452.531392  	92.954857 
2453.495816  	92.933825 
2454.460241  	92.888123 
2455.424665  	92.915490 
2456.389089  	92.979008 
2457.353514  	92.927070 
2458.317938  	92.895391 
2459.282363  	92.906896 
2460.246787  	92.926902 
2461.211212  	92.928079 
2462.175636  	92.976179 
2463.140061  	93.011041 
2464.104485  	93.007219 
2465.068910  	92.966194 
2466.033334  	92.932280 
2466.997758  	92.964234 
2467.962183  	92.991761 
2468.926607  	92.911629 
2469.891032  	92.850472 
2470.855456  	92.889969 
2471.819881  	92.968863 
2472.784305  	93.013642 
2473.748730  	93.028374 
2474.713154  	92.993820 
2475.677579  	92.962413 
2476.642003  	92.908556 
2477.606427  	92.900233 
2478.570852  	92.978064 
2479.535276  	93.024296 
2480.499701  	92.974386 
2481.464125  	92.964574 
2482.428550  	92.984831 
2483.392974  	93.004604 
2484.357399  	93.021873 
2485.321823  	92.969883 
2486.286248  	92.879752 
2487.250672  	92.917640 
2488.215096  	92.981357 
2489.179521  	92.942843 
2490.143945  	92.841547 
2491.108370  	92.810075 
2492.072794  	92.888618 
2493.037219  	92.984878 
2494.001643  	93.036675 
2494.966068  	93.053725 
2495.930492  	93.023941 
2496.894917  	92.980594 
2497.859341  	92.954774 
2498.823765  	92.929797 
2499.788190  	92.947550 
2500.752614  	92.933585 
2501.717039  	92.866022 
2502.681463  	92.855749 
2503.645888  	92.850539 
2504.610312  	92.818540 
2505.574737  	92.812813 
2506.539161  	92.838915 
2507.503586  	92.902453 
2508.468010  	92.952055 
2509.432435  	92.898262 
2510.396859  	92.871458 
2511.361283  	92.891159 
2512.325708  	92.883890 
2513.290132  	92.906951 
2514.254557  	92.950574 
2515.218981  	92.908994 
2516.183406  	92.870159 
2517.147830  	92.930463 
2518.112255  	92.878132 
2519.076679  	92.832211 
2520.041104  	92.891983 
2521.005528  	92.912815 
2521.969952  	92.851262 
2522.934377  	92.805608 
2523.898801  	92.871623 
2524.863226  	92.903347 
2525.827650  	92.828522 
2526.792075  	92.823809 
2527.756499  	92.852497 
2528.720924  	92.820556 
2529.685348  	92.790224 
2530.649773  	92.832956 
2531.614197  	92.872773 
2532.578621  	92.867985 
2533.543046  	92.899789 
2534.507470  	92.883007 
2535.471895  	92.845969 
2536.436319  	92.820375 
2537.400744  	92.861905 
2538.365168  	92.829889 
2539.329593  	92.834041 
2540.294017  	92.850837 
2541.258442  	92.834887 
2542.222866  	92.813308 
2543.187290  	92.834265 
2544.151715  	92.857719 
2545.116139  	92.812735 
2546.080564  	92.743090 
2547.044988  	92.740362 
2548.009413  	92.710830 
2548.973837  	92.733478 
2549.938262  	92.763211 
2550.902686  	92.791659 
2551.867111  	92.800107 
2552.831535  	92.750494 
2553.795959  	92.738702 
2554.760384  	92.750338 
2555.724808  	92.720027 
2556.689233  	92.695741 
2557.653657  	92.665059 
2558.618082  	92.656687 
2559.582506  	92.724755 
2560.546931  	92.714854 
2561.511355  	92.675073 
2562.475780  	92.679833 
2563.440204  	92.642667 
2564.404629  	92.672042 
2565.369053  	92.679368 
2566.333477  	92.677864 
2567.297902  	92.700123 
2568.262326  	92.698249 
2569.226751  	92.622217 
2570.191175  	92.574459 
2571.155600  	92.623471 
2572.120024  	92.659374 
2573.084449  	92.632012 
2574.048873  	92.589192 
2575.013298  	92.553682 
2575.977722  	92.620984 
2576.942146  	92.655325 
2577.906571  	92.603195 
2578.870995  	92.582884 
2579.835420  	92.574046 
2580.799844  	92.548672 
2581.764269  	92.507878 
2582.728693  	92.508808 
2583.693118  	92.450692 
2584.657542  	92.376483 
2585.621967  	92.452164 
2586.586391  	92.489596 
2587.550815  	92.493197 
2588.515240  	92.471035 
2589.479664  	92.448234 
2590.444089  	92.426349 
2591.408513  	92.460924 
2592.372938  	92.453804 
2593.337362  	92.450122 
2594.301787  	92.468971 
2595.266211  	92.447069 
2596.230636  	92.458057 
2597.195060  	92.499840 
2598.159484  	92.536897 
2599.123909  	92.533059 
2600.088333  	92.512697 
2601.052758  	92.456840 
2602.017182  	92.418596 
2602.981607  	92.446657 
2603.946031  	92.470958 
2604.910456  	92.483026 
2605.874880  	92.442878 
2606.839305  	92.445271 
2607.803729  	92.437977 
2608.768153  	92.428541 
2609.732578  	92.401428 
2610.697002  	92.377682 
2611.661427  	92.432778 
2612.625851  	92.483564 
2613.590276  	92.477702 
2614.554700  	92.435327 
2615.519125  	92.384830 
2616.483549  	92.407020 
2617.447974  	92.418097 
2618.412398  	92.458053 
2619.376822  	92.450799 
2620.341247  	92.425917 
2621.305671  	92.413450 
2622.270096  	92.402368 
2623.234520  	92.398003 
2624.198945  	92.402354 
2625.163369  	92.416299 
2626.127794  	92.432121 
2627.092218  	92.424887 
2628.056643  	92.402363 
2629.021067  	92.376790 
2629.985492  	92.391075 
2630.949916  	92.445701 
2631.914340  	92.439733 
2632.878765  	92.393897 
2633.843189  	92.406404 
2634.807614  	92.364950 
2635.772038  	92.344896 
2636.736463  	92.336233 
2637.700887  	92.356689 
2638.665312  	92.366413 
2639.629736  	92.359950 
2640.594161  	92.355166 
2641.558585  	92.366454 
2642.523009  	92.354510 
2643.487434  	92.344888 
2644.451858  	92.365380 
2645.416283  	92.369048 
2646.380707  	92.324127 
2647.345132  	92.304634 
2648.309556  	92.307150 
2649.273981  	92.294326 
2650.238405  	92.307141 
2651.202830  	92.323865 
2652.167254  	92.294470 
2653.131678  	92.290598 
2654.096103  	92.287535 
2655.060527  	92.286615 
2656.024952  	92.298718 
2656.989376  	92.290414 
2657.953801  	92.264998 
2658.918225  	92.289272 
2659.882650  	92.304948 
2660.847074  	92.322449 
2661.811499  	92.345291 
2662.775923  	92.325931 
2663.740347  	92.311070 
2664.704772  	92.328202 
2665.669196  	92.365267 
2666.633621  	92.369198 
2667.598045  	92.340739 
2668.562470  	92.326759 
2669.526894  	92.308474 
2670.491319  	92.310597 
2671.455743  	92.349474 
2672.420168  	92.384628 
2673.384592  	92.350313 
2674.349016  	92.330743 
2675.313441  	92.325629 
2676.277865  	92.300741 
2677.242290  	92.271168 
2678.206714  	92.278062 
2679.171139  	92.285655 
2680.135563  	92.256657 
2681.099988  	92.271036 
2682.064412  	92.299855 
2683.028837  	92.289804 
2683.993261  	92.263082 
2684.957686  	92.254063 
2685.922110  	92.259958 
2686.886534  	92.230438 
2687.850959  	92.217783 
2688.815383  	92.255673 
2689.779808  	92.259032 
2690.744232  	92.222950 
2691.708657  	92.213098 
2692.673081  	92.213908 
2693.637506  	92.205806 
2694.601930  	92.199258 
2695.566355  	92.223210 
2696.530779  	92.215927 
2697.495203  	92.204271 
2698.459628  	92.213516 
2699.424052  	92.205395 
2700.388477  	92.177150 
2701.352901  	92.168171 
2702.317326  	92.171226 
2703.281750  	92.193476 
2704.246175  	92.194441 
2705.210599  	92.182619 
2706.175024  	92.156435 
2707.139448  	92.147895 
2708.103872  	92.154893 
2709.068297  	92.174254 
2710.032721  	92.150475 
2710.997146  	92.140965 
2711.961570  	92.140941 
2712.925995  	92.132162 
2713.890419  	92.129357 
2714.854844  	92.122073 
2715.819268  	92.117463 
2716.783693  	92.111812 
2717.748117  	92.102550 
2718.712541  	92.080314 
2719.676966  	92.067440 
2720.641390  	92.066071 
2721.605815  	92.059950 
2722.570239  	92.032098 
2723.534664  	92.023093 
2724.499088  	91.996068 
2725.463513  	91.962737 
2726.427937  	91.939267 
2727.392362  	91.925386 
2728.356786  	91.892846 
2729.321210  	91.843010 
2730.285635  	91.841946 
2731.250059  	91.802848 
2732.214484  	91.786399 
2733.178908  	91.803305 
2734.143333  	91.791135 
2735.107757  	91.766360 
2736.072182  	91.783256 
2737.036606  	91.787185 
2738.001031  	91.752410 
2738.965455  	91.713984 
2739.929879  	91.707058 
2740.894304  	91.683178 
2741.858728  	91.665310 
2742.823153  	91.632226 
2743.787577  	91.627199 
2744.752002  	91.635997 
2745.716426  	91.595711 
2746.680851  	91.548956 
2747.645275  	91.566377 
2748.609700  	91.587191 
2749.574124  	91.576369 
2750.538549  	91.551937 
2751.502973  	91.521358 
2752.467397  	91.550479 
2753.431822  	91.562525 
2754.396246  	91.527005 
2755.360671  	91.515103 
2756.325095  	91.540758 
2757.289520  	91.516712 
2758.253944  	91.499324 
2759.218369  	91.499283 
2760.182793  	91.476231 
2761.147218  	91.449887 
2762.111642  	91.437912 
2763.076066  	91.444825 
2764.040491  	91.468496 
2765.004915  	91.476067 
2765.969340  	91.454808 
2766.933764  	91.461645 
2767.898189  	91.442779 
2768.862613  	91.407589 
2769.827038  	91.364369 
2770.791462  	91.353439 
2771.755887  	91.325423 
2772.720311  	91.328601 
2773.684735  	91.348496 
2774.649160  	91.356350 
2775.613584  	91.339334 
2776.578009  	91.288324 
2777.542433  	91.263671 
2778.506858  	91.251762 
2779.471282  	91.245573 
2780.435707  	91.241455 
2781.400131  	91.214728 
2782.364556  	91.191032 
2783.328980  	91.179094 
2784.293404  	91.169504 
2785.257829  	91.169431 
2786.222253  	91.172386 
2787.186678  	91.148238 
2788.151102  	91.101496 
2789.115527  	91.107634 
2790.079951  	91.063761 
2791.044376  	91.014864 
2792.008800  	90.998354 
2792.973225  	90.973477 
2793.937649  	90.953204 
2794.902073  	90.919504 
2795.866498  	90.883680 
2796.830922  	90.857454 
2797.795347  	90.848131 
2798.759771  	90.794052 
2799.724196  	90.730807 
2800.688620  	90.689189 
2801.653045  	90.638130 
2802.617469  	90.616574 
2803.581894  	90.625943 
2804.546318  	90.616058 
2805.510743  	90.582493 
2806.475167  	90.515487 
2807.439591  	90.458730 
2808.404016  	90.417517 
2809.368440  	90.392192 
2810.332865  	90.372204 
2811.297289  	90.319568 
2812.261714  	90.246903 
2813.226138  	90.227566 
2814.190563  	90.163151 
2815.154987  	90.118233 
2816.119412  	90.058658 
2817.083836  	89.977384 
2818.048260  	89.910218 
2819.012685  	89.876207 
2819.977109  	89.827644 
2820.941534  	89.750264 
2821.905958  	89.689093 
2822.870383  	89.602772 
2823.834807  	89.514379 
2824.799232  	89.449505 
2825.763656  	89.401267 
2826.728081  	89.378353 
2827.692505  	89.351205 
2828.656929  	89.298044 
2829.621354  	89.223966 
2830.585778  	89.167212 
2831.550203  	89.082860 
2832.514627  	88.972812 
2833.479052  	88.861992 
2834.443476  	88.787328 
2835.407901  	88.701488 
2836.372325  	88.564496 
2837.336750  	88.376672 
2838.301174  	88.146664 
2839.265598  	87.900135 
2840.230023  	87.637326 
2841.194447  	87.338007 
2842.158872  	86.958703 
2843.123296  	86.522943 
2844.087721  	86.015334 
2845.052145  	85.414711 
2846.016570  	84.736750 
2846.980994  	83.969708 
2847.945419  	83.111199 
2848.909843  	82.195332 
2849.874267  	81.401276 
2850.838692  	80.818764 
2851.803116  	80.340413 
2852.767541  	79.891599 
2853.731965  	79.500204 
2854.696390  	79.132835 
2855.660814  	78.794304 
2856.625239  	78.558660 
2857.589663  	78.366413 
2858.554088  	78.244479 
2859.518512  	78.219607 
2860.482936  	78.238573 
2861.447361  	78.344842 
2862.411785  	78.561348 
2863.376210  	78.800191 
2864.340634  	79.016035 
2865.305059  	79.294244 
2866.269483  	79.563002 
2867.233908  	79.747692 
2868.198332  	79.898737 
2869.162757  	80.035749 
2870.127181  	80.187812 
2871.091606  	80.279463 
2872.056030  	80.400745 
2873.020454  	80.614722 
2873.984879  	80.834066 
2874.949303  	81.066045 
2875.913728  	81.311350 
2876.878152  	81.583892 
2877.842577  	81.903481 
2878.807001  	82.271921 
2879.771426  	82.696488 
2880.735850  	83.059485 
2881.700275  	83.378614 
2882.664699  	83.696430 
2883.629123  	83.982876 
2884.593548  	84.227093 
2885.557972  	84.398435 
2886.522397  	84.512991 
2887.486821  	84.579208 
2888.451246  	84.629956 
2889.415670  	84.643771 
2890.380095  	84.574259 
2891.344519  	84.465637 
2892.308944  	84.355183 
2893.273368  	84.184649 
2894.237792  	84.008136 
2895.202217  	83.737529 
2896.166641  	83.483148 
2897.131066  	83.242590 
2898.095490  	82.951258 
2899.059915  	82.636636 
2900.024339  	82.318814 
2900.988764  	82.000557 
2901.953188  	81.672069 
2902.917613  	81.316976 
2903.882037  	80.937206 
2904.846461  	80.592305 
2905.810886  	80.272018 
2906.775310  	79.947089 
2907.739735  	79.608712 
2908.704159  	79.294943 
2909.668584  	78.987623 
2910.633008  	78.647181 
2911.597433  	78.334309 
2912.561857  	77.983559 
2913.526282  	77.563500 
2914.490706  	77.072365 
2915.455130  	76.524346 
2916.419555  	76.023207 
2917.383979  	75.599745 
2918.348404  	75.185674 
2919.312828  	74.821715 
2920.277253  	74.499782 
2921.241677  	74.184679 
2922.206102  	73.917249 
2923.170526  	73.663657 
2924.134951  	73.397743 
2925.099375  	73.118909 
2926.063800  	72.848752 
2927.028224  	72.555636 
2927.992648  	72.247585 
2928.957073  	71.995283 
2929.921497  	71.766788 
2930.885922  	71.555322 
2931.850346  	71.446640 
2932.814771  	71.415271 
2933.779195  	71.449988 
2934.743620  	71.584333 
2935.708044  	71.851080 
2936.672469  	72.214209 
2937.636893  	72.603306 
2938.601317  	73.064677 
2939.565742  	73.622171 
2940.530166  	74.227440 
2941.494591  	74.779316 
2942.459015  	75.293132 
2943.423440  	75.778543 
2944.387864  	76.251164 
2945.352289  	76.760873 
2946.316713  	77.335997 
2947.281138  	78.005101 
2948.245562  	78.723891 
2949.209986  	79.412081 
2950.174411  	80.109006 
2951.138835  	80.839428 
2952.103260  	81.534119 
2953.067684  	82.197415 
2954.032109  	82.805547 
2954.996533  	83.366912 
2955.960958  	83.904865 
2956.925382  	84.394243 
2957.889807  	84.844902 
2958.854231  	85.260029 
2959.818655  	85.612175 
2960.783080  	85.940875 
2961.747504  	86.232754 
2962.711929  	86.534719 
2963.676353  	86.842848 
2964.640778  	87.043525 
2965.605202  	87.216214 
2966.569627  	87.462369 
2967.534051  	87.815368 
2968.498476  	88.151276 
2969.462900  	88.388354 
2970.427324  	88.579902 
2971.391749  	88.800580 
2972.356173  	89.036531 
2973.320598  	89.269645 
2974.285022  	89.447520 
2975.249447  	89.592245 
2976.213871  	89.754290 
2977.178296  	89.951626 
2978.142720  	90.110330 
2979.107145  	90.236117 
2980.071569  	90.397947 
2981.035993  	90.514237 
2982.000418  	90.624240 
2982.964842  	90.756002 
2983.929267  	90.861101 
2984.893691  	90.955741 
2985.858116  	91.030100 
2986.822540  	91.061247 
2987.786965  	91.107408 
2988.751389  	91.166441 
2989.715814  	91.206318 
2990.680238  	91.283218 
2991.644663  	91.347148 
2992.609087  	91.377837 
2993.573511  	91.376424 
2994.537936  	91.382515 
2995.502360  	91.449274 
2996.466785  	91.489626 
2997.431209  	91.496743 
2998.395634  	91.520575 
2999.360058  	91.536897 
3000.324483  	91.551824 
3001.288907  	91.529350 
3002.253332  	91.506474 
3003.217756  	91.500505 
3004.182180  	91.448820 
3005.146605  	91.421754 
3006.111029  	91.509765 
3007.075454  	91.554631 
3008.039878  	91.529839 
3009.004303  	91.546622 
3009.968727  	91.528470 
3010.933152  	91.473694 
3011.897576  	91.418778 
3012.862001  	91.315011 
3013.826425  	91.395532 
3014.790849  	91.493730 
3015.755274  	91.423051 
3016.719698  	91.378252 
3017.684123  	91.408285 
3018.648547  	91.359844 
3019.612972  	91.294832 
3020.577396  	91.273932 
3021.541821  	91.253012 
3022.506245  	91.195072 
3023.470670  	91.169133 
3024.435094  	91.148609 
3025.399518  	91.054830 
3026.363943  	90.988873 
3027.328367  	90.967361 
3028.292792  	90.951479 
3029.257216  	90.932369 
3030.221641  	90.852299 
3031.186065  	90.689040 
3032.150490  	90.578181 
3033.114914  	90.654286 
3034.079339  	90.657952 
3035.043763  	90.584154 
3036.008187  	90.507677 
3036.972612  	90.450371 
3037.937036  	90.358953 
3038.901461  	90.280628 
3039.865885  	90.228926 
3040.830310  	90.199365 
3041.794734  	90.137583 
3042.759159  	90.035484 
3043.723583  	89.943860 
3044.688008  	89.837680 
3045.652432  	89.739056 
3046.616857  	89.617926 
3047.581281  	89.459044 
3048.545705  	89.278089 
3049.510130  	89.137592 
3050.474554  	89.096203 
3051.438979  	89.036315 
3052.403403  	88.930503 
3053.367828  	88.832247 
3054.332252  	88.732611 
3055.296677  	88.616516 
3056.261101  	88.431260 
3057.225526  	88.358606 
3058.189950  	88.423805 
3059.154374  	88.399930 
3060.118799  	88.359326 
3061.083223  	88.323312 
3062.047648  	88.294744 
3063.012072  	88.225933 
3063.976497  	88.081954 
3064.940921  	87.999601 
3065.905346  	88.114507 
3066.869770  	88.090899 
3067.834195  	88.085139 
3068.798619  	88.139632 
3069.763043  	88.138071 
3070.727468  	88.159334 
3071.691892  	88.186515 
3072.656317  	88.104951 
3073.620741  	88.060838 
3074.585166  	88.116615 
3075.549590  	88.152377 
3076.514015  	88.141946 
3077.478439  	88.114565 
3078.442864  	88.120765 
3079.407288  	88.105097 
3080.371712  	88.110951 
3081.336137  	88.154132 
3082.300561  	88.149982 
3083.264986  	88.246013 
3084.229410  	88.310372 
3085.193835  	88.259752 
3086.158259  	88.250533 
3087.122684  	88.276126 
3088.087108  	88.331664 
3089.051533  	88.401524 
3090.015957  	88.412270 
3090.980381  	88.459539 
3091.944806  	88.562970 
3092.909230  	88.624799 
3093.873655  	88.621252 
3094.838079  	88.655092 
3095.802504  	88.708210 
3096.766928  	88.795620 
3097.731353  	88.860203 
3098.695777  	88.946975 
3099.660202  	89.016768 
3100.624626  	89.064100 
3101.589050  	89.104828 
3102.553475  	89.152539 
3103.517899  	89.175112 
3104.482324  	89.296979 
3105.446748  	89.355646 
3106.411173  	89.390783 
3107.375597  	89.477641 
3108.340022  	89.564967 
3109.304446  	89.608194 
3110.268871  	89.596521 
3111.233295  	89.654369 
3112.197720  	89.732018 
3113.162144  	89.768951 
3114.126568  	89.820764 
3115.090993  	89.828253 
3116.055417  	89.864528 
3117.019842  	89.938763 
3117.984266  	89.929023 
3118.948691  	89.873944 
3119.913115  	89.978215 
3120.877540  	90.068093 
3121.841964  	90.047764 
3122.806389  	90.002305 
3123.770813  	90.058024 
3124.735237  	90.067320 
3125.699662  	90.034115 
3126.664086  	89.995573 
3127.628511  	90.078871 
3128.592935  	90.151372 
3129.557360  	90.164618 
3130.521784  	90.143084 
3131.486209  	90.129287 
3132.450633  	90.058869 
3133.415058  	90.001722 
3134.379482  	90.148846 
3135.343906  	90.246973 
3136.308331  	90.197163 
3137.272755  	90.125903 
3138.237180  	90.099485 
3139.201604  	90.105861 
3140.166029  	90.111625 
3141.130453  	90.153219 
3142.094878  	90.084248 
3143.059302  	90.000781 
3144.023727  	89.991673 
3144.988151  	90.031133 
3145.952575  	89.992847 
3146.917000  	89.917083 
3147.881424  	89.887510 
3148.845849  	89.911439 
3149.810273  	89.877131 
3150.774698  	89.867592 
3151.739122  	89.818766 
3152.703547  	89.724312 
3153.667971  	89.702153 
3154.632396  	89.737221 
3155.596820  	89.667360 
3156.561244  	89.550845 
3157.525669  	89.536302 
3158.490093  	89.526011 
3159.454518  	89.477525 
3160.418942  	89.419268 
3161.383367  	89.321506 
3162.347791  	89.247175 
3163.312216  	89.190252 
3164.276640  	89.158709 
3165.241065  	89.127864 
3166.205489  	89.069440 
3167.169914  	89.016711 
3168.134338  	88.934714 
3169.098762  	88.813975 
3170.063187  	88.727366 
3171.027611  	88.626549 
3171.992036  	88.580710 
3172.956460  	88.575273 
3173.920885  	88.506855 
3174.885309  	88.404446 
3175.849734  	88.380281 
3176.814158  	88.288322 
3177.778583  	88.100899 
3178.743007  	88.006397 
3179.707431  	87.973906 
3180.671856  	87.912921 
3181.636280  	87.938237 
3182.600705  	87.942395 
3183.565129  	87.850274 
3184.529554  	87.719283 
3185.493978  	87.621771 
3186.458403  	87.581058 
3187.422827  	87.527061 
3188.387252  	87.444831 
3189.351676  	87.426635 
3190.316100  	87.390233 
3191.280525  	87.340220 
3192.244949  	87.295526 
3193.209374  	87.248796 
3194.173798  	87.190499 
3195.138223  	87.143315 
3196.102647  	87.030617 
3197.067072  	86.910475 
3198.031496  	86.830043 
3198.995921  	86.899290 
3199.960345  	86.919196 
3200.924769  	86.900510 
3201.889194  	86.902371 
3202.853618  	86.841480 
3203.818043  	86.725941 
3204.782467  	86.631198 
3205.746892  	86.551897 
3206.711316  	86.533602 
3207.675741  	86.499294 
3208.640165  	86.441942 
3209.604590  	86.393733 
3210.569014  	86.332325 
3211.533438  	86.303193 
3212.497863  	86.277076 
3213.462287  	86.201815 
3214.426712  	86.084145 
3215.391136  	86.049367 
3216.355561  	86.026288 
3217.319985  	85.974823 
3218.284410  	85.944074 
3219.248834  	85.805148 
3220.213259  	85.723163 
3221.177683  	85.721422 
3222.142107  	85.649240 
3223.106532  	85.534105 
3224.070956  	85.470921 
3225.035381  	85.316355 
3225.999805  	85.186264 
3226.964230  	85.079956 
3227.928654  	84.955654 
3228.893079  	84.900498 
3229.857503  	84.813867 
3230.821928  	84.655984 
3231.786352  	84.566004 
3232.750777  	84.410747 
3233.715201  	84.275670 
3234.679625  	84.145044 
3235.644050  	83.957309 
3236.608474  	83.802683 
3237.572899  	83.663329 
3238.537323  	83.514159 
3239.501748  	83.300820 
3240.466172  	83.118270 
3241.430597  	83.054121 
3242.395021  	82.884271 
3243.359446  	82.627709 
3244.323870  	82.397930 
3245.288294  	82.190813 
3246.252719  	82.046573 
3247.217143  	81.952280 
3248.181568  	81.726746 
3249.145992  	81.442049 
3250.110417  	81.206978 
3251.074841  	80.978283 
3252.039266  	80.745175 
3253.003690  	80.535405 
3253.968115  	80.238298 
3254.932539  	79.976821 
3255.896963  	79.792549 
3256.861388  	79.567417 
3257.825812  	79.327398 
3258.790237  	79.070352 
3259.754661  	78.782599 
3260.719086  	78.491787 
3261.683510  	78.232476 
3262.647935  	77.980016 
3263.612359  	77.741725 
3264.576784  	77.499567 
3265.541208  	77.201638 
3266.505632  	76.904985 
3267.470057  	76.579274 
3268.434481  	76.310814 
3269.398906  	76.061468 
3270.363330  	75.799522 
3271.327755  	75.525066 
3272.292179  	75.224653 
3273.256604  	74.831291 
3274.221028  	74.504786 
3275.185453  	74.226426 
3276.149877  	73.916825 
3277.114301  	73.586895 
3278.078726  	73.248856 
3279.043150  	72.865676 
3280.007575  	72.498117 
3280.971999  	72.114824 
3281.936424  	71.767966 
3282.900848  	71.396744 
3283.865273  	70.973053 
3284.829697  	70.588037 
3285.794122  	70.213202 
3286.758546  	69.822874 
3287.722971  	69.526185 
3288.687395  	69.202255 
3289.651819  	68.980739 
3290.616244  	68.723690 
3291.580668  	68.461146 
3292.545093  	68.257739 
3293.509517  	68.159590 
3294.473942  	68.030929 
3295.438366  	67.921901 
3296.402791  	67.924613 
3297.367215  	67.958746 
3298.331640  	68.023146 
3299.296064  	68.212629 
3300.260488  	68.414472 
3301.224913  	68.678925 
3302.189337  	68.974793 
3303.153762  	69.277322 
3304.118186  	69.658265 
3305.082611  	70.123107 
3306.047035  	70.582001 
3307.011460  	71.127459 
3307.975884  	71.627816 
3308.940309  	72.133790 
3309.904733  	72.783030 
3310.869157  	73.413176 
3311.833582  	74.030428 
3312.798006  	74.749713 
3313.762431  	75.373178 
3314.726855  	76.034004 
3315.691280  	76.641586 
3316.655704  	77.197709 
3317.620129  	77.725795 
3318.584553  	78.257281 
3319.548978  	78.778914 
3320.513402  	79.308262 
3321.477826  	79.799635 
3322.442251  	80.270375 
3323.406675  	80.752723 
3324.371100  	81.177083 
3325.335524  	81.492312 
3326.299949  	81.908955 
3327.264373  	82.234197 
3328.228798  	82.550798 
3329.193222  	82.855547 
3330.157647  	83.122353 
3331.122071  	83.445000 
3332.086495  	83.814621 
3333.050920  	84.016669 
3334.015344  	84.189047 
3334.979769  	84.379486 
3335.944193  	84.682150 
3336.908618  	84.882992 
3337.873042  	85.090901 
3338.837467  	85.328555 
3339.801891  	85.528427 
3340.766316  	85.777069 
3341.730740  	85.915103 
3342.695164  	86.040363 
3343.659589  	86.276505 
3344.624013  	86.490720 
3345.588438  	86.628346 
3346.552862  	86.771199 
3347.517287  	86.889208 
3348.481711  	86.955621 
3349.446136  	87.049975 
3350.410560  	87.162726 
3351.374985  	87.366599 
3352.339409  	87.513162 
3353.303834  	87.593755 
3354.268258  	87.739533 
3355.232682  	87.770201 
3356.197107  	87.687627 
3357.161531  	87.871941 
3358.125956  	88.122802 
3359.090380  	88.204311 
3360.054805  	88.130038 
3361.019229  	88.123076 
3361.983654  	88.166348 
3362.948078  	88.352310 
3363.912503  	88.451781 
3364.876927  	88.417953 
3365.841351  	88.454181 
3366.805776  	88.584811 
3367.770200  	88.596901 
3368.734625  	88.602509 
3369.699049  	88.731716 
3370.663474  	88.852908 
3371.627898  	88.889853 
3372.592323  	88.905823 
3373.556747  	88.960033 
3374.521172  	89.058778 
3375.485596  	89.135628 
3376.450020  	89.129326 
3377.414445  	89.136202 
3378.378869  	89.211720 
3379.343294  	89.294963 
3380.307718  	89.303707 
3381.272143  	89.327320 
3382.236567  	89.350864 
3383.200992  	89.350379 
3384.165416  	89.326984 
3385.129841  	89.314590 
3386.094265  	89.405948 
3387.058689  	89.548549 
3388.023114  	89.635783 
3388.987538  	89.649804 
3389.951963  	89.631848 
3390.916387  	89.604303 
3391.880812  	89.543550 
3392.845236  	89.406521 
3393.809661  	89.471921 
3394.774085  	89.652185 
3395.738510  	89.719519 
3396.702934  	89.674726 
3397.667358  	89.538910 
3398.631783  	89.657032 
3399.596207  	89.822330 
3400.560632  	89.770791 
3401.525056  	89.761906 
3402.489481  	89.846215 
3403.453905  	89.811208 
3404.418330  	89.813722 
3405.382754  	89.877506 
3406.347179  	89.856061 
3407.311603  	89.875723 
3408.276028  	89.898279 
3409.240452  	89.864535 
3410.204876  	89.869569 
3411.169301  	89.991454 
3412.133725  	90.076696 
3413.098150  	90.078206 
3414.062574  	90.046723 
3415.026999  	90.016375 
3415.991423  	89.972219 
3416.955848  	90.011566 
3417.920272  	90.041434 
3418.884697  	90.007817 
3419.849121  	89.844331 
3420.813545  	89.593380 
3421.777970  	89.632605 
3422.742394  	89.814297 
3423.706819  	89.960057 
3424.671243  	90.092908 
3425.635668  	90.121783 
3426.600092  	90.142889 
3427.564517  	90.182780 
3428.528941  	90.186410 
3429.493366  	90.195892 
3430.457790  	90.162028 
3431.422214  	90.114653 
3432.386639  	90.166215 
3433.351063  	90.268662 
3434.315488  	90.330266 
3435.279912  	90.261764 
3436.244337  	90.197147 
3437.208761  	90.165651 
3438.173186  	90.219695 
3439.137610  	90.250531 
3440.102035  	90.292982 
3441.066459  	90.358647 
3442.030883  	90.290842 
3442.995308  	90.042667 
3443.959732  	90.142978 
3444.924157  	90.203822 
3445.888581  	90.212043 
3446.853006  	89.804353 
3447.817430  	89.451786 
3448.781855  	90.035724 
3449.746279  	90.395863 
3450.710704  	90.436849 
3451.675128  	90.468582 
3452.639552  	90.462101 
3453.603977  	90.473907 
3454.568401  	90.536470 
3455.532826  	90.505864 
3456.497250  	90.477444 
3457.461675  	90.523818 
3458.426099  	90.564664 
3459.390524  	90.586791 
3460.354948  	90.550179 
3461.319373  	90.412397 
3462.283797  	90.381141 
3463.248221  	90.382483 
3464.212646  	90.544556 
3465.177070  	90.617315 
3466.141495  	90.528397 
3467.105919  	90.329344 
3468.070344  	90.471425 
3469.034768  	90.680678 
3469.999193  	90.649771 
3470.963617  	90.636736 
3471.928042  	90.646853 
3472.892466  	90.648006 
3473.856891  	90.649947 
3474.821315  	90.524434 
3475.785739  	90.541205 
3476.750164  	90.692482 
3477.714588  	90.751339 
3478.679013  	90.698183 
3479.643437  	90.587110 
3480.607862  	90.345061 
3481.572286  	90.268149 
3482.536711  	90.180466 
3483.501135  	90.394886 
3484.465560  	90.688393 
3485.429984  	90.675733 
3486.394408  	90.717366 
3487.358833  	90.688709 
3488.323257  	90.388076 
3489.287682  	90.407914 
3490.252106  	90.699433 
3491.216531  	90.755555 
3492.180955  	90.858586 
3493.145380  	90.941388 
3494.109804  	90.974500 
3495.074229  	90.839197 
3496.038653  	90.623770 
3497.003077  	90.528480 
3497.967502  	90.734057 
3498.931926  	90.884263 
3499.896351  	90.826219 
3500.860775  	90.738545 
3501.825200  	90.451397 
3502.789624  	90.006764 
3503.754049  	89.910455 
3504.718473  	90.300761 
3505.682898  	90.737988 
3506.647322  	91.042150 
3507.611746  	91.102673 
3508.576171  	90.787031 
3509.540595  	90.161183 
3510.505020  	90.347710 
3511.469444  	90.873861 
3512.433869  	90.949376 
3513.398293  	90.985356 
3514.362718  	91.145753 
3515.327142  	91.276107 
3516.291567  	91.334962 
3517.255991  	91.270197 
3518.220415  	91.170452 
3519.184840  	91.163511 
3520.149264  	91.249739 
3521.113689  	91.477496 
3522.078113  	91.353765 
3523.042538  	90.536796 
3524.006962  	90.052100 
3524.971387  	90.450965 
3525.935811  	90.714070 
3526.900236  	90.707069 
3527.864660  	90.537852 
3528.829085  	90.601454 
3529.793509  	90.807759 
3530.757933  	91.165070 
3531.722358  	91.263883 
3532.686782  	91.606904 
3533.651207  	91.796007 
3534.615631  	91.787301 
3535.580056  	91.566396 
3536.544480  	90.928914 
3537.508905  	91.090636 
3538.473329  	91.733638 
3539.437754  	91.812883 
3540.402178  	91.902864 
3541.366602  	91.896262 
3542.331027  	91.892065 
3543.295451  	91.551970 
3544.259876  	91.184175 
3545.224300  	90.422828 
3546.188725  	90.167211 
3547.153149  	90.282794 
3548.117574  	90.765213 
3549.081998  	91.600584 
3550.046423  	91.881247 
3551.010847  	91.798890 
3551.975271  	91.280844 
3552.939696  	90.984048 
3553.904120  	91.423474 
3554.868545  	91.879722 
3555.832969  	92.284591 
3556.797394  	92.225529 
3557.761818  	92.184251 
3558.726243  	92.291974 
3559.690667  	91.944357 
3560.655092  	91.403390 
3561.619516  	91.797710 
3562.583940  	91.906377 
3563.548365  	91.793936 
3564.512789  	91.685682 
3565.477214  	90.933692 
3566.441638  	88.685673 
3567.406063  	88.484957 
3568.370487  	89.040972 
3569.334912  	90.569034 
3570.299336  	91.849933 
3571.263761  	92.079622 
3572.228185  	92.399691 
3573.192609  	92.460149 
3574.157034  	92.346252 
3575.121458  	92.318413 
3576.085883  	92.439866 
3577.050307  	92.329827 
3578.014732  	92.311593 
3578.979156  	92.495729 
3579.943581  	92.187498 
3580.908005  	92.079550 
3581.872430  	92.505911 
3582.836854  	92.603874 
3583.801278  	92.474966 
3584.765703  	92.473342 
3585.730127  	92.089207 
3586.694552  	90.403336 
3587.658976  	89.252877 
3588.623401  	89.733423 
3589.587825  	90.834785 
3590.552250  	92.277041 
3591.516674  	92.757515 
3592.481099  	92.698379 
3593.445523  	91.916654 
3594.409948  	91.940854 
3595.374372  	91.562113 
3596.338796  	91.268041 
3597.303221  	92.185071 
3598.267645  	92.292139 
3599.232070  	91.943113 
3600.196494  	92.130190 
3601.160919  	91.898750 
3602.125343  	92.183878 
3603.089768  	92.512285 
3604.054192  	92.855337 
3605.018617  	93.077685 
3605.983041  	92.941520 
3606.947465  	91.824451 
3607.911890  	91.173130 
3608.876314  	91.563282 
3609.840739  	91.132228 
3610.805163  	92.067027 
3611.769588  	92.311330 
3612.734012  	91.022611 
3613.698437  	90.938897 
3614.662861  	91.301666 
3615.627286  	91.402842 
3616.591710  	92.442074 
3617.556134  	92.000179 
3618.520559  	90.973922 
3619.484983  	90.911524 
3620.449408  	90.964876 
3621.413832  	91.725234 
3622.378257  	92.531711 
3623.342681  	92.998807 
3624.307106  	93.197714 
3625.271530  	93.218697 
3626.235955  	92.700300 
3627.200379  	92.373849 
3628.164803  	91.583139 
3629.129228  	88.798304 
3630.093652  	89.109541 
3631.058077  	91.583736 
3632.022501  	92.666163 
3632.986926  	92.851826 
3633.951350  	92.152182 
3634.915775  	92.364740 
3635.880199  	93.203907 
3636.844624  	93.455365 
3637.809048  	93.239576 
3638.773472  	93.070495 
3639.737897  	93.279023 
3640.702321  	93.338525 
3641.666746  	93.112864 
3642.631170  	92.702181 
3643.595595  	92.872472 
3644.560019  	93.254736 
3645.524444  	92.996217 
3646.488868  	91.934636 
3647.453293  	89.949049 
3648.417717  	89.937044 
3649.382142  	89.906778 
3650.346566  	89.005788 
3651.310990  	89.180318 
3652.275415  	91.319249 
3653.239839  	92.855736 
3654.204264  	93.291267 
3655.168688  	93.209087 
3656.133113  	92.370928 
3657.097537  	91.864500 
3658.061962  	92.984590 
3659.026386  	93.377552 
3659.990811  	93.264657 
3660.955235  	93.429966 
3661.919659  	93.684680 
3662.884084  	93.721728 
3663.848508  	93.700665 
3664.812933  	93.644738 
3665.777357  	93.638767 
3666.741782  	93.631673 
3667.706206  	93.583864 
3668.670631  	92.662961 
3669.635055  	91.354213 
3670.599480  	90.886002 
3671.563904  	91.180302 
3672.528328  	92.656535 
3673.492753  	93.098826 
3674.457177  	92.056501 
3675.421602  	89.236495 
3676.386026  	89.360883 
3677.350451  	91.336415 
3678.314875  	92.268206 
3679.279300  	92.402449 
3680.243724  	92.416394 
3681.208149  	93.230272 
3682.172573  	93.671145 
3683.136997  	93.715644 
3684.101422  	93.586509 
3685.065846  	93.430197 
3686.030271  	93.499302 
3686.994695  	93.397401 
3687.959120  	92.760888 
3688.923544  	91.449539 
3689.887969  	91.820801 
3690.852393  	91.632660 
3691.816818  	91.356256 
3692.781242  	92.823404 
3693.745666  	93.431883 
3694.710091  	93.524557 
3695.674515  	93.594496 
3696.638940  	93.474823 
3697.603364  	93.565976 
3698.567789  	93.869919 
3699.532213  	93.766327 
3700.496638  	93.691439 
3701.461062  	93.000697 
3702.425487  	92.310745 
3703.389911  	93.255783 
3704.354335  	93.801879 
3705.318760  	93.676838 
3706.283184  	93.599699 
3707.247609  	93.704741 
3708.212033  	93.721053 
3709.176458  	93.077983 
3710.140882  	92.179306 
3711.105307  	91.925565 
3712.069731  	91.111676 
3713.034156  	90.984699 
3713.998580  	92.546450 
3714.963005  	92.792839 
3715.927429  	93.032859 
3716.891853  	93.662469 
3717.856278  	93.790178 
3718.820702  	93.102663 
3719.785127  	92.714391 
3720.749551  	93.399598 
3721.713976  	93.113478 
3722.678400  	91.641022 
3723.642825  	92.175915 
3724.607249  	92.734074 
3725.571674  	92.032452 
3726.536098  	91.725910 
3727.500522  	91.971868 
3728.464947  	92.994768 
3729.429371  	93.607680 
3730.393796  	93.512973 
3731.358220  	93.191346 
3732.322645  	92.292248 
3733.287069  	92.087578 
3734.251494  	91.773513 
3735.215918  	88.700895 
3736.180343  	88.683695 
3737.144767  	90.517989 
3738.109191  	91.570282 
3739.073616  	92.030410 
3740.038040  	92.659025 
3741.002465  	92.363635 
3741.966889  	92.282343 
3742.931314  	92.884936 
3743.895738  	92.243519 
3744.860163  	88.803904 
3745.824587  	90.513161 
3746.789012  	91.993348 
3747.753436  	92.098190 
3748.717860  	92.031703 
3749.682285  	91.378697 
3750.646709  	90.894602 
3751.611134  	90.957718 
3752.575558  	89.828001 
3753.539983  	91.163180 
3754.504407  	92.425455 
3755.468832  	93.125321 
3756.433256  	92.893306 
3757.397681  	92.655059 
3758.362105  	92.973204 
3759.326529  	92.235733 
3760.290954  	91.594200 
3761.255378  	92.981613 
3762.219803  	93.531327 
3763.184227  	93.562053 
3764.148652  	93.563993 
3765.113076  	93.234056 
3766.077501  	92.324159 
3767.041925  	92.850295 
3768.006350  	93.542667 
3768.970774  	93.375708 
3769.935199  	92.424453 
3770.899623  	92.291773 
3771.864047  	93.210618 
3772.828472  	93.666111 
3773.792896  	93.773370 
3774.757321  	93.848071 
3775.721745  	93.940395 
3776.686170  	94.013049 
3777.650594  	93.895797 
3778.615019  	93.489061 
3779.579443  	92.679625 
3780.543868  	92.634902 
3781.508292  	93.521443 
3782.472716  	93.705394 
3783.437141  	93.723206 
3784.401565  	93.354498 
3785.365990  	92.835777 
3786.330414  	93.181968 
3787.294839  	93.611590 
3788.259263  	93.781960 
3789.223688  	93.808779 
3790.188112  	93.806614 
3791.152537  	93.925987 
3792.116961  	93.966468 
3793.081385  	93.987092 
3794.045810  	93.953362 
3795.010234  	93.813518 
3795.974659  	93.320061 
3796.939083  	92.388739 
3797.903508  	92.580679 
3798.867932  	93.208865 
3799.832357  	93.322832 
3800.796781  	92.487525 
3801.761206  	90.936911 
3802.725630  	91.170718 
3803.690054  	92.313866 
3804.654479  	93.330763 
3805.618903  	93.541290 
3806.583328  	92.929608 
3807.547752  	92.010013 
3808.512177  	92.954966 
3809.476601  	93.613277 
3810.441026  	93.726890 
3811.405450  	93.808611 
3812.369875  	93.891063 
3813.334299  	93.891171 
3814.298723  	93.715353 
3815.263148  	93.164802 
3816.227572  	91.728809 
3817.191997  	91.870799 
3818.156421  	93.028741 
3819.120846  	93.083600 
3820.085270  	92.372869 
3821.049695  	90.748500 
3822.014119  	90.345397 
3822.978544  	92.141856 
3823.942968  	92.947483 
3824.907392  	93.204350 
3825.871817  	93.177722 
3826.836241  	92.629142 
3827.800666  	92.653303 
3828.765090  	93.360574 
3829.729515  	93.689603 
3830.693939  	93.567149 
3831.658364  	92.786491 
3832.622788  	92.612133 
3833.587213  	93.407455 
3834.551637  	93.186285 
3835.516062  	92.322726 
3836.480486  	92.833030 
3837.444910  	92.725250 
3838.409335  	91.274584 
3839.373759  	91.581723 
3840.338184  	91.336703 
3841.302608  	91.322413 
3842.267033  	92.636148 
3843.231457  	92.916546 
3844.195882  	92.087506 
3845.160306  	92.824728 
3846.124731  	93.545701 
3847.089155  	93.702416 
3848.053579  	93.726087 
3849.018004  	93.480427 
3849.982428  	92.886063 
3850.946853  	92.872467 
3851.911277  	92.227907 
3852.875702  	90.440850 
3853.840126  	89.888165 
3854.804551  	89.995877 
3855.768975  	91.949472 
3856.733400  	92.425734 
3857.697824  	91.978630 
3858.662248  	92.921905 
3859.626673  	93.689038 
3860.591097  	93.728148 
3861.555522  	93.071521 
3862.519946  	92.261492 
3863.484371  	92.624493 
3864.448795  	92.092056 
3865.413220  	90.910264 
3866.377644  	92.182291 
3867.342069  	93.362708 
3868.306493  	93.346250 
3869.270917  	92.087949 
3870.235342  	89.947873 
3871.199766  	91.071267 
3872.164191  	92.526794 
3873.128615  	93.020933 
3874.093040  	91.787972 
3875.057464  	91.472160 
3876.021889  	93.223043 
3876.986313  	93.787564 
3877.950738  	93.804933 
3878.915162  	93.698346 
3879.879586  	92.798931 
3880.844011  	90.790533 
3881.808435  	91.883345 
3882.772860  	93.059328 
3883.737284  	92.731958 
3884.701709  	92.646932 
3885.666133  	91.985315 
3886.630558  	91.364888 
3887.594982  	92.991677 
3888.559407  	93.706639 
3889.523831  	93.723169 
3890.488256  	93.306715 
3891.452680  	92.055798 
3892.417104  	91.787667 
3893.381529  	92.908641 
3894.345953  	92.957635 
3895.310378  	93.198334 
3896.274802  	93.729635 
3897.239227  	93.758365 
3898.203651  	93.067449 
3899.168076  	91.999810 
3900.132500  	91.713127 
3901.096925  	92.510293 
3902.061349  	91.294526 
3903.025773  	91.081228 
3903.990198  	91.716009 
3904.954622  	91.176312 
3905.919047  	91.478171 
3906.883471  	92.425479 
3907.847896  	93.515808 
3908.812320  	93.856460 
3909.776745  	93.887380 
3910.741169  	93.897358 
3911.705594  	93.885682 
3912.670018  	93.862026 
3913.634442  	93.889760 
3914.598867  	93.920619 
3915.563291  	93.763570 
3916.527716  	92.843536 
3917.492140  	91.945260 
3918.456565  	92.817450 
3919.420989  	93.265754 
3920.385414  	92.554603 
3921.349838  	92.974700 
3922.314263  	93.757441 
3923.278687  	93.481131 
3924.243111  	92.560261 
3925.207536  	92.000078 
3926.171960  	92.778312 
3927.136385  	93.699113 
3928.100809  	93.759544 
3929.065234  	93.522401 
3930.029658  	93.154302 
3930.994083  	92.892900 
3931.958507  	92.559541 
3932.922932  	92.114135 
3933.887356  	92.886572 
3934.851780  	93.395563 
3935.816205  	93.740592 
3936.780629  	93.911638 
3937.745054  	93.824446 
3938.709478  	93.631681 
3939.673903  	93.762581 
3940.638327  	93.833973 
3941.602752  	93.677491 
3942.567176  	92.748100 
3943.531601  	92.167799 
3944.496025  	93.060427 
3945.460449  	93.577577 
3946.424874  	93.691731 
3947.389298  	93.100355 
3948.353723  	92.628732 
3949.318147  	92.924627 
3950.282572  	92.701747 
3951.246996  	93.106926 
3952.211421  	93.776065 
3953.175845  	93.685159 
3954.140270  	93.682473 
3955.104694  	93.796422 
3956.069119  	93.750725 
3957.033543  	93.575513 
3957.997967  	93.591148 
3958.962392  	93.705950 
3959.926816  	93.687113 
3960.891241  	93.623414 
3961.855665  	93.204911 
3962.820090  	93.151127 
3963.784514  	93.683716 
3964.748939  	93.768907 
3965.713363  	93.819419 
3966.677788  	93.901912 
3967.642212  	93.905697 
3968.606636  	93.737746 
3969.571061  	93.534113 
3970.535485  	93.656647 
3971.499910  	93.758323 
3972.464334  	93.549209 
3973.428759  	93.635219 
3974.393183  	93.736256 
3975.357608  	93.548622 
3976.322032  	93.359286 
3977.286457  	93.563474 
3978.250881  	93.875072 
3979.215305  	93.902883 
3980.179730  	93.795922 
3981.144154  	93.738693 
3982.108579  	93.692781 
3983.073003  	93.706942 
3984.037428  	93.863664 
3985.001852  	93.916487 
3985.966277  	93.863196 
3986.930701  	93.867452 
3987.895126  	93.903924 
3988.859550  	93.848175 
3989.823974  	93.682543 
3990.788399  	93.464859 
3991.752823  	93.606980 
3992.717248  	93.818459 
3993.681672  	93.800204 
3994.646097  	93.671282 
3995.610521  	93.559938 
3996.574946  	93.731108 
3997.539370  	93.875172 
3998.503795  	93.914528 
3999.468219  	93.914540 
4000.432643  	93.933200 
4001.397068  	93.902539 
4002.361492  	93.865267 
4003.325917  	93.836355 
4004.290341  	93.875326 
4005.254766  	93.903836 
4006.219190  	93.850080 
4007.183615  	93.806349 
4008.148039  	93.714680 
4009.112464  	93.563399 
4010.076888  	93.703181 
4011.041313  	93.827286 
4012.005737  	93.863065 
4012.970161  	93.823010 
4013.934586  	93.832547 
4014.899010  	93.852996 
4015.863435  	93.813908 
4016.827859  	93.813188 
4017.792284  	93.849687 
4018.756708  	93.886496 
4019.721133  	93.843999 
4020.685557  	93.830847 
4021.649982  	93.889846 
4022.614406  	93.910331 
4023.578830  	93.907803 
4024.543255  	93.862074 
4025.507679  	93.718096 
4026.472104  	93.734750 
4027.436528  	93.842220 
4028.400953  	93.833651 
4029.365377  	93.811506 
4030.329802  	93.814614 
4031.294226  	93.853160 
4032.258651  	93.872183 
4033.223075  	93.927071 
4034.187499  	93.967258 
4035.151924  	93.933327 
4036.116348  	93.918007 
4037.080773  	93.952250 
4038.045197  	93.977780 
4039.009622  	93.952962 
4039.974046  	93.927274 
4040.938471  	93.927462 
4041.902895  	93.910858 
4042.867320  	93.893255 
4043.831744  	93.832126 
4044.796168  	93.760307 
4045.760593  	93.739985 
4046.725017  	93.835627 
4047.689442  	93.854468 
4048.653866  	93.831031 
4049.618291  	93.864788 
4050.582715  	93.904722 
4051.547140  	93.881968 
4052.511564  	93.883810 
4053.475989  	93.923511 
4054.440413  	93.905803 
4055.404837  	93.853811 
4056.369262  	93.876223 
4057.333686  	93.934489 
4058.298111  	93.920934 
4059.262535  	93.917579 
4060.226960  	93.901515 
4061.191384  	93.863092 
4062.155809  	93.892113 
4063.120233  	93.930820 
4064.084658  	93.947607 
4065.049082  	93.931748 
4066.013506  	93.906236 
4066.977931  	93.925524 
4067.942355  	93.929118 
4068.906780  	93.907709 
4069.871204  	93.926336 
4070.835629  	93.892167 
4071.800053  	93.900114 
4072.764478  	93.920741 
4073.728902  	93.908239 
4074.693327  	93.921199 
4075.657751  	93.946757 
4076.622176  	93.925186 
4077.586600  	93.918944 
4078.551024  	93.883593 
4079.515449  	93.815048 
4080.479873  	93.874443 
4081.444298  	93.950511 
4082.408722  	93.933801 
4083.373147  	93.877094 
4084.337571  	93.846351 
4085.301996  	93.898206 
4086.266420  	93.950855 
4087.230845  	93.924628 
4088.195269  	93.880437 
4089.159693  	93.880678 
4090.124118  	93.907617 
4091.088542  	93.911857 
4092.052967  	93.930280 
4093.017391  	93.975655 
4093.981816  	93.977140 
4094.946240  	93.946266 
4095.910665  	93.940972 
4096.875089  	93.984270 
4097.839514  	93.980426 
4098.803938  	93.900176 
4099.768362  	93.908472 
4100.732787  	93.940718 
4101.697211  	93.922150 
4102.661636  	93.942230 
4103.626060  	93.988348 
4104.590485  	93.939218 
4105.554909  	93.840174 
4106.519334  	93.821824 
4107.483758  	93.869185 
4108.448183  	93.932993 
4109.412607  	93.952231 
4110.377031  	93.927126 
4111.341456  	93.972208 
4112.305880  	93.970017 
4113.270305  	93.924155 
4114.234729  	93.919559 
4115.199154  	93.946436 
4116.163578  	93.926817 
4117.128003  	93.889857 
4118.092427  	93.919148 
4119.056852  	93.942611 
4120.021276  	93.891668 
4120.985700  	93.903500 
4121.950125  	93.939635 
4122.914549  	93.912046 
4123.878974  	93.887337 
4124.843398  	93.883542 
4125.807823  	93.922054 
4126.772247  	93.917135 
4127.736672  	93.873053 
4128.701096  	93.890181 
4129.665521  	93.918482 
4130.629945  	93.924293 
4131.594370  	93.953143 
4132.558794  	93.992352 
4133.523218  	93.933026 
4134.487643  	93.875067 
4135.452067  	93.895366 
4136.416492  	93.927755 
4137.380916  	93.951094 
4138.345341  	93.935739 
4139.309765  	93.827374 
4140.274190  	93.845345 
4141.238614  	93.888439 
4142.203039  	93.891775 
4143.167463  	93.965169 
4144.131887  	93.934604 
4145.096312  	93.860610 
4146.060736  	93.862658 
4147.025161  	93.895233 
4147.989585  	93.874062 
4148.954010  	93.804715 
4149.918434  	93.844365 
4150.882859  	93.911768 
4151.847283  	93.916825 
4152.811708  	93.845793 
4153.776132  	93.824219 
4154.740556  	93.853213 
4155.704981  	93.836752 
4156.669405  	93.832123 
4157.633830  	93.851823 
4158.598254  	93.868605 
4159.562679  	93.886188 
4160.527103  	93.875108 
4161.491528  	93.887320 
4162.455952  	93.917797 
4163.420377  	93.941220 
4164.384801  	93.917067 
4165.349225  	93.873340 
4166.313650  	93.829304 
4167.278074  	93.841669 
4168.242499  	93.904082 
4169.206923  	93.974877 
4170.171348  	93.993728 
4171.135772  	93.975595 
4172.100197  	93.922727 
4173.064621  	93.888652 
4174.029046  	93.859337 
4174.993470  	93.894391 
4175.957894  	93.964780 
4176.922319  	93.977491 
4177.886743  	93.954422 
4178.851168  	93.894604 
4179.815592  	93.856296 
4180.780017  	93.900568 
4181.744441  	93.976325 
4182.708866  	93.982773 
4183.673290  	93.950515 
4184.637715  	93.893777 
4185.602139  	93.912110 
4186.566563  	93.854899 
4187.530988  	93.835317 
4188.495412  	93.863715 
4189.459837  	93.932092 
4190.424261  	93.933536 
4191.388686  	93.907859 
4192.353110  	93.912768 
4193.317535  	93.866660 
4194.281959  	93.854900 
4195.246384  	93.906288 
4196.210808  	93.909479 
4197.175233  	93.879084 
4198.139657  	93.893248 
4199.104081  	93.917449 
4200.068506  	93.869719 
4201.032930  	93.828054 
4201.997355  	93.884677 
4202.961779  	93.939194 
4203.926204  	93.899792 
4204.890628  	93.857796 
4205.855053  	93.888682 
4206.819477  	93.902871 
4207.783902  	93.906458 
4208.748326  	93.888707 
4209.712750  	93.912931 
4210.677175  	93.939252 
4211.641599  	93.881535 
4212.606024  	93.829764 
4213.570448  	93.907227 
4214.534873  	93.956968 
4215.499297  	93.934965 
4216.463722  	93.949597 
4217.428146  	93.893448 
4218.392571  	93.870233 
4219.356995  	93.894090 
4220.321419  	93.903722 
4221.285844  	93.948187 
4222.250268  	93.967748 
4223.214693  	93.882482 
4224.179117  	93.830413 
4225.143542  	93.873788 
4226.107966  	93.952945 
4227.072391  	93.969989 
4228.036815  	93.847383 
4229.001240  	93.850296 
4229.965664  	93.876223 
4230.930088  	93.845667 
4231.894513  	93.899859 
4232.858937  	93.952381 
4233.823362  	93.971777 
4234.787786  	93.936501 
4235.752211  	93.854370 
4236.716635  	93.884014 
4237.681060  	93.905892 
4238.645484  	93.908229 
4239.609909  	93.931799 
4240.574333  	93.909809 
4241.538757  	93.941865 
4242.503182  	93.971442 
4243.467606  	93.975497 
4244.432031  	93.911337 
4245.396455  	93.838791 
4246.360880  	93.892775 
4247.325304  	93.919697 
4248.289729  	93.922269 
4249.254153  	93.947276 
4250.218578  	93.978999 
4251.183002  	93.945995 
4252.147427  	93.871607 
4253.111851  	93.885380 
4254.076275  	93.859937 
4255.040700  	93.839144 
4256.005124  	93.867146 
4256.969549  	93.900168 
4257.933973  	93.947863 
4258.898398  	93.920236 
4259.862822  	93.836733 
4260.827247  	93.853175 
4261.791671  	93.935279 
4262.756096  	93.972139 
4263.720520  	93.913165 
4264.684944  	93.836653 
4265.649369  	93.858270 
4266.613793  	93.912012 
4267.578218  	93.894001 
4268.542642  	93.879878 
4269.507067  	93.925690 
4270.471491  	93.915495 
4271.435916  	93.884638 
4272.400340  	93.878235 
4273.364765  	93.923341 
4274.329189  	93.961261 
4275.293613  	93.947463 
4276.258038  	93.914440 
4277.222462  	93.964667 
4278.186887  	93.956136 
4279.151311  	93.883632 
4280.115736  	93.857432 
4281.080160  	93.927111 
4282.044585  	93.936165 
4283.009009  	93.871139 
4283.973434  	93.873346 
4284.937858  	93.904332 
4285.902282  	93.908709 
4286.866707  	93.943237 
4287.831131  	93.942313 
4288.795556  	93.941345 
4289.759980  	93.919092 
4290.724405  	93.869081 
4291.688829  	93.887516 
4292.653254  	93.910275 
4293.617678  	93.948894 
4294.582103  	94.002865 
4295.546527  	94.050790 
4296.510951  	94.052261 
4297.475376  	94.012714 
4298.439800  	93.961633 
4299.404225  	93.965596 
4300.368649  	94.026605 
4301.333074  	93.954129 
4302.297498  	93.833011 
4303.261923  	93.875246 
4304.226347  	93.985380 
4305.190772  	94.083052 
4306.155196  	94.059742 
4307.119620  	94.010579 
4308.084045  	93.981629 
4309.048469  	94.000915 
4310.012894  	93.993512 
4310.977318  	93.957266 
4311.941743  	93.999923 
4312.906167  	94.010257 
4313.870592  	93.959365 
4314.835016  	93.954840 
4315.799441  	93.940033 
4316.763865  	93.902493 
4317.728290  	93.912676 
4318.692714  	93.973334 
4319.657138  	93.974830 
4320.621563  	93.960806 
4321.585987  	93.918149 
4322.550412  	93.877489 
4323.514836  	93.855621 
4324.479261  	93.837431 
4325.443685  	93.842927 
4326.408110  	93.898989 
4327.372534  	93.955890 
4328.336959  	93.954146 
4329.301383  	93.911787 
4330.265807  	93.872799 
4331.230232  	93.877786 
4332.194656  	93.898777 
4333.159081  	93.938021 
4334.123505  	93.926274 
4335.087930  	93.875509 
4336.052354  	93.863056 
4337.016779  	93.883056 
4337.981203  	93.896963 
4338.945628  	93.926290 
4339.910052  	93.886574 
4340.874476  	93.816896 
4341.838901  	93.862612 
4342.803325  	93.850367 
4343.767750  	93.744138 
4344.732174  	93.731117 
4345.696599  	93.803652 
4346.661023  	93.810883 
4347.625448  	93.788701 
4348.589872  	93.793115 
4349.554297  	93.799159 
4350.518721  	93.860582 
4351.483145  	93.937023 
4352.447570  	93.908458 
4353.411994  	93.895274 
4354.376419  	93.788727 
4355.340843  	93.783576 
4356.305268  	93.843777 
4357.269692  	93.853344 
4358.234117  	93.844549 
4359.198541  	93.798608 
4360.162966  	93.825104 
4361.127390  	93.802232 
4362.091814  	93.754689 
4363.056239  	93.758826 
4364.020663  	93.845591 
4364.985088  	93.843583 
4365.949512  	93.791877 
4366.913937  	93.770727 
4367.878361  	93.771224 
4368.842786  	93.818682 
4369.807210  	93.871021 
4370.771635  	93.866519 
4371.736059  	93.857041 
4372.700484  	93.879097 
4373.664908  	93.887483 
4374.629332  	93.887546 
4375.593757  	93.872579 
4376.558181  	93.876405 
4377.522606  	93.904353 
4378.487030  	93.888900 
4379.451455  	93.906202 
4380.415879  	93.921334 
4381.380304  	93.891541 
4382.344728  	93.948581 
4383.309153  	93.999779 
4384.273577  	93.982435 
4385.238001  	93.994687 
4386.202426  	94.017544 
4387.166850  	94.021318 
4388.131275  	94.021902 
4389.095699  	93.938550 
4390.060124  	93.906217 
4391.024548  	93.929764 
4391.988973  	94.032930 
4392.953397  	94.077574 
4393.917822  	94.008584 
4394.882246  	93.952614 
4395.846670  	93.952108 
4396.811095  	93.938350 
4397.775519  	93.975801 
4398.739944  	94.028565 
4399.704368  	94.058417 
4400.668793  	94.124176 
4401.633217  	94.002745 
4402.597642  	93.956106 
4403.562066  	94.084819 
4404.526491  	94.112182 
4405.490915  	94.049026 
4406.455339  	93.965200 
4407.419764  	93.951003 
4408.384188  	94.042296 
4409.348613  	94.133286 
4410.313037  	94.119807 
4411.277462  	94.069936 
4412.241886  	94.058019 
4413.206311  	94.024049 
4414.170735  	94.029382 
4415.135160  	94.046345 
4416.099584  	94.039723 
4417.064008  	93.994731 
4418.028433  	93.937371 
4418.992857  	93.972433 
4419.957282  	94.031978 
4420.921706  	93.989617 
4421.886131  	93.981672 
4422.850555  	94.025751 
4423.814980  	94.026186 
4424.779404  	93.982993 
4425.743829  	93.938023 
4426.708253  	93.970294 
4427.672677  	93.996388 
4428.637102  	94.052186 
4429.601526  	94.137822 
4430.565951  	94.095873 
4431.530375  	94.021513 
4432.494800  	93.918557 
4433.459224  	93.878322 
4434.423649  	93.966064 
4435.388073  	94.063404 
4436.352498  	94.130072 
4437.316922  	94.186250 
4438.281347  	94.176955 
4439.245771  	94.093395 
4440.210195  	94.102733 
4441.174620  	94.107613 
4442.139044  	94.042938 
4443.103469  	94.059788 
4444.067893  	94.109684 
4445.032318  	94.142765 
4445.996742  	94.159575 
4446.961167  	94.101172 
4447.925591  	94.020436 
4448.890016  	93.992656 
4449.854440  	93.999917 
4450.818864  	94.077668 
4451.783289  	94.089684 
4452.747713  	94.027328 
4453.712138  	94.079673 
4454.676562  	94.102005 
4455.640987  	94.126509 
4456.605411  	94.182229 
4457.569836  	94.162283 
4458.534260  	94.081603 
4459.498685  	94.020428 
4460.463109  	94.049143 
4461.427533  	94.070195 
4462.391958  	94.060367 
4463.356382  	94.038236 
4464.320807  	94.050185 
4465.285231  	94.021502 
4466.249656  	94.020962 
4467.214080  	94.054460 
4468.178505  	94.037312 
4469.142929  	94.039964 
4470.107354  	94.090905 
4471.071778  	94.057611 
4472.036202  	94.050228 
4473.000627  	94.056014 
4473.965051  	94.027531 
4474.929476  	94.033273 
4475.893900  	94.039971 
4476.858325  	94.022809 
4477.822749  	94.029848 
4478.787174  	94.082585 
4479.751598  	94.115232 
4480.716023  	94.104642 
4481.680447  	94.053522 
4482.644871  	93.984059 
4483.609296  	93.969779 
4484.573720  	94.003461 
4485.538145  	94.085883 
4486.502569  	94.101704 
4487.466994  	94.055364 
4488.431418  	94.084494 
4489.395843  	94.065936 
4490.360267  	94.047420 
4491.324692  	94.076983 
4492.289116  	94.093382 
4493.253541  	94.123100 
4494.217965  	94.137964 
4495.182389  	94.088256 
4496.146814  	94.068445 
4497.111238  	94.079519 
4498.075663  	94.071901 
4499.040087  	94.048109 
4500.004512  	94.037437 
4500.968936  	94.027173 
4501.933361  	94.001769 
4502.897785  	94.095909 
4503.862210  	94.148568 
4504.826634  	94.095884 
4505.791058  	94.100244 
4506.755483  	94.100346 
4507.719907  	94.041984 
4508.684332  	94.034923 
4509.648756  	94.038812 
4510.613181  	94.038282 
4511.577605  	94.083793 
4512.542030  	94.082337 
4513.506454  	94.085844 
4514.470879  	94.078825 
4515.435303  	94.040902 
4516.399727  	94.014873 
4517.364152  	93.945162 
4518.328576  	93.995900 
4519.293001  	94.062549 
4520.257425  	94.091131 
4521.221850  	94.030827 
4522.186274  	94.015655 
4523.150699  	94.033836 
4524.115123  	94.000712 
4525.079548  	93.961490 
4526.043972  	93.955829 
4527.008396  	93.951922 
4527.972821  	93.963465 
4528.937245  	94.027593 
4529.901670  	94.037086 
4530.866094  	94.021736 
4531.830519  	94.051947 
4532.794943  	94.012449 
4533.759368  	94.002919 
4534.723792  	94.010584 
4535.688217  	94.015819 
4536.652641  	94.093708 
4537.617065  	94.129678 
4538.581490  	94.153151 
4539.545914  	94.125687 
4540.510339  	94.089277 
4541.474763  	94.023770 
4542.439188  	93.969339 
4543.403612  	94.028404 
4544.368037  	94.057597 
4545.332461  	94.020644 
4546.296886  	94.042351 
4547.261310  	94.050980 
4548.225734  	94.070827 
4549.190159  	94.133514 
4550.154583  	94.099196 
4551.119008  	93.971310 
4552.083432  	93.982467 
4553.047857  	94.009384 
4554.012281  	94.064174 
4554.976706  	94.105750 
4555.941130  	94.092664 
4556.905555  	94.037038 
4557.869979  	94.034483 
4558.834404  	94.115312 
4559.798828  	94.072347 
4560.763252  	94.000274 
4561.727677  	94.004441 
4562.692101  	93.989667 
4563.656526  	94.030958 
4564.620950  	94.066319 
4565.585375  	93.940681 
4566.549799  	93.984676 
4567.514224  	94.101750 
4568.478648  	94.043951 
4569.443073  	93.971858 
4570.407497  	94.001855 
4571.371921  	94.062370 
4572.336346  	94.054840 
4573.300770  	94.028591 
4574.265195  	93.985066 
4575.229619  	93.993040 
4576.194044  	93.991992 
4577.158468  	93.979552 
4578.122893  	94.062886 
4579.087317  	94.071828 
4580.051742  	94.053695 
4581.016166  	94.138522 
4581.980590  	94.144686 
4582.945015  	94.098435 
4583.909439  	94.125048 
4584.873864  	94.128571 
4585.838288  	94.056475 
4586.802713  	94.038041 
4587.767137  	93.993155 
4588.731562  	93.955797 
4589.695986  	93.945637 
4590.660411  	94.012957 
4591.624835  	94.093649 
4592.589259  	94.133289 
4593.553684  	94.122615 
4594.518108  	94.008105 
4595.482533  	93.958969 
4596.446957  	94.036828 
4597.411382  	94.017377 
4598.375806  	93.960322 
4599.340231  	94.036793 
4600.304655  	94.112128 
4601.269080  	94.108238 
4602.233504  	94.027376 
4603.197928  	93.998798 
4604.162353  	94.052953 
4605.126777  	94.025719 
4606.091202  	93.991659 
4607.055626  	93.986550 
4608.020051  	93.938729 
4608.984475  	94.031781 
4609.948900  	94.155499 
4610.913324  	94.115597 
4611.877749  	94.058433 
4612.842173  	93.997892 
4613.806598  	94.018648 
4614.771022  	94.070934 
4615.735446  	94.102145 
4616.699871  	94.093890 
4617.664295  	94.014316 
4618.628720  	93.984533 
4619.593144  	94.024682 
4620.557569  	94.133136 
4621.521993  	94.105106 
4622.486418  	94.005719 
4623.450842  	94.001300 
4624.415267  	94.002150 
4625.379691  	94.072065 
4626.344115  	94.125960 
4627.308540  	94.091100 
4628.272964  	94.046095 
4629.237389  	94.065536 
4630.201813  	94.076509 
4631.166238  	94.018588 
4632.130662  	94.066337 
4633.095087  	94.081487 
4634.059511  	94.032889 
4635.023936  	94.132463 
4635.988360  	94.191165 
4636.952784  	94.117584 
4637.917209  	94.089172 
4638.881633  	94.027268 
4639.846058  	94.009571 
4640.810482  	94.011954 
4641.774907  	94.007853 
4642.739331  	93.930465 
4643.703756  	93.945334 
4644.668180  	94.038781 
4645.632605  	93.970904 
4646.597029  	94.011403 
4647.561453  	94.115657 
4648.525878  	94.096196 
4649.490302  	94.059884 
4650.454727  	94.028525 
4651.419151  	94.074651 
4652.383576  	94.077899 
4653.348000  	94.050060 
4654.312425  	94.032199 
4655.276849  	94.043938 
4656.241274  	94.003801 
4657.205698  	94.016485 
4658.170122  	94.029474 
4659.134547  	94.006396 
4660.098971  	93.976405 
4661.063396  	94.061941 
4662.027820  	94.121830 
4662.992245  	94.020776 
4663.956669  	94.079346 
4664.921094  	94.203017 
4665.885518  	94.161605 
4666.849943  	94.116308 
4667.814367  	94.044834 
4668.778791  	94.060018 
4669.743216  	94.061264 
4670.707640  	94.023138 
4671.672065  	94.040923 
4672.636489  	94.048011 
4673.600914  	94.047487 
4674.565338  	94.071588 
4675.529763  	94.097033 
4676.494187  	94.136770 
4677.458612  	94.118721 
4678.423036  	94.129904 
4679.387461  	94.207735 
4680.351885  	94.169834 
4681.316309  	94.144876 
4682.280734  	94.128659 
4683.245158  	94.002843 
4684.209583  	94.000383 
4685.174007  	94.103674 
4686.138432  	94.131184 
4687.102856  	94.127532 
4688.067281  	94.141003 
4689.031705  	94.066588 
4689.996130  	94.036905 
4690.960554  	94.079378 
4691.924978  	94.074716 
4692.889403  	94.038492 
4693.853827  	94.014534 
4694.818252  	94.055971 
4695.782676  	94.082665 
4696.747101  	94.069091 
4697.711525  	94.080738 
4698.675950  	94.102978 
4699.640374  	94.001705 