##TITLE=No Description
##DATA TYPE=INFRARED SPECTRUM
##XUNITS=1/CM
##YUNITS=%T
400.236149  	123.528938 
401.200574  	105.118325 
402.164998  	88.370793 
403.129423  	91.152195 
404.093847  	101.431165 
405.058272  	93.795774 
406.022696  	88.773314 
406.987120  	89.977807 
407.951545  	94.667608 
408.915969  	96.225043 
409.880394  	90.820420 
410.844818  	88.836865 
411.809243  	94.102646 
412.773667  	91.627124 
413.738092  	84.377568 
414.702516  	76.888514 
415.666941  	78.576959 
416.631365  	83.221994 
417.595789  	88.518503 
418.560214  	91.974850 
419.524638  	88.818935 
420.489063  	85.133825 
421.453487  	84.985346 
422.417912  	86.227529 
423.382336  	84.373847 
424.346761  	81.689400 
425.311185  	78.214518 
426.275610  	79.785959 
427.240034  	83.340553 
428.204458  	86.027877 
429.168883  	84.510291 
430.133307  	82.501299 
431.097732  	81.810294 
432.062156  	80.141506 
433.026581  	78.846859 
433.991005  	80.396395 
434.955430  	81.298089 
435.919854  	81.036918 
436.884279  	82.113950 
437.848703  	82.341020 
438.813127  	81.834472 
439.777552  	82.415904 
440.741976  	82.504105 
441.706401  	81.859371 
442.670825  	82.470334 
443.635250  	81.667335 
444.599674  	80.177165 
445.564099  	80.427016 
446.528523  	81.175720 
447.492948  	80.274751 
448.457372  	81.052938 
449.421796  	79.941262 
450.386221  	78.177814 
451.350645  	78.406992 
452.315070  	78.325987 
453.279494  	77.863044 
454.243919  	78.520331 
455.208343  	78.266742 
456.172768  	77.448773 
457.137192  	77.782108 
458.101617  	78.040302 
459.066041  	78.012012 
460.030466  	77.722263 
460.994890  	77.802983 
461.959314  	77.964022 
462.923739  	77.873279 
463.888163  	77.438950 
464.852588  	77.222209 
465.817012  	77.999994 
466.781437  	77.718737 
467.745861  	77.168018 
468.710286  	77.149619 
469.674710  	76.291676 
470.639135  	75.736057 
471.603559  	75.884969 
472.567983  	76.850867 
473.532408  	76.603126 
474.496832  	75.251406 
475.461257  	75.806888 
476.425681  	76.480937 
477.390106  	77.067018 
478.354530  	77.506613 
479.318955  	76.193194 
480.283379  	75.061484 
481.247804  	75.123346 
482.212228  	75.203243 
483.176652  	75.884152 
484.141077  	76.754108 
485.105501  	76.024890 
486.069926  	75.306854 
487.034350  	75.163193 
487.998775  	75.114778 
488.963199  	75.437073 
489.927624  	75.565765 
490.892048  	74.944606 
491.856473  	74.541547 
492.820897  	75.346488 
493.785321  	75.088981 
494.749746  	74.361068 
495.714170  	73.738558 
496.678595  	73.773465 
497.643019  	73.911774 
498.607444  	73.959232 
499.571868  	73.726082 
500.536293  	73.809745 
501.500717  	73.689196 
502.465142  	73.021100 
503.429566  	73.433727 
504.393990  	73.086450 
505.358415  	72.924633 
506.322839  	72.747179 
507.287264  	72.303825 
508.251688  	72.688998 
509.216113  	73.059369 
510.180537  	72.757021 
511.144962  	72.722415 
512.109386  	72.985271 
513.073811  	72.777217 
514.038235  	72.396743 
515.002660  	71.876654 
515.967084  	71.350039 
516.931508  	71.458398 
517.895933  	71.731472 
518.860357  	71.461175 
519.824782  	70.878014 
520.789206  	70.851857 
521.753631  	71.027828 
522.718055  	71.076538 
523.682480  	71.004759 
524.646904  	70.886876 
525.611329  	70.475600 
526.575753  	70.121465 
527.540177  	70.275733 
528.504602  	70.329416 
529.469026  	70.054041 
530.433451  	69.768745 
531.397875  	69.373337 
532.362300  	68.987439 
533.326724  	69.141941 
534.291149  	69.088944 
535.255573  	69.170503 
536.219998  	69.529978 
537.184422  	70.323697 
538.148846  	70.600014 
539.113271  	70.869913 
540.077695  	71.033800 
541.042120  	71.282871 
542.006544  	71.646023 
542.970969  	71.714748 
543.935393  	71.611550 
544.899818  	71.297537 
545.864242  	71.420118 
546.828667  	71.226768 
547.793091  	70.760072 
548.757515  	70.702221 
549.721940  	70.854927 
550.686364  	70.819072 
551.650789  	70.990575 
552.615213  	70.555858 
553.579638  	70.618714 
554.544062  	70.532986 
555.508487  	70.049273 
556.472911  	69.464347 
557.437336  	68.930037 
558.401760  	68.942779 
559.366184  	69.066587 
560.330609  	68.372394 
561.295033  	67.805905 
562.259458  	67.351488 
563.223882  	66.744274 
564.188307  	66.304171 
565.152731  	66.249526 
566.117156  	65.816167 
567.081580  	65.100256 
568.046005  	64.436503 
569.010429  	63.901691 
569.974853  	63.468050 
570.939278  	62.743414 
571.903702  	62.072932 
572.868127  	61.548894 
573.832551  	61.101294 
574.796976  	60.976572 
575.761400  	60.291247 
576.725825  	60.123561 
577.690249  	60.407428 
578.654674  	60.708895 
579.619098  	61.100908 
580.583523  	61.563011 
581.547947  	62.632152 
582.512371  	63.852278 
583.476796  	64.709000 
584.441220  	65.542313 
585.405645  	66.494701 
586.370069  	67.540388 
587.334494  	68.324239 
588.298918  	68.867788 
589.263343  	69.231559 
590.227767  	69.830821 
591.192192  	70.147709 
592.156616  	70.351974 
593.121040  	70.922607 
594.085465  	71.351487 
595.049889  	71.629698 
596.014314  	71.957918 
596.978738  	72.130828 
597.943163  	72.215292 
598.907587  	72.272754 
599.872012  	72.231700 
600.836436  	72.450302 
601.800861  	72.797478 
602.765285  	72.814137 
603.729709  	72.881682 
604.694134  	73.001089 
605.658558  	73.177824 
606.622983  	73.339945 
607.587407  	73.264959 
608.551832  	73.218937 
609.516256  	73.376474 
610.480681  	73.309855 
611.445105  	73.382978 
612.409530  	73.577448 
613.373954  	73.554687 
614.338378  	73.337349 
615.302803  	73.260274 
616.267227  	73.041527 
617.231652  	73.334821 
618.196076  	73.569422 
619.160501  	73.539679 
620.124925  	73.357159 
621.089350  	73.520476 
622.053774  	73.589239 
623.018199  	73.828874 
623.982623  	73.674370 
624.947047  	73.406250 
625.911472  	73.180992 
626.875896  	73.285710 
627.840321  	73.443950 
628.804745  	73.430028 
629.769170  	73.259717 
630.733594  	73.130044 
631.698019  	73.283586 
632.662443  	73.254279 
633.626868  	72.943903 
634.591292  	72.790514 
635.555717  	72.720374 
636.520141  	72.853398 
637.484565  	72.874844 
638.448990  	72.774695 
639.413414  	72.524929 
640.377839  	72.563910 
641.342263  	72.590209 
642.306688  	72.296642 
643.271112  	72.116484 
644.235537  	72.021294 
645.199961  	71.807155 
646.164386  	71.749364 
647.128810  	71.622193 
648.093234  	71.365207 
649.057659  	71.121818 
650.022083  	70.982727 
650.986508  	70.886882 
651.950932  	70.635499 
652.915357  	70.361735 
653.879781  	70.156829 
654.844206  	69.984062 
655.808630  	69.744557 
656.773055  	69.385280 
657.737479  	69.176451 
658.701903  	68.864635 
659.666328  	68.468420 
660.630752  	68.128350 
661.595177  	67.919417 
662.559601  	67.683056 
663.524026  	67.409650 
664.488450  	67.091985 
665.452875  	66.821419 
666.417299  	66.555253 
667.381724  	66.489053 
668.346148  	66.860016 
669.310572  	66.103051 
670.274997  	65.398520 
671.239421  	65.078212 
672.203846  	64.973308 
673.168270  	64.676888 
674.132695  	64.296688 
675.097119  	64.015399 
676.061544  	63.810742 
677.025968  	63.642214 
677.990393  	63.543342 
678.954817  	63.439926 
679.919241  	63.349984 
680.883666  	63.350007 
681.848090  	63.207340 
682.812515  	63.066330 
683.776939  	62.954641 
684.741364  	62.996528 
685.705788  	63.071478 
686.670213  	63.295895 
687.634637  	63.470406 
688.599062  	63.696611 
689.563486  	64.084456 
690.527910  	64.562778 
691.492335  	65.028789 
692.456759  	65.431804 
693.421184  	65.889762 
694.385608  	66.538122 
695.350033  	67.047120 
696.314457  	67.498342 
697.278882  	67.929290 
698.243306  	68.287478 
699.207731  	68.719135 
700.172155  	69.221747 
701.136580  	69.488711 
702.101004  	69.850866 
703.065428  	70.316365 
704.029853  	70.636458 
704.994277  	70.830343 
705.958702  	71.118752 
706.923126  	71.447877 
707.887551  	71.736658 
708.851975  	71.953933 
709.816400  	72.064853 
710.780824  	72.212829 
711.745249  	72.352640 
712.709673  	72.509629 
713.674097  	72.596072 
714.638522  	72.775768 
715.602946  	72.956760 
716.567371  	72.964105 
717.531795  	73.006838 
718.496220  	73.037008 
719.460644  	73.032108 
720.425069  	73.160584 
721.389493  	73.176715 
722.353918  	73.075357 
723.318342  	73.047456 
724.282766  	73.038936 
725.247191  	72.971105 
726.211615  	72.881042 
727.176040  	72.812615 
728.140464  	72.780877 
729.104889  	72.878497 
730.069313  	73.121385 
731.033738  	73.597025 
731.998162  	74.217009 
732.962587  	74.911986 
733.927011  	75.556871 
734.891435  	76.309715 
735.855860  	77.066588 
736.820284  	77.848741 
737.784709  	78.534720 
738.749133  	79.052479 
739.713558  	79.511889 
740.677982  	80.001489 
741.642407  	80.330708 
742.606831  	80.667883 
743.571256  	80.975058 
744.535680  	81.141648 
745.500104  	81.304340 
746.464529  	81.427131 
747.428953  	81.492093 
748.393378  	81.630904 
749.357802  	81.610307 
750.322227  	81.566976 
751.286651  	81.640561 
752.251076  	81.830770 
753.215500  	82.050499 
754.179925  	82.240820 
755.144349  	82.340634 
756.108774  	82.484540 
757.073198  	82.572565 
758.037622  	82.621852 
759.002047  	82.644320 
759.966471  	82.706864 
760.930896  	82.782842 
761.895320  	82.902598 
762.859745  	83.117203 
763.824169  	83.282536 
764.788594  	83.326520 
765.753018  	83.367303 
766.717443  	83.539658 
767.681867  	83.740491 
768.646291  	83.829302 
769.610716  	83.942257 
770.575140  	84.106062 
771.539565  	84.294569 
772.503989  	84.333375 
773.468414  	84.411745 
774.432838  	84.581143 
775.397263  	84.731741 
776.361687  	84.822350 
777.326112  	84.954696 
778.290536  	84.933671 
779.254960  	84.927184 
780.219385  	85.262687 
781.183809  	85.727427 
782.148234  	85.377932 
783.112658  	85.137369 
784.077083  	85.281641 
785.041507  	85.421334 
786.005932  	85.667986 
786.970356  	85.605383 
787.934781  	85.625846 
788.899205  	85.774102 
789.863629  	85.796234 
790.828054  	85.766603 
791.792478  	85.846693 
792.756903  	85.897947 
793.721327  	85.893457 
794.685752  	85.839866 
795.650176  	85.921305 
796.614601  	86.055420 
797.579025  	86.176274 
798.543450  	86.148951 
799.507874  	86.275807 
800.472298  	86.524557 
801.436723  	86.697754 
802.401147  	86.821443 
803.365572  	86.961588 
804.329996  	87.093823 
805.294421  	87.218322 
806.258845  	87.270496 
807.223270  	87.402502 
808.187694  	87.475964 
809.152119  	87.529722 
810.116543  	87.558926 
811.080967  	87.612898 
812.045392  	87.723489 
813.009816  	87.796209 
813.974241  	87.825147 
814.938665  	87.975184 
815.903090  	88.037586 
816.867514  	88.036923 
817.831939  	88.171006 
818.796363  	88.321485 
819.760788  	88.391934 
820.725212  	88.438921 
821.689637  	88.440105 
822.654061  	88.521682 
823.618485  	88.568591 
824.582910  	88.586959 
825.547334  	88.599076 
826.511759  	88.619409 
827.476183  	88.687477 
828.440608  	88.763429 
829.405032  	88.821801 
830.369457  	88.817888 
831.333881  	88.923095 
832.298306  	89.049005 
833.262730  	89.080694 
834.227154  	89.157271 
835.191579  	89.120827 
836.156003  	89.131649 
837.120428  	89.194393 
838.084852  	89.145001 
839.049277  	89.180304 
840.013701  	89.223317 
840.978126  	89.194068 
841.942550  	89.228546 
842.906975  	89.267552 
843.871399  	89.295452 
844.835823  	89.306208 
845.800248  	89.292124 
846.764672  	89.331407 
847.729097  	89.483051 
848.693521  	89.425118 
849.657946  	89.439899 
850.622370  	89.515023 
851.586795  	89.552946 
852.551219  	89.490732 
853.515644  	89.492254 
854.480068  	89.588969 
855.444492  	89.577562 
856.408917  	89.514742 
857.373341  	89.575774 
858.337766  	89.662754 
859.302190  	89.693016 
860.266615  	89.674500 
861.231039  	89.671105 
862.195464  	89.702946 
863.159888  	89.681733 
864.124313  	89.706481 
865.088737  	89.723650 
866.053161  	89.727626 
867.017586  	89.724022 
867.982010  	89.727967 
868.946435  	89.778765 
869.910859  	89.796911 
870.875284  	89.726421 
871.839708  	89.698554 
872.804133  	89.745578 
873.768557  	89.762949 
874.732982  	89.730286 
875.697406  	89.680375 
876.661831  	89.646862 
877.626255  	89.604836 
878.590679  	89.585141 
879.555104  	89.540291 
880.519528  	89.490825 
881.483953  	89.465142 
882.448377  	89.518168 
883.412802  	89.558394 
884.377226  	89.558675 
885.341651  	89.530517 
886.306075  	89.463058 
887.270500  	89.429201 
888.234924  	89.477739 
889.199348  	89.402158 
890.163773  	89.325194 
891.128197  	89.359194 
892.092622  	89.350195 
893.057046  	89.226113 
894.021471  	89.097068 
894.985895  	89.054408 
895.950320  	88.950374 
896.914744  	88.784631 
897.879169  	88.687594 
898.843593  	88.536098 
899.808017  	88.287086 
900.772442  	88.009040 
901.736866  	87.659835 
902.701291  	87.324082 
903.665715  	87.026268 
904.630140  	86.708991 
905.594564  	86.526659 
906.558989  	86.598753 
907.523413  	86.852757 
908.487838  	87.114139 
909.452262  	87.444281 
910.416686  	87.756515 
911.381111  	87.900479 
912.345535  	87.871294 
913.309960  	87.814493 
914.274384  	87.780453 
915.238809  	87.712711 
916.203233  	87.578634 
917.167658  	87.457712 
918.132082  	87.323383 
919.096507  	87.189149 
920.060931  	87.073518 
921.025355  	86.927169 
921.989780  	86.666799 
922.954204  	86.403153 
923.918629  	86.130155 
924.883053  	85.828359 
925.847478  	85.482391 
926.811902  	85.063554 
927.776327  	84.581247 
928.740751  	83.995504 
929.705176  	83.341867 
930.669600  	82.596504 
931.634024  	81.855087 
932.598449  	81.193036 
933.562873  	80.670043 
934.527298  	80.443799 
935.491722  	80.608099 
936.456147  	81.255715 
937.420571  	82.201569 
938.384996  	83.166297 
939.349420  	84.082983 
940.313845  	84.967433 
941.278269  	85.758863 
942.242694  	86.365866 
943.207118  	86.759383 
944.171542  	87.110668 
945.135967  	87.395677 
946.100391  	87.582999 
947.064816  	87.788139 
948.029240  	87.970256 
948.993665  	88.123600 
949.958089  	88.267594 
950.922514  	88.381014 
951.886938  	88.498758 
952.851363  	88.566260 
953.815787  	88.583143 
954.780211  	88.663284 
955.744636  	88.792561 
956.709060  	88.858424 
957.673485  	88.867819 
958.637909  	88.898099 
959.602334  	88.935392 
960.566758  	88.973067 
961.531183  	88.991432 
962.495607  	88.987821 
963.460032  	89.039406 
964.424456  	89.092074 
965.388880  	89.065225 
966.353305  	89.049737 
967.317729  	89.125757 
968.282154  	89.159622 
969.246578  	89.135021 
970.211003  	89.185010 
971.175427  	89.205945 
972.139852  	89.119031 
973.104276  	89.070121 
974.068701  	89.085736 
975.033125  	89.083598 
975.997549  	89.059550 
976.961974  	89.044989 
977.926398  	89.023533 
978.890823  	88.984582 
979.855247  	88.927757 
980.819672  	88.845534 
981.784096  	88.812714 
982.748521  	88.814607 
983.712945  	88.705428 
984.677370  	88.530258 
985.641794  	88.389100 
986.606218  	88.312000 
987.570643  	88.275538 
988.535067  	88.262477 
989.499492  	88.273058 
990.463916  	88.289452 
991.428341  	88.267510 
992.392765  	88.203224 
993.357190  	88.131217 
994.321614  	88.072229 
995.286039  	88.008412 
996.250463  	87.955161 
997.214888  	87.907533 
998.179312  	87.882804 
999.143736  	87.822678 
1000.108161  	87.758704 
1001.072585  	87.731251 
1002.037010  	87.715667 
1003.001434  	87.642354 
1003.965859  	87.559254 
1004.930283  	87.505495 
1005.894708  	87.422525 
1006.859132  	87.336679 
1007.823557  	87.235809 
1008.787981  	87.136582 
1009.752405  	87.048077 
1010.716830  	86.933573 
1011.681254  	86.824097 
1012.645679  	86.809239 
1013.610103  	86.803899 
1014.574528  	86.732591 
1015.538952  	86.678638 
1016.503377  	86.718226 
1017.467801  	86.709945 
1018.432226  	86.666901 
1019.396650  	86.666289 
1020.361074  	86.695749 
1021.325499  	86.710122 
1022.289923  	86.650271 
1023.254348  	86.576098 
1024.218772  	86.513061 
1025.183197  	86.426179 
1026.147621  	86.354390 
1027.112046  	86.328527 
1028.076470  	86.285938 
1029.040895  	86.185257 
1030.005319  	86.094937 
1030.969743  	86.018858 
1031.934168  	85.993458 
1032.898592  	85.951392 
1033.863017  	85.849804 
1034.827441  	85.734918 
1035.791866  	85.645691 
1036.756290  	85.591009 
1037.720715  	85.550169 
1038.685139  	85.480199 
1039.649564  	85.436287 
1040.613988  	85.402215 
1041.578412  	85.392354 
1042.542837  	85.435671 
1043.507261  	85.532194 
1044.471686  	85.586301 
1045.436110  	85.601157 
1046.400535  	85.675359 
1047.364959  	85.776391 
1048.329384  	85.821126 
1049.293808  	85.871927 
1050.258233  	85.974780 
1051.222657  	86.058699 
1052.187081  	86.068452 
1053.151506  	86.047595 
1054.115930  	86.033679 
1055.080355  	86.017339 
1056.044779  	85.985987 
1057.009204  	85.908801 
1057.973628  	85.859970 
1058.938053  	85.829044 
1059.902477  	85.748166 
1060.866902  	85.633724 
1061.831326  	85.621838 
1062.795751  	85.596348 
1063.760175  	85.534116 
1064.724599  	85.507442 
1065.689024  	85.536224 
1066.653448  	85.599220 
1067.617873  	85.728384 
1068.582297  	85.863570 
1069.546722  	86.041329 
1070.511146  	86.212715 
1071.475571  	86.339474 
1072.439995  	86.424743 
1073.404420  	86.513551 
1074.368844  	86.603208 
1075.333268  	86.611390 
1076.297693  	86.547666 
1077.262117  	86.491702 
1078.226542  	86.545284 
1079.190966  	86.582215 
1080.155391  	86.526686 
1081.119815  	86.488650 
1082.084240  	86.468209 
1083.048664  	86.410052 
1084.013089  	86.379896 
1084.977513  	86.348330 
1085.941937  	86.239937 
1086.906362  	86.110277 
1087.870786  	86.042317 
1088.835211  	85.966650 
1089.799635  	85.880484 
1090.764060  	85.811197 
1091.728484  	85.768685 
1092.692909  	85.764155 
1093.657333  	85.742236 
1094.621758  	85.673080 
1095.586182  	85.642607 
1096.550606  	85.648469 
1097.515031  	85.659482 
1098.479455  	85.662686 
1099.443880  	85.635841 
1100.408304  	85.650205 
1101.372729  	85.662087 
1102.337153  	85.650171 
1103.301578  	85.665664 
1104.266002  	85.670773 
1105.230427  	85.690082 
1106.194851  	85.711016 
1107.159275  	85.725678 
1108.123700  	85.749686 
1109.088124  	85.744275 
1110.052549  	85.735553 
1111.016973  	85.746849 
1111.981398  	85.763251 
1112.945822  	85.734809 
1113.910247  	85.694753 
1114.874671  	85.680438 
1115.839096  	85.655208 
1116.803520  	85.607357 
1117.767945  	85.561118 
1118.732369  	85.519269 
1119.696793  	85.481699 
1120.661218  	85.406210 
1121.625642  	85.287655 
1122.590067  	85.202481 
1123.554491  	85.112946 
1124.518916  	84.983028 
1125.483340  	84.899299 
1126.447765  	84.818591 
1127.412189  	84.690688 
1128.376614  	84.519219 
1129.341038  	84.326030 
1130.305462  	84.124025 
1131.269887  	83.894474 
1132.234311  	83.578414 
1133.198736  	83.175276 
1134.163160  	82.717169 
1135.127585  	82.196655 
1136.092009  	81.638056 
1137.056434  	81.167320 
1138.020858  	80.871354 
1138.985283  	80.739331 
1139.949707  	80.699665 
1140.914131  	80.757878 
1141.878556  	80.861390 
1142.842980  	80.888842 
1143.807405  	80.886360 
1144.771829  	80.902125 
1145.736254  	80.902912 
1146.700678  	80.925092 
1147.665103  	80.955514 
1148.629527  	81.052046 
1149.593952  	81.215570 
1150.558376  	81.406924 
1151.522800  	81.609130 
1152.487225  	81.815249 
1153.451649  	82.034235 
1154.416074  	82.255389 
1155.380498  	82.434302 
1156.344923  	82.609011 
1157.309347  	82.772231 
1158.273772  	82.847135 
1159.238196  	82.823354 
1160.202621  	82.842048 
1161.167045  	82.819290 
1162.131469  	82.719322 
1163.095894  	82.569492 
1164.060318  	82.431135 
1165.024743  	82.271771 
1165.989167  	82.063203 
1166.953592  	81.830921 
1167.918016  	81.566959 
1168.882441  	81.248942 
1169.846865  	80.866579 
1170.811290  	80.433231 
1171.775714  	79.970412 
1172.740138  	79.466368 
1173.704563  	78.865660 
1174.668987  	78.188213 
1175.633412  	77.607991 
1176.597836  	77.094681 
1177.562261  	76.639430 
1178.526685  	76.342198 
1179.491110  	76.227961 
1180.455534  	76.265844 
1181.419959  	76.429358 
1182.384383  	76.631099 
1183.348808  	76.850862 
1184.313232  	77.080383 
1185.277656  	77.218259 
1186.242081  	77.263273 
1187.206505  	77.243811 
1188.170930  	77.077673 
1189.135354  	76.745984 
1190.099779  	76.299220 
1191.064203  	75.758285 
1192.028628  	75.056668 
1192.993052  	74.190846 
1193.957477  	73.266521 
1194.921901  	72.369292 
1195.886325  	71.617343 
1196.850750  	71.200530 
1197.815174  	71.247991 
1198.779599  	71.782659 
1199.744023  	72.703757 
1200.708448  	73.821295 
1201.672872  	74.981301 
1202.637297  	76.130354 
1203.601721  	77.169862 
1204.566146  	78.025849 
1205.530570  	78.731163 
1206.494994  	79.330274 
1207.459419  	79.809910 
1208.423843  	80.145042 
1209.388268  	80.377127 
1210.352692  	80.552613 
1211.317117  	80.602797 
1212.281541  	80.589323 
1213.245966  	80.620893 
1214.210390  	80.640304 
1215.174815  	80.613703 
1216.139239  	80.548355 
1217.103663  	80.462304 
1218.068088  	80.344805 
1219.032512  	80.141289 
1219.996937  	79.862731 
1220.961361  	79.512168 
1221.925786  	79.117183 
1222.890210  	78.688971 
1223.854635  	78.351981 
1224.819059  	78.248455 
1225.783484  	78.422654 
1226.747908  	78.688623 
1227.712332  	78.871880 
1228.676757  	78.917613 
1229.641181  	78.840301 
1230.605606  	78.687922 
1231.570030  	78.492865 
1232.534455  	78.290515 
1233.498879  	78.124762 
1234.463304  	77.976924 
1235.427728  	77.798682 
1236.392153  	77.651633 
1237.356577  	77.572713 
1238.321002  	77.481723 
1239.285426  	77.366089 
1240.249850  	77.275588 
1241.214275  	77.167988 
1242.178699  	77.026470 
1243.143124  	76.887997 
1244.107548  	76.750829 
1245.071973  	76.689230 
1246.036397  	76.579074 
1247.000822  	76.415845 
1247.965246  	76.297125 
1248.929671  	76.167168 
1249.894095  	75.994444 
1250.858519  	75.820050 
1251.822944  	75.657651 
1252.787368  	75.496885 
1253.751793  	75.320722 
1254.716217  	75.101902 
1255.680642  	74.909400 
1256.645066  	74.740042 
1257.609491  	74.480859 
1258.573915  	74.170089 
1259.538340  	73.842465 
1260.502764  	73.505009 
1261.467188  	73.235960 
1262.431613  	72.937507 
1263.396037  	72.652396 
1264.360462  	72.332004 
1265.324886  	71.949955 
1266.289311  	71.601781 
1267.253735  	71.329540 
1268.218160  	71.047473 
1269.182584  	70.717963 
1270.147009  	70.410193 
1271.111433  	70.210703 
1272.075857  	70.045314 
1273.040282  	69.994109 
1274.004706  	70.011806 
1274.969131  	70.139738 
1275.933555  	70.381503 
1276.897980  	70.755104 
1277.862404  	71.310416 
1278.826829  	71.989514 
1279.791253  	72.685015 
1280.755678  	73.403552 
1281.720102  	74.173090 
1282.684526  	74.890534 
1283.648951  	75.527880 
1284.613375  	76.105263 
1285.577800  	76.627182 
1286.542224  	77.081219 
1287.506649  	77.385153 
1288.471073  	77.692204 
1289.435498  	78.087492 
1290.399922  	78.366596 
1291.364347  	78.569446 
1292.328771  	78.772322 
1293.293195  	78.930722 
1294.257620  	79.046954 
1295.222044  	79.107188 
1296.186469  	79.109902 
1297.150893  	79.144970 
1298.115318  	79.233057 
1299.079742  	79.215689 
1300.044167  	79.198260 
1301.008591  	79.207199 
1301.973016  	79.228326 
1302.937440  	79.262043 
1303.901865  	79.350382 
1304.866289  	79.480164 
1305.830713  	79.576424 
1306.795138  	79.676076 
1307.759562  	79.773242 
1308.723987  	79.932803 
1309.688411  	80.160355 
1310.652836  	80.292230 
1311.617260  	80.298832 
1312.581685  	80.131360 
1313.546109  	80.259899 
1314.510534  	80.448704 
1315.474958  	80.621375 
1316.439382  	80.584012 
1317.403807  	80.519272 
1318.368231  	80.479517 
1319.332656  	80.385486 
1320.297080  	80.580470 
1321.261505  	80.661018 
1322.225929  	80.702165 
1323.190354  	80.649734 
1324.154778  	80.584659 
1325.119203  	80.482111 
1326.083627  	80.370629 
1327.048051  	80.272338 
1328.012476  	80.233399 
1328.976900  	80.174833 
1329.941325  	80.103412 
1330.905749  	80.128992 
1331.870174  	80.195211 
1332.834598  	80.161052 
1333.799023  	80.111205 
1334.763447  	80.042231 
1335.727872  	79.757377 
1336.692296  	79.291058 
1337.656720  	79.133147 
1338.621145  	78.559636 
1339.585569  	77.977739 
1340.549994  	78.110781 
1341.514418  	78.872043 
1342.478843  	79.118395 
1343.443267  	79.000691 
1344.407692  	78.863635 
1345.372116  	78.755713 
1346.336541  	78.614221 
1347.300965  	78.456809 
1348.265389  	78.255853 
1349.229814  	77.968835 
1350.194238  	77.825473 
1351.158663  	77.704574 
1352.123087  	77.466930 
1353.087512  	77.254084 
1354.051936  	76.935635 
1355.016361  	76.562091 
1355.980785  	76.502429 
1356.945210  	76.333193 
1357.909634  	76.038203 
1358.874059  	75.872103 
1359.838483  	75.635929 
1360.802907  	74.965803 
1361.767332  	74.451294 
1362.731756  	73.705299 
1363.696181  	73.669293 
1364.660605  	74.300904 
1365.625030  	74.248211 
1366.589454  	74.051836 
1367.553879  	73.679413 
1368.518303  	73.179866 
1369.482728  	73.132184 
1370.447152  	73.351339 
1371.411576  	73.404708 
1372.376001  	73.391228 
1373.340425  	73.072284 
1374.304850  	73.134863 
1375.269274  	73.929495 
1376.233699  	74.895237 
1377.198123  	75.363417 
1378.162548  	75.597872 
1379.126972  	76.041711 
1380.091397  	76.477872 
1381.055821  	76.899220 
1382.020245  	77.195908 
1382.984670  	77.422082 
1383.949094  	77.612771 
1384.913519  	77.811843 
1385.877943  	77.674510 
1386.842368  	77.065030 
1387.806792  	77.232766 
1388.771217  	78.297870 
1389.735641  	78.750492 
1390.700066  	78.930342 
1391.664490  	79.204973 
1392.628914  	79.470283 
1393.593339  	79.151748 
1394.557763  	78.445669 
1395.522188  	78.661031 
1396.486612  	79.371225 
1397.451037  	79.406994 
1398.415461  	78.935797 
1399.379886  	78.934537 
1400.344310  	79.645562 
1401.308735  	79.879101 
1402.273159  	79.734713 
1403.237583  	79.456122 
1404.202008  	78.752686 
1405.166432  	77.966474 
1406.130857  	78.080408 
1407.095281  	77.870902 
1408.059706  	77.232500 
1409.024130  	76.403640 
1409.988555  	75.285152 
1410.952979  	74.028822 
1411.917404  	72.581400 
1412.881828  	71.246678 
1413.846252  	69.831661 
1414.810677  	68.461794 
1415.775101  	67.372552 
1416.739526  	67.017077 
1417.703950  	67.588873 
1418.668375  	68.219660 
1419.632799  	70.039393 
1420.597224  	72.830218 
1421.561648  	73.800756 
1422.526073  	74.446369 
1423.490497  	74.277439 
1424.454922  	74.699437 
1425.419346  	75.778462 
1426.383770  	76.217258 
1427.348195  	76.304477 
1428.312619  	76.157968 
1429.277044  	75.714001 
1430.241468  	75.375520 
1431.205893  	75.561471 
1432.170317  	75.287589 
1433.134742  	74.919128 
1434.099166  	74.901489 
1435.063591  	74.571629 
1436.028015  	73.358404 
1436.992439  	72.954185 
1437.956864  	74.190488 
1438.921288  	74.554817 
1439.885713  	74.709880 
1440.850137  	74.805182 
1441.814562  	74.860701 
1442.778986  	74.966606 
1443.743411  	75.016344 
1444.707835  	75.027171 
1445.672260  	75.013973 
1446.636684  	74.809294 
1447.601108  	74.153067 
1448.565533  	74.210561 
1449.529957  	74.648190 
1450.494382  	74.474987 
1451.458806  	73.868019 
1452.423231  	73.329840 
1453.387655  	73.243013 
1454.352080  	72.535142 
1455.316504  	71.367859 
1456.280929  	70.241141 
1457.245353  	69.412333 
1458.209777  	69.115872 
1459.174202  	69.233476 
1460.138626  	69.492422 
1461.103051  	69.198025 
1462.067475  	68.426509 
1463.031900  	67.680525 
1463.996324  	66.733454 
1464.960749  	66.258975 
1465.925173  	67.589297 
1466.889598  	68.809267 
1467.854022  	69.971210 
1468.818446  	70.937348 
1469.782871  	71.264682 
1470.747295  	70.672136 
1471.711720  	68.972689 
1472.676144  	67.275524 
1473.640569  	67.047413 
1474.604993  	67.678367 
1475.569418  	67.540014 
1476.533842  	68.044387 
1477.498267  	69.987488 
1478.462691  	71.400038 
1479.427116  	72.729158 
1480.391540  	73.830763 
1481.355964  	74.775323 
1482.320389  	76.322774 
1483.284813  	77.407313 
1484.249238  	78.112016 
1485.213662  	78.354719 
1486.178087  	78.085307 
1487.142511  	77.654477 
1488.106936  	77.751062 
1489.071360  	76.828659 
1490.035785  	75.636097 
1491.000209  	76.442275 
1491.964633  	77.355388 
1492.929058  	77.418349 
1493.893482  	77.068545 
1494.857907  	76.404309 
1495.822331  	75.238692 
1496.786756  	74.762671 
1497.751180  	74.742978 
1498.715605  	73.914321 
1499.680029  	73.881182 
1500.644454  	73.741040 
1501.608878  	73.036198 
1502.573302  	72.633598 
1503.537727  	72.299169 
1504.502151  	71.325965 
1505.466576  	69.532953 
1506.431000  	66.566260 
1507.395425  	65.322384 
1508.359849  	65.880133 
1509.324274  	66.137522 
1510.288698  	66.161051 
1511.253123  	66.084629 
1512.217547  	65.165632 
1513.181971  	64.765802 
1514.146396  	64.123822 
1515.110820  	62.663700 
1516.075245  	61.129649 
1517.039669  	59.453086 
1518.004094  	59.645055 
1518.968518  	59.423579 
1519.932943  	57.849880 
1520.897367  	55.410425 
1521.861792  	54.767018 
1522.826216  	54.594685 
1523.790640  	54.222921 
1524.755065  	53.041157 
1525.719489  	51.922436 
1526.683914  	51.386134 
1527.648338  	50.460089 
1528.612763  	49.985196 
1529.577187  	49.951477 
1530.541612  	49.612552 
1531.506036  	48.939484 
1532.470461  	48.417683 
1533.434885  	47.927278 
1534.399309  	48.870548 
1535.363734  	49.623576 
1536.328158  	50.266765 
1537.292583  	50.764078 
1538.257007  	50.353879 
1539.221432  	49.393911 
1540.185856  	51.224700 
1541.150281  	52.520594 
1542.114705  	53.118342 
1543.079130  	54.585913 
1544.043554  	55.100698 
1545.007979  	55.588252 
1545.972403  	57.502038 
1546.936827  	58.913993 
1547.901252  	59.674735 
1548.865676  	59.949817 
1549.830101  	59.620877 
1550.794525  	61.056535 
1551.758950  	62.390123 
1552.723374  	62.866796 
1553.687799  	62.637745 
1554.652223  	63.085947 
1555.616648  	64.525920 
1556.581072  	64.702454 
1557.545496  	63.875195 
1558.509921  	62.416311 
1559.474345  	62.687875 
1560.438770  	65.943555 
1561.403194  	68.150958 
1562.367619  	69.052139 
1563.332043  	69.708150 
1564.296468  	69.919681 
1565.260892  	70.515710 
1566.225317  	71.626599 
1567.189741  	72.228191 
1568.154165  	72.362270 
1569.118590  	71.758443 
1570.083014  	72.796548 
1571.047439  	74.364999 
1572.011863  	74.959125 
1572.976288  	75.436638 
1573.940712  	75.932322 
1574.905137  	75.872990 
1575.869561  	75.206989 
1576.833986  	75.894303 
1577.798410  	76.961783 
1578.762834  	77.578932 
1579.727259  	78.049333 
1580.691683  	78.357140 
1581.656108  	78.576614 
1582.620532  	78.688802 
1583.584957  	78.786212 
1584.549381  	78.848495 
1585.513806  	78.898516 
1586.478230  	78.865772 
1587.442655  	78.839622 
1588.407079  	78.715904 
1589.371503  	78.500361 
1590.335928  	78.259023 
1591.300352  	78.061625 
1592.264777  	77.740896 
1593.229201  	77.447350 
1594.193626  	76.883345 
1595.158050  	76.460752 
1596.122475  	76.022669 
1597.086899  	75.580266 
1598.051324  	75.048601 
1599.015748  	74.408909 
1599.980173  	73.658847 
1600.944597  	72.760931 
1601.909021  	71.782869 
1602.873446  	70.758502 
1603.837870  	69.790915 
1604.802295  	69.000417 
1605.766719  	67.968938 
1606.731144  	66.839643 
1607.695568  	65.834681 
1608.659993  	64.978584 
1609.624417  	63.836771 
1610.588842  	63.107023 
1611.553266  	62.141392 
1612.517690  	61.026588 
1613.482115  	59.799430 
1614.446539  	58.567555 
1615.410964  	57.040905 
1616.375388  	55.218112 
1617.339813  	53.875272 
1618.304237  	53.514130 
1619.268662  	52.589815 
1620.233086  	51.662068 
1621.197511  	50.682529 
1622.161935  	49.646756 
1623.126359  	48.226426 
1624.090784  	47.799967 
1625.055208  	47.551919 
1626.019633  	46.992885 
1626.984057  	46.088340 
1627.948482  	45.338592 
1628.912906  	45.067267 
1629.877331  	44.804371 
1630.841755  	44.468133 
1631.806180  	44.433064 
1632.770604  	44.593845 
1633.735028  	44.799862 
1634.699453  	44.339704 
1635.663877  	44.942700 
1636.628302  	46.931051 
1637.592726  	47.900416 
1638.557151  	49.625685 
1639.521575  	50.950870 
1640.486000  	52.211584 
1641.450424  	53.612054 
1642.414849  	54.909042 
1643.379273  	56.417465 
1644.343697  	57.597607 
1645.308122  	58.046104 
1646.272546  	58.793067 
1647.236971  	60.134102 
1648.201395  	61.791024 
1649.165820  	64.148855 
1650.130244  	65.498039 
1651.094669  	66.245766 
1652.059093  	65.984120 
1653.023518  	64.935260 
1653.987942  	67.403533 
1654.952366  	70.186365 
1655.916791  	71.937892 
1656.881215  	73.032412 
1657.845640  	74.247534 
1658.810064  	75.379611 
1659.774489  	76.337111 
1660.738913  	77.072099 
1661.703338  	77.479579 
1662.667762  	77.906043 
1663.632187  	79.526816 
1664.596611  	80.690114 
1665.561036  	81.602335 
1666.525460  	82.540430 
1667.489884  	82.925982 
1668.454309  	82.447783 
1669.418733  	82.798899 
1670.383158  	84.385160 
1671.347582  	84.663009 
1672.312007  	85.683127 
1673.276431  	86.669890 
1674.240856  	86.693539 
1675.205280  	86.185850 
1676.169705  	87.450292 
1677.134129  	88.452013 
1678.098553  	88.910094 
1679.062978  	88.951781 
1680.027402  	88.306953 
1680.991827  	88.948563 
1681.956251  	89.838936 
1682.920676  	89.145722 
1683.885100  	86.519014 
1684.849525  	87.180939 
1685.813949  	90.367052 
1686.778374  	91.108438 
1687.742798  	90.904625 
1688.707222  	90.781669 
1689.671647  	91.168406 
1690.636071  	91.482410 
1691.600496  	92.116640 
1692.564920  	92.295732 
1693.529345  	92.250596 
1694.493769  	91.777494 
1695.458194  	90.600289 
1696.422618  	90.173666 
1697.387043  	91.013847 
1698.351467  	91.270575 
1699.315891  	90.755790 
1700.280316  	88.635823 
1701.244740  	90.671672 
1702.209165  	91.599670 
1703.173589  	91.738492 
1704.138014  	91.287563 
1705.102438  	91.204099 
1706.066863  	91.187139 
1707.031287  	91.318356 
1707.995712  	92.009832 
1708.960136  	92.215830 
1709.924560  	91.875592 
1710.888985  	91.903804 
1711.853409  	92.199479 
1712.817834  	91.929283 
1713.782258  	91.174039 
1714.746683  	90.289449 
1715.711107  	90.456127 
1716.675532  	90.426579 
1717.639956  	89.106333 
1718.604381  	89.110770 
1719.568805  	90.946098 
1720.533230  	91.625418 
1721.497654  	91.666814 
1722.462078  	91.528916 
1723.426503  	91.177673 
1724.390927  	91.334338 
1725.355352  	91.597075 
1726.319776  	91.564012 
1727.284201  	91.523055 
1728.248625  	91.444790 
1729.213050  	90.800590 
1730.177474  	89.877584 
1731.141899  	90.604667 
1732.106323  	90.703996 
1733.070747  	89.545482 
1734.035172  	87.783118 
1734.999596  	89.394724 
1735.964021  	90.911192 
1736.928445  	91.245216 
1737.892870  	91.301915 
1738.857294  	91.118926 
1739.821719  	90.646880 
1740.786143  	91.542823 
1741.750568  	92.005894 
1742.714992  	91.389948 
1743.679416  	90.766747 
1744.643841  	91.525714 
1745.608265  	91.961365 
1746.572690  	91.764999 
1747.537114  	91.408389 
1748.501539  	91.170236 
1749.465963  	91.398820 
1750.430388  	91.536532 
1751.394812  	90.901042 
1752.359237  	92.152468 
1753.323661  	93.030075 
1754.288085  	93.381633 
1755.252510  	93.345267 
1756.216934  	92.747269 
1757.181359  	92.312697 
1758.145783  	92.916621 
1759.110208  	93.258529 
1760.074632  	93.446445 
1761.039057  	92.824371 
1762.003481  	92.173123 
1762.967906  	93.067904 
1763.932330  	93.542045 
1764.896754  	93.631722 
1765.861179  	93.722669 
1766.825603  	93.503035 
1767.790028  	92.681763 
1768.754452  	92.643506 
1769.718877  	93.416927 
1770.683301  	93.034824 
1771.647726  	92.177474 
1772.612150  	91.852830 
1773.576575  	92.918882 
1774.540999  	93.346691 
1775.505423  	93.036048 
1776.469848  	93.325839 
1777.434272  	93.815642 
1778.398697  	93.621556 
1779.363121  	93.394051 
1780.327546  	92.980889 
1781.291970  	93.022842 
1782.256395  	93.614081 
1783.220819  	93.861336 
1784.185244  	93.519923 
1785.149668  	93.121758 
1786.114093  	93.580587 
1787.078517  	93.859442 
1788.042941  	93.866489 
1789.007366  	93.841804 
1789.971790  	93.524428 
1790.936215  	92.786275 
1791.900639  	92.359747 
1792.865064  	92.324717 
1793.829488  	93.183500 
1794.793913  	93.461814 
1795.758337  	92.971352 
1796.722762  	93.114502 
1797.687186  	93.720982 
1798.651610  	93.614699 
1799.616035  	93.118616 
1800.580459  	93.192998 
1801.544884  	92.952825 
1802.509308  	92.852830 
1803.473733  	93.551312 
1804.438157  	93.916785 
1805.402582  	93.871225 
1806.367006  	93.824643 
1807.331431  	93.614172 
1808.295855  	93.612667 
1809.260279  	93.793213 
1810.224704  	93.379909 
1811.189128  	93.146470 
1812.153553  	93.450526 
1813.117977  	93.695503 
1814.082402  	93.969609 
1815.046826  	94.010118 
1816.011251  	94.044313 
1816.975675  	93.797388 
1817.940100  	93.662658 
1818.904524  	93.865597 
1819.868948  	93.963013 
1820.833373  	93.884816 
1821.797797  	93.805790 
1822.762222  	93.657735 
1823.726646  	93.710083 
1824.691071  	93.139887 
1825.655495  	92.719939 
1826.619920  	93.592741 
1827.584344  	93.880806 
1828.548769  	93.445381 
1829.513193  	92.428517 
1830.477617  	92.545130 
1831.442042  	93.591466 
1832.406466  	93.795733 
1833.370891  	93.656591 
1834.335315  	93.856258 
1835.299740  	94.023813 
1836.264164  	93.844647 
1837.228589  	93.456789 
1838.193013  	93.569485 
1839.157438  	93.831634 
1840.121862  	93.910041 
1841.086287  	93.883177 
1842.050711  	93.577487 
1843.015135  	93.206111 
1843.979560  	92.477287 
1844.943984  	92.678120 
1845.908409  	93.317685 
1846.872833  	93.393486 
1847.837258  	93.035195 
1848.801682  	93.320647 
1849.766107  	93.794776 
1850.730531  	93.960883 
1851.694956  	93.926478 
1852.659380  	93.886271 
1853.623804  	93.901247 
1854.588229  	93.912431 
1855.552653  	93.899647 
1856.517078  	93.865056 
1857.481502  	93.801419 
1858.445927  	93.706668 
1859.410351  	93.633749 
1860.374776  	93.658813 
1861.339200  	93.618622 
1862.303625  	93.728470 
1863.268049  	93.830477 
1864.232473  	93.802838 
1865.196898  	93.763040 
1866.161322  	93.490884 
1867.125747  	93.140873 
1868.090171  	92.683085 
1869.054596  	92.372524 
1870.019020  	92.869102 
1870.983445  	93.432058 
1871.947869  	93.745037 
1872.912294  	93.890147 
1873.876718  	93.890335 
1874.841142  	93.831826 
1875.805567  	93.834978 
1876.769991  	93.826327 
1877.734416  	93.854008 
1878.698840  	93.797120 
1879.663265  	93.734860 
1880.627689  	93.797712 
1881.592114  	93.865398 
1882.556538  	93.866244 
1883.520963  	93.864131 
1884.485387  	93.715012 
1885.449811  	93.638851 
1886.414236  	93.846109 
1887.378660  	93.940459 
1888.343085  	93.713328 
1889.307509  	93.083642 
1890.271934  	93.062197 
1891.236358  	93.531595 
1892.200783  	93.664055 
1893.165207  	93.771544 
1894.129632  	93.660026 
1895.094056  	93.336433 
1896.058480  	93.524603 
1897.022905  	93.805599 
1897.987329  	93.696757 
1898.951754  	93.648352 
1899.916178  	93.774938 
1900.880603  	93.883016 
1901.845027  	93.735681 
1902.809452  	93.730948 
1903.773876  	93.764703 
1904.738301  	93.840267 
1905.702725  	93.749675 
1906.667150  	93.670488 
1907.631574  	93.533483 
1908.595998  	93.525882 
1909.560423  	93.369113 
1910.524847  	93.329775 
1911.489272  	93.658532 
1912.453696  	93.773098 
1913.418121  	93.806054 
1914.382545  	93.768644 
1915.346970  	93.795729 
1916.311394  	93.843175 
1917.275819  	93.280166 
1918.240243  	92.825202 
1919.204667  	93.471328 
1920.169092  	93.657354 
1921.133516  	93.483175 
1922.097941  	93.068724 
1923.062365  	92.742514 
1924.026790  	93.381026 
1924.991214  	93.722753 
1925.955639  	93.659185 
1926.920063  	93.656311 
1927.884488  	93.741470 
1928.848912  	93.862587 
1929.813336  	93.991568 
1930.777761  	93.957197 
1931.742185  	94.049486 
1932.706610  	94.012094 
1933.671034  	93.965854 
1934.635459  	94.030372 
1935.599883  	94.052430 
1936.564308  	93.994087 
1937.528732  	93.806958 
1938.493157  	93.744991 
1939.457581  	93.984296 
1940.422005  	93.846380 
1941.386430  	93.425492 
1942.350854  	92.824365 
1943.315279  	93.041304 
1944.279703  	93.616892 
1945.244128  	93.784283 
1946.208552  	93.866473 
1947.172977  	93.787651 
1948.137401  	93.763526 
1949.101826  	93.876293 
1950.066250  	94.141356 
1951.030674  	94.241279 
1951.995099  	94.082567 
1952.959523  	94.048695 
1953.923948  	93.857984 
1954.888372  	93.726221 
1955.852797  	93.794467 
1956.817221  	94.091013 
1957.781646  	94.218722 
1958.746070  	94.213222 
1959.710495  	94.323949 
1960.674919  	94.081643 
1961.639344  	93.789382 
1962.603768  	93.816302 
1963.568192  	93.954078 
1964.532617  	94.298296 
1965.497041  	94.359924 
1966.461466  	94.111259 
1967.425890  	93.794327 
1968.390315  	94.023949 
1969.354739  	93.945285 
1970.319164  	93.904332 
1971.283588  	94.035691 
1972.248013  	94.073436 
1973.212437  	94.039528 
1974.176861  	94.034637 
1975.141286  	94.197447 
1976.105710  	94.636316 
1977.070135  	94.765670 
1978.034559  	94.475751 
1978.998984  	93.789014 
1979.963408  	93.501669 
1980.927833  	93.353558 
1981.892257  	93.408990 
1982.856682  	93.473861 
1983.821106  	93.783102 
1984.785530  	93.936506 
1985.749955  	93.777868 
1986.714379  	93.790299 
1987.678804  	93.801889 
1988.643228  	93.564262 
1989.607653  	93.802629 
1990.572077  	93.801597 
1991.536502  	93.483953 
1992.500926  	93.218243 
1993.465351  	93.395069 
1994.429775  	93.706561 
1995.394199  	93.869444 
1996.358624  	93.716933 
1997.323048  	93.681760 
1998.287473  	93.684989 
1999.251897  	93.926492 
2000.216322  	94.263147 
2001.180746  	94.419536 
2002.145171  	94.239325 
2003.109595  	94.339057 
2004.074020  	94.357351 
2005.038444  	94.536886 
2006.002868  	94.554180 
2006.967293  	94.312304 
2007.931717  	93.726134 
2008.896142  	93.579967 
2009.860566  	93.928317 
2010.824991  	94.161564 
2011.789415  	94.148354 
2012.753840  	94.252379 
2013.718264  	93.988912 
2014.682689  	93.807869 
2015.647113  	94.019443 
2016.611537  	93.855492 
2017.575962  	93.544520 
2018.540386  	93.729103 
2019.504811  	93.958785 
2020.469235  	94.282925 
2021.433660  	94.276494 
2022.398084  	94.107526 
2023.362509  	93.927989 
2024.326933  	93.896703 
2025.291358  	93.848916 
2026.255782  	93.966381 
2027.220207  	93.995457 
2028.184631  	94.132873 
2029.149055  	94.077991 
2030.113480  	94.252701 
2031.077904  	94.293435 
2032.042329  	93.920934 
2033.006753  	93.766554 
2033.971178  	93.944283 
2034.935602  	94.086558 
2035.900027  	94.133536 
2036.864451  	93.981766 
2037.828876  	93.889033 
2038.793300  	93.709867 
2039.757724  	93.550841 
2040.722149  	93.441935 
2041.686573  	93.392414 
2042.650998  	93.332783 
2043.615422  	93.278719 
2044.579847  	93.449138 
2045.544271  	93.848396 
2046.508696  	93.814143 
2047.473120  	93.586841 
2048.437545  	93.685184 
2049.401969  	93.842790 
2050.366393  	93.651740 
2051.330818  	93.571392 
2052.295242  	93.788489 
2053.259667  	93.887031 
2054.224091  	93.737072 
2055.188516  	93.716554 
2056.152940  	93.671128 
2057.117365  	93.451923 
2058.081789  	93.420197 
2059.046214  	93.616402 
2060.010638  	93.496469 
2060.975062  	93.266756 
2061.939487  	93.314419 
2062.903911  	93.486744 
2063.868336  	93.361092 
2064.832760  	93.243319 
2065.797185  	93.401750 
2066.761609  	93.444987 
2067.726034  	93.457754 
2068.690458  	93.589636 
2069.654883  	93.709475 
2070.619307  	93.689920 
2071.583731  	93.519541 
2072.548156  	93.490483 
2073.512580  	93.493858 
2074.477005  	93.497649 
2075.441429  	93.575475 
2076.405854  	93.550636 
2077.370278  	93.354443 
2078.334703  	93.307748 
2079.299127  	93.282393 
2080.263552  	93.284664 
2081.227976  	93.302231 
2082.192401  	93.434886 
2083.156825  	93.435993 
2084.121249  	93.432156 
2085.085674  	93.503485 
2086.050098  	93.634143 
2087.014523  	93.522714 
2087.978947  	93.496475 
2088.943372  	93.586702 
2089.907796  	93.457067 
2090.872221  	93.394645 
2091.836645  	93.732940 
2092.801070  	93.874275 
2093.765494  	93.799250 
2094.729918  	93.771375 
2095.694343  	93.693912 
2096.658767  	93.515656 
2097.623192  	93.482135 
2098.587616  	93.532654 
2099.552041  	93.653389 
2100.516465  	93.678131 
2101.480890  	93.664116 
2102.445314  	93.489528 
2103.409739  	93.461581 
2104.374163  	93.441791 
2105.338587  	93.402526 
2106.303012  	93.406219 
2107.267436  	93.403697 
2108.231861  	93.328366 
2109.196285  	93.336981 
2110.160710  	93.500175 
2111.125134  	93.710194 
2112.089559  	93.687324 
2113.053983  	93.573359 
2114.018408  	93.478749 
2114.982832  	93.434701 
2115.947256  	93.331472 
2116.911681  	93.379163 
2117.876105  	93.549659 
2118.840530  	93.633699 
2119.804954  	93.615726 
2120.769379  	93.609361 
2121.733803  	93.605076 
2122.698228  	93.765215 
2123.662652  	93.727787 
2124.627077  	93.577701 
2125.591501  	93.620001 
2126.555925  	93.813512 
2127.520350  	93.875342 
2128.484774  	93.825784 
2129.449199  	93.865245 
2130.413623  	93.972552 
2131.378048  	93.937399 
2132.342472  	94.098429 
2133.306897  	94.171644 
2134.271321  	93.939027 
2135.235746  	93.675636 
2136.200170  	93.625594 
2137.164594  	93.779301 
2138.129019  	93.913142 
2139.093443  	93.949732 
2140.057868  	93.946048 
2141.022292  	93.871952 
2141.986717  	93.889078 
2142.951141  	93.853978 
2143.915566  	94.032617 
2144.879990  	94.005672 
2145.844415  	93.929985 
2146.808839  	93.903561 
2147.773264  	93.948128 
2148.737688  	93.937870 
2149.702112  	94.101586 
2150.666537  	94.148194 
2151.630961  	94.385307 
2152.595386  	94.497566 
2153.559810  	94.314246 
2154.524235  	94.287985 
2155.488659  	94.761814 
2156.453084  	95.039394 
2157.417508  	94.787805 
2158.381933  	94.589312 
2159.346357  	94.062944 
2160.310781  	93.367682 
2161.275206  	93.253178 
2162.239630  	93.627536 
2163.204055  	93.783811 
2164.168479  	93.692069 
2165.132904  	93.598872 
2166.097328  	93.534766 
2167.061753  	93.723006 
2168.026177  	93.656521 
2168.990602  	93.433916 
2169.955026  	93.325136 
2170.919450  	93.610378 
2171.883875  	93.663188 
2172.848299  	93.832758 
2173.812724  	93.731068 
2174.777148  	93.701033 
2175.741573  	93.531245 
2176.705997  	93.239085 
2177.670422  	93.391048 
2178.634846  	93.902302 
2179.599271  	93.945155 
2180.563695  	93.870722 
2181.528119  	93.861147 
2182.492544  	93.724004 
2183.456968  	93.355915 
2184.421393  	93.235174 
2185.385817  	93.643484 
2186.350242  	93.972629 
2187.314666  	93.707547 
2188.279091  	93.639610 
2189.243515  	93.483646 
2190.207940  	93.378960 
2191.172364  	93.503006 
2192.136788  	93.598619 
2193.101213  	93.444282 
2194.065637  	93.423067 
2195.030062  	93.249561 
2195.994486  	93.198150 
2196.958911  	93.355338 
2197.923335  	93.512663 
2198.887760  	93.553077 
2199.852184  	93.632036 
2200.816609  	93.605529 
2201.781033  	93.775895 
2202.745458  	93.773929 
2203.709882  	93.672598 
2204.674306  	93.510389 
2205.638731  	93.371336 
2206.603155  	93.491452 
2207.567580  	93.657437 
2208.532004  	93.484052 
2209.496429  	93.410114 
2210.460853  	93.299385 
2211.425278  	93.369388 
2212.389702  	93.374444 
2213.354127  	93.263989 
2214.318551  	93.293015 
2215.282975  	93.365212 
2216.247400  	93.361166 
2217.211824  	93.641409 
2218.176249  	93.677235 
2219.140673  	93.640280 
2220.105098  	93.471769 
2221.069522  	93.480851 
2222.033947  	93.531519 
2222.998371  	93.539638 
2223.962796  	93.384222 
2224.927220  	93.408478 
2225.891644  	93.332977 
2226.856069  	93.220980 
2227.820493  	93.194882 
2228.784918  	93.302210 
2229.749342  	93.341969 
2230.713767  	93.237211 
2231.678191  	93.154778 
2232.642616  	93.357753 
2233.607040  	93.586349 
2234.571465  	93.508028 
2235.535889  	93.269013 
2236.500313  	93.280910 
2237.464738  	93.424450 
2238.429162  	93.489519 
2239.393587  	93.356043 
2240.358011  	93.421465 
2241.322436  	93.606664 
2242.286860  	93.621973 
2243.251285  	93.484063 
2244.215709  	93.429429 
2245.180134  	93.332756 
2246.144558  	93.256061 
2247.108982  	93.258697 
2248.073407  	93.397555 
2249.037831  	93.397915 
2250.002256  	93.453661 
2250.966680  	93.493996 
2251.931105  	93.538952 
2252.895529  	93.464881 
2253.859954  	93.473199 
2254.824378  	93.348900 
2255.788803  	93.233334 
2256.753227  	93.210635 
2257.717651  	93.331483 
2258.682076  	93.200437 
2259.646500  	93.269346 
2260.610925  	93.351620 
2261.575349  	93.328227 
2262.539774  	93.336390 
2263.504198  	93.506437 
2264.468623  	93.459003 
2265.433047  	93.343348 
2266.397472  	93.290355 
2267.361896  	93.375071 
2268.326321  	93.356570 
2269.290745  	93.315434 
2270.255169  	93.375214 
2271.219594  	93.444592 
2272.184018  	93.293701 
2273.148443  	93.212582 
2274.112867  	93.248684 
2275.077292  	93.341735 
2276.041716  	93.286839 
2277.006141  	93.328466 
2277.970565  	93.333670 
2278.934990  	93.254980 
2279.899414  	93.172510 
2280.863838  	93.224823 
2281.828263  	93.231076 
2282.792687  	93.183911 
2283.757112  	93.076259 
2284.721536  	93.044285 
2285.685961  	93.038397 
2286.650385  	93.116056 
2287.614810  	93.134227 
2288.579234  	93.090828 
2289.543659  	93.035845 
2290.508083  	93.150903 
2291.472507  	93.125943 
2292.436932  	93.146847 
2293.401356  	93.101487 
2294.365781  	93.086099 
2295.330205  	93.109891 
2296.294630  	93.110225 
2297.259054  	93.038156 
2298.223479  	92.998980 
2299.187903  	93.016898 
2300.152328  	93.047052 
2301.116752  	93.065795 
2302.081176  	93.150763 
2303.045601  	93.143820 
2304.010025  	93.162772 
2304.974450  	93.053778 
2305.938874  	93.101331 
2306.903299  	93.066885 
2307.867723  	93.151258 
2308.832148  	93.013681 
2309.796572  	93.140206 
2310.760997  	93.048851 
2311.725421  	93.109682 
2312.689845  	93.111091 
2313.654270  	93.285065 
2314.618694  	93.223312 
2315.583119  	93.328035 
2316.547543  	93.327874 
2317.511968  	93.470977 
2318.476392  	93.422188 
2319.440817  	93.449047 
2320.405241  	93.373145 
2321.369666  	93.470113 
2322.334090  	93.523435 
2323.298515  	93.552477 
2324.262939  	93.575411 
2325.227363  	93.884671 
2326.191788  	94.193817 
2327.156212  	94.407479 
2328.120637  	94.466568 
2329.085061  	94.545627 
2330.049486  	94.639012 
2331.013910  	94.643628 
2331.978335  	94.709448 
2332.942759  	94.819798 
2333.907184  	94.965070 
2334.871608  	95.066075 
2335.836032  	95.178754 
2336.800457  	95.289111 
2337.764881  	95.271572 
2338.729306  	95.209226 
2339.693730  	95.177744 
2340.658155  	95.275918 
2341.622579  	95.338166 
2342.587004  	95.266060 
2343.551428  	95.182074 
2344.515853  	94.952029 
2345.480277  	94.767258 
2346.444701  	94.604432 
2347.409126  	94.400377 
2348.373550  	94.014789 
2349.337975  	93.786179 
2350.302399  	94.097284 
2351.266824  	94.533667 
2352.231248  	94.971028 
2353.195673  	95.201578 
2354.160097  	95.278934 
2355.124522  	95.416195 
2356.088946  	95.675370 
2357.053370  	95.772381 
2358.017795  	95.779965 
2358.982219  	95.838162 
2359.946644  	96.123730 
2360.911068  	96.222126 
2361.875493  	95.997716 
2362.839917  	95.925111 
2363.804342  	95.990677 
2364.768766  	95.873682 
2365.733191  	95.874210 
2366.697615  	95.769765 
2367.662039  	95.426325 
2368.626464  	95.121174 
2369.590888  	94.939477 
2370.555313  	94.760977 
2371.519737  	94.578208 
2372.484162  	94.347754 
2373.448586  	94.182171 
2374.413011  	94.010711 
2375.377435  	93.811984 
2376.341860  	93.674619 
2377.306284  	93.588672 
2378.270708  	93.426612 
2379.235133  	93.262891 
2380.199557  	93.254903 
2381.163982  	93.254888 
2382.128406  	93.246205 
2383.092831  	93.260692 
2384.057255  	93.244716 
2385.021680  	93.244066 
2385.986104  	93.321324 
2386.950529  	93.379869 
2387.914953  	93.442030 
2388.879378  	93.430595 
2389.843802  	93.436990 
2390.808226  	93.458822 
2391.772651  	93.414941 
2392.737075  	93.386934 
2393.701500  	93.472768 
2394.665924  	93.531733 
2395.630349  	93.492517 
2396.594773  	93.435861 
2397.559198  	93.373077 
2398.523622  	93.385272 
2399.488047  	93.478287 
2400.452471  	93.486665 
2401.416895  	93.445468 
2402.381320  	93.468562 
2403.345744  	93.525660 
2404.310169  	93.535108 
2405.274593  	93.457606 
2406.239018  	93.388992 
2407.203442  	93.383086 
2408.167867  	93.389456 
2409.132291  	93.384282 
2410.096716  	93.381277 
2411.061140  	93.366665 
2412.025564  	93.376442 
2412.989989  	93.377251 
2413.954413  	93.397393 
2414.918838  	93.454736 
2415.883262  	93.461124 
2416.847687  	93.412441 
2417.812111  	93.407451 
2418.776536  	93.370281 
2419.740960  	93.336781 
2420.705385  	93.360050 
2421.669809  	93.340242 
2422.634233  	93.287005 
2423.598658  	93.319539 
2424.563082  	93.410278 
2425.527507  	93.452936 
2426.491931  	93.341089 
2427.456356  	93.239798 
2428.420780  	93.319155 
2429.385205  	93.376314 
2430.349629  	93.339910 
2431.314054  	93.314755 
2432.278478  	93.323637 
2433.242902  	93.316885 
2434.207327  	93.324885 
2435.171751  	93.362268 
2436.136176  	93.436075 
2437.100600  	93.458078 
2438.065025  	93.413902 
2439.029449  	93.425276 
2439.993874  	93.386751 
2440.958298  	93.338749 
2441.922723  	93.308373 
2442.887147  	93.255689 
2443.851572  	93.286791 
2444.815996  	93.336685 
2445.780420  	93.361050 
2446.744845  	93.344841 
2447.709269  	93.312923 
2448.673694  	93.344006 
2449.638118  	93.299816 
2450.602543  	93.248242 
2451.566967  	93.247001 
2452.531392  	93.264019 
2453.495816  	93.292302 
2454.460241  	93.252778 
2455.424665  	93.206789 
2456.389089  	93.239746 
2457.353514  	93.274520 
2458.317938  	93.265568 
2459.282363  	93.230012 
2460.246787  	93.259810 
2461.211212  	93.226387 
2462.175636  	93.187669 
2463.140061  	93.191878 
2464.104485  	93.222059 
2465.068910  	93.229292 
2466.033334  	93.221112 
2466.997758  	93.239214 
2467.962183  	93.269126 
2468.926607  	93.234296 
2469.891032  	93.197344 
2470.855456  	93.219657 
2471.819881  	93.270005 
2472.784305  	93.295150 
2473.748730  	93.313870 
2474.713154  	93.315376 
2475.677579  	93.247787 
2476.642003  	93.184585 
2477.606427  	93.218238 
2478.570852  	93.281850 
2479.535276  	93.282244 
2480.499701  	93.263348 
2481.464125  	93.291502 
2482.428550  	93.327528 
2483.392974  	93.288314 
2484.357399  	93.278547 
2485.321823  	93.233570 
2486.286248  	93.148025 
2487.250672  	93.176107 
2488.215096  	93.217504 
2489.179521  	93.198020 
2490.143945  	93.171743 
2491.108370  	93.142991 
2492.072794  	93.163253 
2493.037219  	93.181191 
2494.001643  	93.186027 
2494.966068  	93.239200 
2495.930492  	93.297012 
2496.894917  	93.289901 
2497.859341  	93.252892 
2498.823765  	93.225890 
2499.788190  	93.241367 
2500.752614  	93.211317 
2501.717039  	93.152689 
2502.681463  	93.141570 
2503.645888  	93.174948 
2504.610312  	93.152249 
2505.574737  	93.184321 
2506.539161  	93.214223 
2507.503586  	93.227107 
2508.468010  	93.228939 
2509.432435  	93.216555 
2510.396859  	93.209600 
2511.361283  	93.220390 
2512.325708  	93.199684 
2513.290132  	93.206597 
2514.254557  	93.261607 
2515.218981  	93.199760 
2516.183406  	93.123775 
2517.147830  	93.177920 
2518.112255  	93.184702 
2519.076679  	93.123988 
2520.041104  	93.105122 
2521.005528  	93.144679 
2521.969952  	93.171945 
2522.934377  	93.174832 
2523.898801  	93.136731 
2524.863226  	93.122979 
2525.827650  	93.140870 
2526.792075  	93.161355 
2527.756499  	93.169584 
2528.720924  	93.206004 
2529.685348  	93.190195 
2530.649773  	93.159304 
2531.614197  	93.149947 
2532.578621  	93.145795 
2533.543046  	93.145398 
2534.507470  	93.120049 
2535.471895  	93.117401 
2536.436319  	93.105118 
2537.400744  	93.092956 
2538.365168  	93.073491 
2539.329593  	93.080990 
2540.294017  	93.091681 
2541.258442  	93.101808 
2542.222866  	93.098359 
2543.187290  	93.115768 
2544.151715  	93.152528 
2545.116139  	93.135770 
2546.080564  	93.072441 
2547.044988  	92.993612 
2548.009413  	92.941842 
2548.973837  	93.037178 
2549.938262  	93.082678 
2550.902686  	93.106535 
2551.867111  	93.079377 
2552.831535  	93.014716 
2553.795959  	93.007369 
2554.760384  	93.003479 
2555.724808  	92.985694 
2556.689233  	92.961366 
2557.653657  	92.989029 
2558.618082  	92.977409 
2559.582506  	92.986702 
2560.546931  	92.979990 
2561.511355  	92.919395 
2562.475780  	92.916916 
2563.440204  	92.918336 
2564.404629  	92.967391 
2565.369053  	92.979078 
2566.333477  	92.978737 
2567.297902  	93.012421 
2568.262326  	92.950161 
2569.226751  	92.817485 
2570.191175  	92.844843 
2571.155600  	92.943309 
2572.120024  	92.955756 
2573.084449  	92.936705 
2574.048873  	92.875782 
2575.013298  	92.819199 
2575.977722  	92.821691 
2576.942146  	92.846452 
2577.906571  	92.878074 
2578.870995  	92.882594 
2579.835420  	92.851439 
2580.799844  	92.835975 
2581.764269  	92.798755 
2582.728693  	92.834796 
2583.693118  	92.847088 
2584.657542  	92.779441 
2585.621967  	92.800405 
2586.586391  	92.796431 
2587.550815  	92.806888 
2588.515240  	92.826311 
2589.479664  	92.790813 
2590.444089  	92.743977 
2591.408513  	92.778048 
2592.372938  	92.803945 
2593.337362  	92.768351 
2594.301787  	92.755825 
2595.266211  	92.766716 
2596.230636  	92.772978 
2597.195060  	92.774186 
2598.159484  	92.774676 
2599.123909  	92.816045 
2600.088333  	92.816395 
2601.052758  	92.759445 
2602.017182  	92.769112 
2602.981607  	92.787068 
2603.946031  	92.762716 
2604.910456  	92.764166 
2605.874880  	92.787833 
2606.839305  	92.770708 
2607.803729  	92.730390 
2608.768153  	92.712044 
2609.732578  	92.680862 
2610.697002  	92.641041 
2611.661427  	92.658153 
2612.625851  	92.701093 
2613.590276  	92.762195 
2614.554700  	92.773949 
2615.519125  	92.694140 
2616.483549  	92.692349 
2617.447974  	92.710107 
2618.412398  	92.732214 
2619.376822  	92.720512 
2620.341247  	92.705184 
2621.305671  	92.678601 
2622.270096  	92.655367 
2623.234520  	92.655273 
2624.198945  	92.705218 
2625.163369  	92.731040 
2626.127794  	92.693580 
2627.092218  	92.706466 
2628.056643  	92.733267 
2629.021067  	92.707554 
2629.985492  	92.701102 
2630.949916  	92.716045 
2631.914340  	92.709803 
2632.878765  	92.675353 
2633.843189  	92.673103 
2634.807614  	92.673168 
2635.772038  	92.669999 
2636.736463  	92.638597 
2637.700887  	92.649216 
2638.665312  	92.685142 
2639.629736  	92.657409 
2640.594161  	92.638989 
2641.558585  	92.652228 
2642.523009  	92.627690 
2643.487434  	92.616911 
2644.451858  	92.660111 
2645.416283  	92.647310 
2646.380707  	92.629660 
2647.345132  	92.642706 
2648.309556  	92.633163 
2649.273981  	92.612372 
2650.238405  	92.626191 
2651.202830  	92.647714 
2652.167254  	92.625086 
2653.131678  	92.596706 
2654.096103  	92.584704 
2655.060527  	92.587369 
2656.024952  	92.582142 
2656.989376  	92.580684 
2657.953801  	92.576213 
2658.918225  	92.599000 
2659.882650  	92.602982 
2660.847074  	92.588241 
2661.811499  	92.604751 
2662.775923  	92.602242 
2663.740347  	92.627127 
2664.704772  	92.631594 
2665.669196  	92.661765 
2666.633621  	92.670499 
2667.598045  	92.633973 
2668.562470  	92.622004 
2669.526894  	92.623874 
2670.491319  	92.620119 
2671.455743  	92.638054 
2672.420168  	92.647784 
2673.384592  	92.629759 
2674.349016  	92.615841 
2675.313441  	92.613409 
2676.277865  	92.604361 
2677.242290  	92.608682 
2678.206714  	92.594189 
2679.171139  	92.563384 
2680.135563  	92.584119 
2681.099988  	92.614735 
2682.064412  	92.610413 
2683.028837  	92.581077 
2683.993261  	92.572476 
2684.957686  	92.589686 
2685.922110  	92.572238 
2686.886534  	92.509182 
2687.850959  	92.511957 
2688.815383  	92.545047 
2689.779808  	92.545194 
2690.744232  	92.534416 
2691.708657  	92.527136 
2692.673081  	92.521368 
2693.637506  	92.514497 
2694.601930  	92.531205 
2695.566355  	92.546399 
2696.530779  	92.514808 
2697.495203  	92.494476 
2698.459628  	92.506862 
2699.424052  	92.518921 
2700.388477  	92.467937 
2701.352901  	92.447235 
2702.317326  	92.465914 
2703.281750  	92.503897 
2704.246175  	92.518787 
2705.210599  	92.482732 
2706.175024  	92.458539 
2707.139448  	92.461857 
2708.103872  	92.435915 
2709.068297  	92.428594 
2710.032721  	92.435540 
2710.997146  	92.421149 
2711.961570  	92.412326 
2712.925995  	92.431606 
2713.890419  	92.411430 
2714.854844  	92.352726 
2715.819268  	92.352998 
2716.783693  	92.378665 
2717.748117  	92.370659 
2718.712541  	92.363271 
2719.676966  	92.361251 
2720.641390  	92.330849 
2721.605815  	92.327626 
2722.570239  	92.326758 
2723.534664  	92.304081 
2724.499088  	92.279945 
2725.463513  	92.272129 
2726.427937  	92.255704 
2727.392362  	92.212673 
2728.356786  	92.154838 
2729.321210  	92.139332 
2730.285635  	92.147108 
2731.250059  	92.122366 
2732.214484  	92.107503 
2733.178908  	92.095087 
2734.143333  	92.090113 
2735.107757  	92.077186 
2736.072182  	92.076215 
2737.036606  	92.055931 
2738.001031  	92.028522 
2738.965455  	91.994646 
2739.929879  	91.960291 
2740.894304  	91.948596 
2741.858728  	91.934027 
2742.823153  	91.915035 
2743.787577  	91.918120 
2744.752002  	91.934020 
2745.716426  	91.894304 
2746.680851  	91.872395 
2747.645275  	91.873735 
2748.609700  	91.850256 
2749.574124  	91.874177 
2750.538549  	91.878069 
2751.502973  	91.814045 
2752.467397  	91.819332 
2753.431822  	91.844594 
2754.396246  	91.843216 
2755.360671  	91.835071 
2756.325095  	91.838522 
2757.289520  	91.802084 
2758.253944  	91.788694 
2759.218369  	91.788931 
2760.182793  	91.758986 
2761.147218  	91.736846 
2762.111642  	91.745106 
2763.076066  	91.759416 
2764.040491  	91.762735 
2765.004915  	91.736993 
2765.969340  	91.714464 
2766.933764  	91.708214 
2767.898189  	91.700350 
2768.862613  	91.702879 
2769.827038  	91.682635 
2770.791462  	91.639625 
2771.755887  	91.611277 
2772.720311  	91.619089 
2773.684735  	91.604282 
2774.649160  	91.588652 
2775.613584  	91.619325 
2776.578009  	91.625986 
2777.542433  	91.592592 
2778.506858  	91.566803 
2779.471282  	91.577647 
2780.435707  	91.571278 
2781.400131  	91.517560 
2782.364556  	91.492168 
2783.328980  	91.493525 
2784.293404  	91.492536 
2785.257829  	91.467164 
2786.222253  	91.422385 
2787.186678  	91.400010 
2788.151102  	91.384882 
2789.115527  	91.403200 
2790.079951  	91.379121 
2791.044376  	91.348961 
2792.008800  	91.320965 
2792.973225  	91.269409 
2793.937649  	91.243205 
2794.902073  	91.206673 
2795.866498  	91.174595 
2796.830922  	91.170563 
2797.795347  	91.144775 
2798.759771  	91.087054 
2799.724196  	91.003294 
2800.688620  	90.953630 
2801.653045  	90.944725 
2802.617469  	90.933028 
2803.581894  	90.916834 
2804.546318  	90.897636 
2805.510743  	90.879950 
2806.475167  	90.820912 
2807.439591  	90.749485 
2808.404016  	90.702376 
2809.368440  	90.686817 
2810.332865  	90.693619 
2811.297289  	90.639443 
2812.261714  	90.550246 
2813.226138  	90.502283 
2814.190563  	90.450236 
2815.154987  	90.407718 
2816.119412  	90.355287 
2817.083836  	90.267558 
2818.048260  	90.189762 
2819.012685  	90.158150 
2819.977109  	90.134553 
2820.941534  	90.071991 
2821.905958  	89.996189 
2822.870383  	89.900606 
2823.834807  	89.841666 
2824.799232  	89.789890 
2825.763656  	89.753379 
2826.728081  	89.719090 
2827.692505  	89.648103 
2828.656929  	89.593672 
2829.621354  	89.560235 
2830.585778  	89.485454 
2831.550203  	89.400609 
2832.514627  	89.318744 
2833.479052  	89.206505 
2834.443476  	89.102530 
2835.407901  	89.034769 
2836.372325  	88.916083 
2837.336750  	88.745802 
2838.301174  	88.530163 
2839.265598  	88.283300 
2840.230023  	88.039656 
2841.194447  	87.782139 
2842.158872  	87.460989 
2843.123296  	87.053540 
2844.087721  	86.602170 
2845.052145  	86.074507 
2846.016570  	85.465845 
2846.980994  	84.822138 
2847.945419  	84.091786 
2848.909843  	83.298690 
2849.874267  	82.574680 
2850.838692  	81.959105 
2851.803116  	81.412937 
2852.767541  	80.878148 
2853.731965  	80.395859 
2854.696390  	79.953706 
2855.660814  	79.570967 
2856.625239  	79.257172 
2857.589663  	79.010260 
2858.554088  	78.857550 
2859.518512  	78.807129 
2860.482936  	78.803846 
2861.447361  	78.885324 
2862.411785  	79.106015 
2863.376210  	79.376344 
2864.340634  	79.581878 
2865.305059  	79.824015 
2866.269483  	80.067312 
2867.233908  	80.250793 
2868.198332  	80.396746 
2869.162757  	80.528115 
2870.127181  	80.672908 
2871.091606  	80.796705 
2872.056030  	80.940616 
2873.020454  	81.117147 
2873.984879  	81.277948 
2874.949303  	81.462161 
2875.913728  	81.712708 
2876.878152  	82.034063 
2877.842577  	82.378328 
2878.807001  	82.773164 
2879.771426  	83.194832 
2880.735850  	83.561712 
2881.700275  	83.919741 
2882.664699  	84.250763 
2883.629123  	84.512345 
2884.593548  	84.756991 
2885.557972  	84.958501 
2886.522397  	85.095922 
2887.486821  	85.165770 
2888.451246  	85.203014 
2889.415670  	85.211985 
2890.380095  	85.169860 
2891.344519  	85.086036 
2892.308944  	84.975042 
2893.273368  	84.849845 
2894.237792  	84.667240 
2895.202217  	84.388126 
2896.166641  	84.142214 
2897.131066  	83.916232 
2898.095490  	83.657703 
2899.059915  	83.379233 
2900.024339  	83.038650 
2900.988764  	82.695890 
2901.953188  	82.389208 
2902.917613  	82.028369 
2903.882037  	81.683173 
2904.846461  	81.399589 
2905.810886  	81.072838 
2906.775310  	80.749534 
2907.739735  	80.447492 
2908.704159  	80.152796 
2909.668584  	79.888159 
2910.633008  	79.599944 
2911.597433  	79.314364 
2912.561857  	79.021014 
2913.526282  	78.681897 
2914.490706  	78.271006 
2915.455130  	77.844537 
2916.419555  	77.426028 
2917.383979  	77.016011 
2918.348404  	76.636701 
2919.312828  	76.269720 
2920.277253  	75.901132 
2921.241677  	75.519250 
2922.206102  	75.172882 
2923.170526  	74.815309 
2924.134951  	74.480251 
2925.099375  	74.160948 
2926.063800  	73.819166 
2927.028224  	73.480974 
2927.992648  	73.165479 
2928.957073  	72.855617 
2929.921497  	72.566057 
2930.885922  	72.353182 
2931.850346  	72.180741 
2932.814771  	72.100401 
2933.779195  	72.100587 
2934.743620  	72.229085 
2935.708044  	72.467975 
2936.672469  	72.766290 
2937.636893  	73.154787 
2938.601317  	73.646529 
2939.565742  	74.206794 
2940.530166  	74.767595 
2941.494591  	75.306368 
2942.459015  	75.870408 
2943.423440  	76.351953 
2944.387864  	76.786981 
2945.352289  	77.264025 
2946.316713  	77.833278 
2947.281138  	78.517525 
2948.245562  	79.263392 
2949.209986  	79.967280 
2950.174411  	80.676397 
2951.138835  	81.435360 
2952.103260  	82.135416 
2953.067684  	82.766411 
2954.032109  	83.396050 
2954.996533  	84.015305 
2955.960958  	84.560507 
2956.925382  	85.040254 
2957.889807  	85.505375 
2958.854231  	85.912604 
2959.818655  	86.271365 
2960.783080  	86.600371 
2961.747504  	86.881984 
2962.711929  	87.173790 
2963.676353  	87.430097 
2964.640778  	87.638558 
2965.605202  	87.849739 
2966.569627  	88.091024 
2967.534051  	88.425237 
2968.498476  	88.758493 
2969.462900  	88.993223 
2970.427324  	89.184667 
2971.391749  	89.424397 
2972.356173  	89.656375 
2973.320598  	89.898106 
2974.285022  	90.084128 
2975.249447  	90.226549 
2976.213871  	90.392665 
2977.178296  	90.554503 
2978.142720  	90.636780 
2979.107145  	90.777637 
2980.071569  	90.969230 
2981.035993  	91.055365 
2982.000418  	91.159394 
2982.964842  	91.289950 
2983.929267  	91.384616 
2984.893691  	91.445722 
2985.858116  	91.516198 
2986.822540  	91.594727 
2987.786965  	91.640365 
2988.751389  	91.693492 
2989.715814  	91.743999 
2990.680238  	91.781911 
2991.644663  	91.862285 
2992.609087  	91.915428 
2993.573511  	91.958705 
2994.537936  	91.975980 
2995.502360  	91.982857 
2996.466785  	91.984361 
2997.431209  	92.011698 
2998.395634  	92.047490 
2999.360058  	92.055638 
3000.324483  	92.051769 
3001.288907  	92.018984 
3002.253332  	92.013572 
3003.217756  	92.009555 
3004.182180  	91.971568 
3005.146605  	91.954958 
3006.111029  	91.975571 
3007.075454  	91.985715 
3008.039878  	91.999606 
3009.004303  	92.034592 
3009.968727  	92.015526 
3010.933152  	91.943173 
3011.897576  	91.894844 
3012.862001  	91.844619 
3013.826425  	91.929843 
3014.790849  	91.958663 
3015.755274  	91.873163 
3016.719698  	91.856640 
3017.684123  	91.889565 
3018.648547  	91.849628 
3019.612972  	91.801691 
3020.577396  	91.762211 
3021.541821  	91.722637 
3022.506245  	91.671442 
3023.470670  	91.664551 
3024.435094  	91.637426 
3025.399518  	91.532152 
3026.363943  	91.506103 
3027.328367  	91.514045 
3028.292792  	91.454157 
3029.257216  	91.434177 
3030.221641  	91.380781 
3031.186065  	91.218615 
3032.150490  	91.111686 
3033.114914  	91.153151 
3034.079339  	91.102907 
3035.043763  	91.054314 
3036.008187  	91.004960 
3036.972612  	90.942758 
3037.937036  	90.848784 
3038.901461  	90.751729 
3039.865885  	90.692501 
3040.830310  	90.641816 
3041.794734  	90.586361 
3042.759159  	90.502410 
3043.723583  	90.405292 
3044.688008  	90.309330 
3045.652432  	90.220010 
3046.616857  	90.099647 
3047.581281  	89.973521 
3048.545705  	89.791697 
3049.510130  	89.631857 
3050.474554  	89.569614 
3051.438979  	89.537458 
3052.403403  	89.485880 
3053.367828  	89.324378 
3054.332252  	89.193774 
3055.296677  	89.103376 
3056.261101  	88.934703 
3057.225526  	88.855989 
3058.189950  	88.851016 
3059.154374  	88.795416 
3060.118799  	88.786338 
3061.083223  	88.782325 
3062.047648  	88.734112 
3063.012072  	88.667851 
3063.976497  	88.563154 
3064.940921  	88.515826 
3065.905346  	88.583633 
3066.869770  	88.544310 
3067.834195  	88.549565 
3068.798619  	88.590775 
3069.763043  	88.609239 
3070.727468  	88.618297 
3071.691892  	88.621107 
3072.656317  	88.550048 
3073.620741  	88.505675 
3074.585166  	88.579224 
3075.549590  	88.643646 
3076.514015  	88.623394 
3077.478439  	88.599076 
3078.442864  	88.629802 
3079.407288  	88.600583 
3080.371712  	88.599012 
3081.336137  	88.673490 
3082.300561  	88.654265 
3083.264986  	88.700506 
3084.229410  	88.765255 
3085.193835  	88.777843 
3086.158259  	88.817229 
3087.122684  	88.827857 
3088.087108  	88.821443 
3089.051533  	88.891805 
3090.015957  	88.955463 
3090.980381  	88.986562 
3091.944806  	89.023168 
3092.909230  	89.069524 
3093.873655  	89.089366 
3094.838079  	89.142282 
3095.802504  	89.198038 
3096.766928  	89.294145 
3097.731353  	89.369598 
3098.695777  	89.416205 
3099.660202  	89.482359 
3100.624626  	89.537628 
3101.589050  	89.545509 
3102.553475  	89.603346 
3103.517899  	89.673744 
3104.482324  	89.739913 
3105.446748  	89.780815 
3106.411173  	89.862892 
3107.375597  	89.927398 
3108.340022  	90.013865 
3109.304446  	90.104392 
3110.268871  	90.129084 
3111.233295  	90.150907 
3112.197720  	90.170092 
3113.162144  	90.196530 
3114.126568  	90.261287 
3115.090993  	90.321785 
3116.055417  	90.386338 
3117.019842  	90.464884 
3117.984266  	90.468518 
3118.948691  	90.421874 
3119.913115  	90.496698 
3120.877540  	90.560915 
3121.841964  	90.529895 
3122.806389  	90.509420 
3123.770813  	90.587264 
3124.735237  	90.587929 
3125.699662  	90.566257 
3126.664086  	90.576735 
3127.628511  	90.640012 
3128.592935  	90.673175 
3129.557360  	90.623930 
3130.521784  	90.615896 
3131.486209  	90.639394 
3132.450633  	90.586905 
3133.415058  	90.576446 
3134.379482  	90.683512 
3135.343906  	90.707246 
3136.308331  	90.671434 
3137.272755  	90.612877 
3138.237180  	90.600577 
3139.201604  	90.641156 
3140.166029  	90.669045 
3141.130453  	90.662219 
3142.094878  	90.585743 
3143.059302  	90.505569 
3144.023727  	90.507184 
3144.988151  	90.523943 
3145.952575  	90.475609 
3146.917000  	90.441677 
3147.881424  	90.424170 
3148.845849  	90.466903 
3149.810273  	90.454220 
3150.774698  	90.422791 
3151.739122  	90.363524 
3152.703547  	90.314335 
3153.667971  	90.279401 
3154.632396  	90.253826 
3155.596820  	90.192766 
3156.561244  	90.111164 
3157.525669  	90.086899 
3158.490093  	90.043226 
3159.454518  	90.012716 
3160.418942  	89.960018 
3161.383367  	89.855665 
3162.347791  	89.778090 
3163.312216  	89.700489 
3164.276640  	89.672090 
3165.241065  	89.679428 
3166.205489  	89.630447 
3167.169914  	89.544168 
3168.134338  	89.445274 
3169.098762  	89.376123 
3170.063187  	89.280914 
3171.027611  	89.193943 
3171.992036  	89.166048 
3172.956460  	89.064503 
3173.920885  	88.934698 
3174.885309  	88.879143 
3175.849734  	88.839666 
3176.814158  	88.772648 
3177.778583  	88.660831 
3178.743007  	88.573608 
3179.707431  	88.541822 
3180.671856  	88.500307 
3181.636280  	88.471942 
3182.600705  	88.409883 
3183.565129  	88.302392 
3184.529554  	88.231216 
3185.493978  	88.215896 
3186.458403  	88.156751 
3187.422827  	88.056320 
3188.387252  	87.961438 
3189.351676  	87.966645 
3190.316100  	87.958215 
3191.280525  	87.910554 
3192.244949  	87.877061 
3193.209374  	87.834264 
3194.173798  	87.763320 
3195.138223  	87.679818 
3196.102647  	87.537485 
3197.067072  	87.439822 
3198.031496  	87.411171 
3198.995921  	87.482380 
3199.960345  	87.481179 
3200.924769  	87.453519 
3201.889194  	87.402405 
3202.853618  	87.349611 
3203.818043  	87.273048 
3204.782467  	87.245394 
3205.746892  	87.209377 
3206.711316  	87.156789 
3207.675741  	87.124421 
3208.640165  	87.073372 
3209.604590  	87.006668 
3210.569014  	86.955020 
3211.533438  	86.943810 
3212.497863  	86.902338 
3213.462287  	86.778691 
3214.426712  	86.695038 
3215.391136  	86.730843 
3216.355561  	86.680080 
3217.319985  	86.562925 
3218.284410  	86.498366 
3219.248834  	86.428438 
3220.213259  	86.405495 
3221.177683  	86.365780 
3222.142107  	86.286475 
3223.106532  	86.183424 
3224.070956  	86.091033 
3225.035381  	85.973508 
3225.999805  	85.863106 
3226.964230  	85.729809 
3227.928654  	85.579247 
3228.893079  	85.487053 
3229.857503  	85.437077 
3230.821928  	85.294073 
3231.786352  	85.185279 
3232.750777  	85.088208 
3233.715201  	84.972660 
3234.679625  	84.793573 
3235.644050  	84.568432 
3236.608474  	84.383001 
3237.572899  	84.310205 
3238.537323  	84.181259 
3239.501748  	83.936534 
3240.466172  	83.693552 
3241.430597  	83.583055 
3242.395021  	83.410845 
3243.359446  	83.215421 
3244.323870  	83.013723 
3245.288294  	82.792876 
3246.252719  	82.675955 
3247.217143  	82.548159 
3248.181568  	82.300182 
3249.145992  	82.034028 
3250.110417  	81.874426 
3251.074841  	81.658559 
3252.039266  	81.368173 
3253.003690  	81.150797 
3253.968115  	80.829863 
3254.932539  	80.566675 
3255.896963  	80.390096 
3256.861388  	80.154924 
3257.825812  	79.921883 
3258.790237  	79.661300 
3259.754661  	79.405879 
3260.719086  	79.134839 
3261.683510  	78.876007 
3262.647935  	78.600555 
3263.612359  	78.292573 
3264.576784  	77.989794 
3265.541208  	77.716432 
3266.505632  	77.446462 
3267.470057  	77.142929 
3268.434481  	76.915565 
3269.398906  	76.655707 
3270.363330  	76.393122 
3271.327755  	76.134822 
3272.292179  	75.838940 
3273.256604  	75.371991 
3274.221028  	75.010882 
3275.185453  	74.788107 
3276.149877  	74.419637 
3277.114301  	74.035151 
3278.078726  	73.731773 
3279.043150  	73.368590 
3280.007575  	72.986826 
3280.971999  	72.613767 
3281.936424  	72.260488 
3282.900848  	71.846421 
3283.865273  	71.415245 
3284.829697  	71.034058 
3285.794122  	70.657012 
3286.758546  	70.251926 
3287.722971  	69.903155 
3288.687395  	69.536761 
3289.651819  	69.290831 
3290.616244  	69.001593 
3291.580668  	68.719755 
3292.545093  	68.530947 
3293.509517  	68.423875 
3294.473942  	68.327710 
3295.438366  	68.234411 
3296.402791  	68.184890 
3297.367215  	68.241542 
3298.331640  	68.356623 
3299.296064  	68.496346 
3300.260488  	68.687405 
3301.224913  	68.965325 
3302.189337  	69.275194 
3303.153762  	69.647479 
3304.118186  	70.083049 
3305.082611  	70.555840 
3306.047035  	71.064603 
3307.011460  	71.674344 
3307.975884  	72.204529 
3308.940309  	72.707871 
3309.904733  	73.355980 
3310.869157  	73.989252 
3311.833582  	74.625880 
3312.798006  	75.298464 
3313.762431  	75.956814 
3314.726855  	76.625308 
3315.691280  	77.279466 
3316.655704  	77.862920 
3317.620129  	78.396396 
3318.584553  	79.027981 
3319.548978  	79.602694 
3320.513402  	80.142278 
3321.477826  	80.622950 
3322.442251  	81.062272 
3323.406675  	81.546928 
3324.371100  	81.978170 
3325.335524  	82.375869 
3326.299949  	82.775735 
3327.264373  	83.111347 
3328.228798  	83.448275 
3329.193222  	83.704593 
3330.157647  	84.004360 
3331.122071  	84.287938 
3332.086495  	84.610120 
3333.050920  	84.902589 
3334.015344  	85.128419 
3334.979769  	85.337886 
3335.944193  	85.594545 
3336.908618  	85.764927 
3337.873042  	85.996015 
3338.837467  	86.270534 
3339.801891  	86.503162 
3340.766316  	86.707863 
3341.730740  	86.845308 
3342.695164  	87.023725 
3343.659589  	87.218747 
3344.624013  	87.376594 
3345.588438  	87.572444 
3346.552862  	87.714148 
3347.517287  	87.787094 
3348.481711  	87.895477 
3349.446136  	88.005019 
3350.410560  	88.114446 
3351.374985  	88.324857 
3352.339409  	88.509053 
3353.303834  	88.567036 
3354.268258  	88.656431 
3355.232682  	88.699833 
3356.197107  	88.656087 
3357.161531  	88.746843 
3358.125956  	88.872109 
3359.090380  	88.969373 
3360.054805  	88.972240 
3361.019229  	88.971230 
3361.983654  	89.010719 
3362.948078  	89.208559 
3363.912503  	89.399996 
3364.876927  	89.402137 
3365.841351  	89.416736 
3366.805776  	89.443464 
3367.770200  	89.436650 
3368.734625  	89.531833 
3369.699049  	89.702421 
3370.663474  	89.824843 
3371.627898  	89.851740 
3372.592323  	89.810448 
3373.556747  	89.814001 
3374.521172  	89.923282 
3375.485596  	90.060509 
3376.450020  	90.042052 
3377.414445  	90.036268 
3378.378869  	90.116500 
3379.343294  	90.178399 
3380.307718  	90.214509 
3381.272143  	90.275396 
3382.236567  	90.299269 
3383.200992  	90.244189 
3384.165416  	90.159304 
3385.129841  	90.163040 
3386.094265  	90.276281 
3387.058689  	90.404128 
3388.023114  	90.486978 
3388.987538  	90.512495 
3389.951963  	90.461923 
3390.916387  	90.402009 
3391.880812  	90.319928 
3392.845236  	90.186771 
3393.809661  	90.344952 
3394.774085  	90.555713 
3395.738510  	90.590204 
3396.702934  	90.554991 
3397.667358  	90.488872 
3398.631783  	90.578276 
3399.596207  	90.731065 
3400.560632  	90.725904 
3401.525056  	90.642607 
3402.489481  	90.685629 
3403.453905  	90.692617 
3404.418330  	90.723836 
3405.382754  	90.830278 
3406.347179  	90.852678 
3407.311603  	90.858184 
3408.276028  	90.835337 
3409.240452  	90.736089 
3410.204876  	90.705937 
3411.169301  	90.782018 
3412.133725  	90.875420 
3413.098150  	90.935645 
3414.062574  	90.917994 
3415.026999  	90.959044 
3415.991423  	90.935765 
3416.955848  	90.980855 
3417.920272  	91.012223 
3418.884697  	91.010461 
3419.849121  	90.825328 
3420.813545  	90.615766 
3421.777970  	90.635666 
3422.742394  	90.729951 
3423.706819  	90.895931 
3424.671243  	91.036943 
3425.635668  	91.078382 
3426.600092  	91.045545 
3427.564517  	91.010316 
3428.528941  	91.059388 
3429.493366  	91.109897 
3430.457790  	91.065320 
3431.422214  	91.054607 
3432.386639  	91.099255 
3433.351063  	91.126350 
3434.315488  	91.186388 
3435.279912  	91.141378 
3436.244337  	91.085884 
3437.208761  	91.091695 
3438.173186  	91.095691 
3439.137610  	91.094544 
3440.102035  	91.170046 
3441.066459  	91.218251 
3442.030883  	91.161932 
3442.995308  	91.031303 
3443.959732  	91.188748 
3444.924157  	91.269799 
3445.888581  	91.173148 
3446.853006  	90.763503 
3447.817430  	90.597163 
3448.781855  	91.094317 
3449.746279  	91.345948 
3450.710704  	91.361246 
3451.675128  	91.354001 
3452.639552  	91.399177 
3453.603977  	91.390947 
3454.568401  	91.329076 
3455.532826  	91.303768 
3456.497250  	91.331712 
3457.461675  	91.348963 
3458.426099  	91.311400 
3459.390524  	91.331134 
3460.354948  	91.362580 
3461.319373  	91.298191 
3462.283797  	91.239054 
3463.248221  	91.182861 
3464.212646  	91.326987 
3465.177070  	91.441532 
3466.141495  	91.422588 
3467.105919  	91.257088 
3468.070344  	91.367241 
3469.034768  	91.515263 
3469.999193  	91.432819 
3470.963617  	91.422286 
3471.928042  	91.527508 
3472.892466  	91.579913 
3473.856891  	91.484420 
3474.821315  	91.400616 
3475.785739  	91.515255 
3476.750164  	91.599619 
3477.714588  	91.558134 
3478.679013  	91.546703 
3479.643437  	91.484189 
3480.607862  	91.263519 
3481.572286  	91.119428 
3482.536711  	91.067731 
3483.501135  	91.377855 
3484.465560  	91.551128 
3485.429984  	91.521517 
3486.394408  	91.598476 
3487.358833  	91.575735 
3488.323257  	91.308121 
3489.287682  	91.393281 
3490.252106  	91.565278 
3491.216531  	91.528905 
3492.180955  	91.650374 
3493.145380  	91.763001 
3494.109804  	91.811794 
3495.074229  	91.680416 
3496.038653  	91.469456 
3497.003077  	91.439793 
3497.967502  	91.627351 
3498.931926  	91.636539 
3499.896351  	91.549839 
3500.860775  	91.566455 
3501.825200  	91.383750 
3502.789624  	91.057479 
3503.754049  	91.001399 
3504.718473  	91.298022 
3505.682898  	91.603357 
3506.647322  	91.850518 
3507.611746  	91.924044 
3508.576171  	91.648026 
3509.540595  	91.164617 
3510.505020  	91.403728 
3511.469444  	91.755978 
3512.433869  	91.845502 
3513.398293  	91.907220 
3514.362718  	92.034928 
3515.327142  	92.175728 
3516.291567  	92.125364 
3517.255991  	91.977878 
3518.220415  	91.957934 
3519.184840  	92.035963 
3520.149264  	92.141661 
3521.113689  	92.237885 
3522.078113  	92.083774 
3523.042538  	91.533191 
3524.006962  	91.292001 
3524.971387  	91.613205 
3525.935811  	91.714968 
3526.900236  	91.620333 
3527.864660  	91.538917 
3528.829085  	91.632897 
3529.793509  	91.850220 
3530.757933  	92.107963 
3531.722358  	92.187739 
3532.686782  	92.445115 
3533.651207  	92.609466 
3534.615631  	92.596690 
3535.580056  	92.327515 
3536.544480  	91.878781 
3537.508905  	92.103041 
3538.473329  	92.482544 
3539.437754  	92.524573 
3540.402178  	92.621570 
3541.366602  	92.665912 
3542.331027  	92.685888 
3543.295451  	92.486000 
3544.259876  	92.179397 
3545.224300  	91.520474 
3546.188725  	91.399402 
3547.153149  	91.492854 
3548.117574  	91.973915 
3549.081998  	92.557418 
3550.046423  	92.731672 
3551.010847  	92.707700 
3551.975271  	92.248436 
3552.939696  	92.058614 
3553.904120  	92.383030 
3554.868545  	92.746893 
3555.832969  	93.021732 
3556.797394  	92.971577 
3557.761818  	93.026584 
3558.726243  	93.137088 
3559.690667  	92.808824 
3560.655092  	92.468505 
3561.619516  	92.810270 
3562.583940  	92.764314 
3563.548365  	92.682116 
3564.512789  	92.666529 
3565.477214  	91.979193 
3566.441638  	90.295950 
3567.406063  	90.259821 
3568.370487  	90.581626 
3569.334912  	91.999402 
3570.299336  	92.795458 
3571.263761  	92.915033 
3572.228185  	93.218419 
3573.192609  	93.184148 
3574.157034  	93.093323 
3575.121458  	93.099276 
3576.085883  	93.173893 
3577.050307  	93.119080 
3578.014732  	93.177645 
3578.979156  	93.225709 
3579.943581  	92.938739 
3580.908005  	92.993404 
3581.872430  	93.352086 
3582.836854  	93.343014 
3583.801278  	93.287272 
3584.765703  	93.347454 
3585.730127  	92.886557 
3586.694552  	91.577583 
3587.658976  	91.027827 
3588.623401  	91.196698 
3589.587825  	92.211290 
3590.552250  	93.271571 
3591.516674  	93.477830 
3592.481099  	93.391350 
3593.445523  	92.887284 
3594.409948  	92.941477 
3595.374372  	92.535448 
3596.338796  	92.509054 
3597.303221  	93.189134 
3598.267645  	93.214099 
3599.232070  	93.044856 
3600.196494  	93.049239 
3601.160919  	92.802711 
3602.125343  	93.144938 
3603.089768  	93.370641 
3604.054192  	93.656058 
3605.018617  	93.839224 
3605.983041  	93.647750 
3606.947465  	92.729626 
3607.911890  	92.480537 
3608.876314  	92.578990 
3609.840739  	92.450354 
3610.805163  	93.313212 
3611.769588  	93.093346 
3612.734012  	92.145511 
3613.698437  	92.489230 
3614.662861  	92.514741 
3615.627286  	92.633492 
3616.591710  	93.403451 
3617.556134  	92.840040 
3618.520559  	92.286859 
3619.484983  	92.199518 
3620.449408  	92.326779 
3621.413832  	92.959558 
3622.378257  	93.472187 
3623.342681  	93.796916 
3624.307106  	93.941706 
3625.271530  	93.910465 
3626.235955  	93.584108 
3627.200379  	93.386162 
3628.164803  	92.425013 
3629.129228  	90.211845 
3630.093652  	91.022276 
3631.058077  	92.948669 
3632.022501  	93.599874 
3632.986926  	93.552696 
3633.951350  	92.948016 
3634.915775  	93.387654 
3635.880199  	93.981564 
3636.844624  	94.097083 
3637.809048  	93.904280 
3638.773472  	93.883066 
3639.737897  	94.093184 
3640.702321  	94.086597 
3641.666746  	93.838156 
3642.631170  	93.552750 
3643.595595  	93.784822 
3644.560019  	94.030804 
3645.524444  	93.761275 
3646.488868  	92.805287 
3647.453293  	91.458147 
3648.417717  	91.745885 
3649.382142  	91.286139 
3650.346566  	90.615283 
3651.310990  	90.940454 
3652.275415  	92.750170 
3653.239839  	93.711813 
3654.204264  	93.999148 
3655.168688  	93.862579 
3656.133113  	92.991102 
3657.097537  	93.098603 
3658.061962  	94.054774 
3659.026386  	94.055584 
3659.990811  	93.940213 
3660.955235  	94.120869 
3661.919659  	94.308290 
3662.884084  	94.293547 
3663.848508  	94.314757 
3664.812933  	94.224798 
3665.777357  	94.239485 
3666.741782  	94.333695 
3667.706206  	94.269551 
3668.670631  	93.375985 
3669.635055  	92.476901 
3670.599480  	91.784860 
3671.563904  	92.538593 
3672.528328  	93.828296 
3673.492753  	93.889869 
3674.457177  	92.749046 
3675.421602  	90.371394 
3676.386026  	91.163647 
3677.350451  	92.791928 
3678.314875  	93.264486 
3679.279300  	93.115666 
3680.243724  	93.284573 
3681.208149  	94.030703 
3682.172573  	94.335680 
3683.136997  	94.416754 
3684.101422  	94.316674 
3685.065846  	94.252990 
3686.030271  	94.383961 
3686.994695  	94.187267 
3687.959120  	93.267769 
3688.923544  	92.651423 
3689.887969  	93.278400 
3690.852393  	92.531553 
3691.816818  	92.557832 
3692.781242  	93.875766 
3693.745666  	94.121331 
3694.710091  	94.256896 
3695.674515  	94.374681 
3696.638940  	94.235400 
3697.603364  	94.309845 
3698.567789  	94.509360 
3699.532213  	94.465268 
3700.496638  	94.415692 
3701.461062  	93.695510 
3702.425487  	93.374476 
3703.389911  	94.253186 
3704.354335  	94.502004 
3705.318760  	94.371546 
3706.283184  	94.406150 
3707.247609  	94.533290 
3708.212033  	94.385519 
3709.176458  	93.709841 
3710.140882  	93.460308 
3711.105307  	93.173125 
3712.069731  	91.904244 
3713.034156  	92.420294 
3713.998580  	93.663816 
3714.963005  	93.583197 
3715.927429  	93.845071 
3716.891853  	94.376640 
3717.856278  	94.399569 
3718.820702  	93.791052 
3719.785127  	93.761059 
3720.749551  	94.282221 
3721.713976  	93.745353 
3722.678400  	92.817468 
3723.642825  	93.581189 
3724.607249  	93.712468 
3725.571674  	93.084720 
3726.536098  	92.844290 
3727.500522  	93.165571 
3728.464947  	94.006433 
3729.429371  	94.418250 
3730.393796  	94.298740 
3731.358220  	93.872171 
3732.322645  	93.177577 
3733.287069  	93.612202 
3734.251494  	92.835709 
3735.215918  	90.286211 
3736.180343  	90.887130 
3737.144767  	92.078469 
3738.109191  	92.767698 
3739.073616  	93.131715 
3740.038040  	93.581726 
3741.002465  	93.195435 
3741.966889  	93.481189 
3742.931314  	93.878929 
3743.895738  	92.687985 
3744.860163  	89.884903 
3745.824587  	92.489827 
3746.789012  	93.100231 
3747.753436  	93.069838 
3748.717860  	92.829469 
3749.682285  	92.299773 
3750.646709  	92.536934 
3751.611134  	91.871178 
3752.575558  	90.884828 
3753.539983  	92.726818 
3754.504407  	93.527552 
3755.468832  	93.836333 
3756.433256  	93.530637 
3757.397681  	93.703396 
3758.362105  	93.920521 
3759.326529  	92.954151 
3760.290954  	92.761914 
3761.255378  	94.045736 
3762.219803  	94.215187 
3763.184227  	94.285206 
3764.148652  	94.351601 
3765.113076  	93.874601 
3766.077501  	93.176013 
3767.041925  	93.958891 
3768.006350  	94.322793 
3768.970774  	93.921581 
3769.935199  	93.047200 
3770.899623  	93.487988 
3771.864047  	94.093294 
3772.828472  	94.298203 
3773.792896  	94.433082 
3774.757321  	94.519156 
3775.721745  	94.632923 
3776.686170  	94.729350 
3777.650594  	94.594076 
3778.615019  	94.107750 
3779.579443  	93.358497 
3780.543868  	93.738001 
3781.508292  	94.342139 
3782.472716  	94.369294 
3783.437141  	94.442149 
3784.401565  	94.095281 
3785.365990  	93.737083 
3786.330414  	94.047307 
3787.294839  	94.272665 
3788.259263  	94.410064 
3789.223688  	94.467513 
3790.188112  	94.477698 
3791.152537  	94.532382 
3792.116961  	94.555485 
3793.081385  	94.584837 
3794.045810  	94.637900 
3795.010234  	94.499133 
3795.974659  	93.899423 
3796.939083  	93.219447 
3797.903508  	93.634019 
3798.867932  	94.105335 
3799.832357  	94.149692 
3800.796781  	93.067683 
3801.761206  	91.900278 
3802.725630  	92.690526 
3803.690054  	93.475176 
3804.654479  	94.176778 
3805.618903  	94.203684 
3806.583328  	93.371030 
3807.547752  	93.036607 
3808.512177  	94.145622 
3809.476601  	94.296089 
3810.441026  	94.308710 
3811.405450  	94.469955 
3812.369875  	94.546590 
3813.334299  	94.599127 
3814.298723  	94.498590 
3815.263148  	93.754829 
3816.227572  	92.413657 
3817.191997  	93.330324 
3818.156421  	94.013151 
3819.120846  	93.832720 
3820.085270  	93.117851 
3821.049695  	91.691078 
3822.014119  	91.984901 
3822.978544  	93.446562 
3823.942968  	93.761224 
3824.907392  	93.950883 
3825.871817  	93.903769 
3826.836241  	93.384825 
3827.800666  	93.560519 
3828.765090  	94.137831 
3829.729515  	94.409708 
3830.693939  	94.239197 
3831.658364  	93.509862 
3832.622788  	93.857207 
3833.587213  	94.310885 
3834.551637  	93.683404 
3835.516062  	93.410819 
3836.480486  	94.035838 
3837.444910  	93.250405 
3838.409335  	92.463436 
3839.373759  	93.075712 
3840.338184  	92.337724 
3841.302608  	92.476191 
3842.267033  	93.746830 
3843.231457  	93.609233 
3844.195882  	92.971222 
3845.160306  	93.833672 
3846.124731  	94.252763 
3847.089155  	94.360691 
3848.053579  	94.395629 
3849.018004  	94.189136 
3849.982428  	93.820544 
3850.946853  	93.784613 
3851.911277  	92.989848 
3852.875702  	91.881074 
3853.840126  	90.993197 
3854.804551  	91.612315 
3855.768975  	93.447402 
3856.733400  	93.209351 
3857.697824  	92.908197 
3858.662248  	93.917194 
3859.626673  	94.362006 
3860.591097  	94.303803 
3861.555522  	93.707142 
3862.519946  	93.449177 
3863.484371  	93.732272 
3864.448795  	92.794976 
3865.413220  	91.988042 
3866.377644  	93.484171 
3867.342069  	94.251549 
3868.306493  	94.094915 
3869.270917  	92.864718 
3870.235342  	91.272655 
3871.199766  	92.705702 
3872.164191  	93.703954 
3873.128615  	93.804769 
3874.093040  	92.613741 
3875.057464  	92.892482 
3876.021889  	94.213609 
3876.986313  	94.420365 
3877.950738  	94.528431 
3878.915162  	94.469409 
3879.879586  	93.477286 
3880.844011  	92.120907 
3881.808435  	93.338839 
3882.772860  	93.917234 
3883.737284  	93.713337 
3884.701709  	93.684927 
3885.666133  	92.739685 
3886.630558  	92.776611 
3887.594982  	94.089682 
3888.559407  	94.363014 
3889.523831  	94.420517 
3890.488256  	93.999559 
3891.452680  	92.955776 
3892.417104  	93.193874 
3893.381529  	93.842508 
3894.345953  	93.721838 
3895.310378  	94.078498 
3896.274802  	94.490178 
3897.239227  	94.481826 
3898.203651  	93.836429 
3899.168076  	92.857247 
3900.132500  	93.054304 
3901.096925  	93.603672 
3902.061349  	92.447481 
3903.025773  	92.695267 
3903.990198  	92.732505 
3904.954622  	92.415854 
3905.919047  	92.826926 
3906.883471  	93.479433 
3907.847896  	94.287951 
3908.812320  	94.507590 
3909.776745  	94.534330 
3910.741169  	94.584487 
3911.705594  	94.569071 
3912.670018  	94.514139 
3913.634442  	94.526476 
3914.598867  	94.602042 
3915.563291  	94.479608 
3916.527716  	93.632200 
3917.492140  	93.036900 
3918.456565  	93.877736 
3919.420989  	93.970849 
3920.385414  	93.421339 
3921.349838  	94.004035 
3922.314263  	94.472738 
3923.278687  	94.170224 
3924.243111  	93.508473 
3925.207536  	93.183465 
3926.171960  	93.852828 
3927.136385  	94.463654 
3928.100809  	94.442228 
3929.065234  	94.248301 
3930.029658  	94.018805 
3930.994083  	93.844441 
3931.958507  	93.439090 
3932.922932  	93.208560 
3933.887356  	93.899311 
3934.851780  	94.163694 
3935.816205  	94.386020 
3936.780629  	94.515430 
3937.745054  	94.452779 
3938.709478  	94.318778 
3939.673903  	94.474420 
3940.638327  	94.556398 
3941.602752  	94.426674 
3942.567176  	93.669790 
3943.531601  	93.441901 
3944.496025  	94.069539 
3945.460449  	94.350319 
3946.424874  	94.430660 
3947.389298  	93.924843 
3948.353723  	93.677038 
3949.318147  	93.901877 
3950.282572  	93.668286 
3951.246996  	94.060673 
3952.211421  	94.482147 
3953.175845  	94.417407 
3954.140270  	94.493246 
3955.104694  	94.533249 
3956.069119  	94.434125 
3957.033543  	94.322494 
3957.997967  	94.329116 
3958.962392  	94.369716 
3959.926816  	94.412115 
3960.891241  	94.365366 
3961.855665  	93.991324 
3962.820090  	94.050107 
3963.784514  	94.454672 
3964.748939  	94.522570 
3965.713363  	94.580325 
3966.677788  	94.604266 
3967.642212  	94.571966 
3968.606636  	94.434418 
3969.571061  	94.305985 
3970.535485  	94.437808 
3971.499910  	94.445035 
3972.464334  	94.278714 
3973.428759  	94.382335 
3974.393183  	94.458261 
3975.357608  	94.323724 
3976.322032  	94.212211 
3977.286457  	94.336313 
3978.250881  	94.540469 
3979.215305  	94.537169 
3980.179730  	94.502769 
3981.144154  	94.506156 
3982.108579  	94.434047 
3983.073003  	94.429431 
3984.037428  	94.566220 
3985.001852  	94.569695 
3985.966277  	94.538172 
3986.930701  	94.547932 
3987.895126  	94.559519 
3988.859550  	94.540333 
3989.823974  	94.439199 
3990.788399  	94.262986 
3991.752823  	94.329283 
3992.717248  	94.449657 
3993.681672  	94.426109 
3994.646097  	94.352990 
3995.610521  	94.317923 
3996.574946  	94.460369 
3997.539370  	94.559742 
3998.503795  	94.598057 
3999.468219  	94.581416 
4000.432643  	94.611131 
4001.397068  	94.587018 
4002.361492  	94.507566 
4003.325917  	94.486533 
4004.290341  	94.516485 
4005.254766  	94.531937 
4006.219190  	94.527732 
4007.183615  	94.500768 
4008.148039  	94.379303 
4009.112464  	94.245629 
4010.076888  	94.384695 
4011.041313  	94.453490 
4012.005737  	94.487074 
4012.970161  	94.506592 
4013.934586  	94.533223 
4014.899010  	94.542177 
4015.863435  	94.513273 
4016.827859  	94.497583 
4017.792284  	94.512299 
4018.756708  	94.546935 
4019.721133  	94.508346 
4020.685557  	94.493111 
4021.649982  	94.521053 
4022.614406  	94.542395 
4023.578830  	94.565860 
4024.543255  	94.514190 
4025.507679  	94.437056 
4026.472104  	94.489314 
4027.436528  	94.543330 
4028.400953  	94.524984 
4029.365377  	94.549840 
4030.329802  	94.545191 
4031.294226  	94.543521 
4032.258651  	94.540674 
4033.223075  	94.554511 
4034.187499  	94.598910 
4035.151924  	94.558321 
4036.116348  	94.536044 
4037.080773  	94.607071 
4038.045197  	94.641567 
4039.009622  	94.597112 
4039.974046  	94.576335 
4040.938471  	94.629064 
4041.902895  	94.664599 
4042.867320  	94.632660 
4043.831744  	94.499655 
4044.796168  	94.413430 
4045.760593  	94.447974 
4046.725017  	94.543545 
4047.689442  	94.571474 
4048.653866  	94.578159 
4049.618291  	94.607299 
4050.582715  	94.628745 
4051.547140  	94.592463 
4052.511564  	94.538477 
4053.475989  	94.572773 
4054.440413  	94.603899 
4055.404837  	94.601763 
4056.369262  	94.637649 
4057.333686  	94.676359 
4058.298111  	94.631596 
4059.262535  	94.576496 
4060.226960  	94.526280 
4061.191384  	94.505568 
4062.155809  	94.559874 
4063.120233  	94.615747 
4064.084658  	94.628654 
4065.049082  	94.691798 
4066.013506  	94.660127 
4066.977931  	94.571360 
4067.942355  	94.541708 
4068.906780  	94.592357 
4069.871204  	94.644504 
4070.835629  	94.653265 
4071.800053  	94.641406 
4072.764478  	94.612086 
4073.728902  	94.602338 
4074.693327  	94.595707 
4075.657751  	94.621259 
4076.622176  	94.627836 
4077.586600  	94.654219 
4078.551024  	94.661932 
4079.515449  	94.632181 
4080.479873  	94.649680 
4081.444298  	94.675216 
4082.408722  	94.611758 
4083.373147  	94.558466 
4084.337571  	94.570573 
4085.301996  	94.599574 
4086.266420  	94.595470 
4087.230845  	94.583635 
4088.195269  	94.600270 
4089.159693  	94.653967 
4090.124118  	94.704039 
4091.088542  	94.676763 
4092.052967  	94.652992 
4093.017391  	94.631666 
4093.981816  	94.605531 
4094.946240  	94.594457 
4095.910665  	94.642756 
4096.875089  	94.707483 
4097.839514  	94.655596 
4098.803938  	94.544672 
4099.768362  	94.577621 
4100.732787  	94.629267 
4101.697211  	94.605834 
4102.661636  	94.588650 
4103.626060  	94.629975 
4104.590485  	94.617709 
4105.554909  	94.535982 
4106.519334  	94.502823 
4107.483758  	94.504235 
4108.448183  	94.539904 
4109.412607  	94.580409 
4110.377031  	94.616268 
4111.341456  	94.651543 
4112.305880  	94.673073 
4113.270305  	94.625638 
4114.234729  	94.593044 
4115.199154  	94.651752 
4116.163578  	94.658685 
4117.128003  	94.661525 
4118.092427  	94.641190 
4119.056852  	94.591340 
4120.021276  	94.562521 
4120.985700  	94.557038 
4121.950125  	94.588886 
4122.914549  	94.579416 
4123.878974  	94.584505 
4124.843398  	94.605276 
4125.807823  	94.679209 
4126.772247  	94.692667 
4127.736672  	94.621148 
4128.701096  	94.586257 
4129.665521  	94.609799 
4130.629945  	94.630867 
4131.594370  	94.639312 
4132.558794  	94.650912 
4133.523218  	94.610384 
4134.487643  	94.582547 
4135.452067  	94.612118 
4136.416492  	94.634079 
4137.380916  	94.623745 
4138.345341  	94.581024 
4139.309765  	94.568816 
4140.274190  	94.613303 
4141.238614  	94.603419 
4142.203039  	94.599514 
4143.167463  	94.643163 
4144.131887  	94.593211 
4145.096312  	94.572633 
4146.060736  	94.615073 
4147.025161  	94.631061 
4147.989585  	94.616478 
4148.954010  	94.572971 
4149.918434  	94.549094 
4150.882859  	94.600311 
4151.847283  	94.634664 
4152.811708  	94.591222 
4153.776132  	94.581226 
4154.740556  	94.624060 
4155.704981  	94.621330 
4156.669405  	94.576158 
4157.633830  	94.568824 
4158.598254  	94.588635 
4159.562679  	94.578059 
4160.527103  	94.539687 
4161.491528  	94.546965 
4162.455952  	94.587996 
4163.420377  	94.636280 
4164.384801  	94.610173 
4165.349225  	94.602009 
4166.313650  	94.627796 
4167.278074  	94.593251 
4168.242499  	94.586086 
4169.206923  	94.604170 
4170.171348  	94.634886 
4171.135772  	94.665499 
4172.100197  	94.640595 
4173.064621  	94.644178 
4174.029046  	94.618987 
4174.993470  	94.584153 
4175.957894  	94.622473 
4176.922319  	94.647494 
4177.886743  	94.630424 
4178.851168  	94.603463 
4179.815592  	94.542898 
4180.780017  	94.545561 
4181.744441  	94.648530 
4182.708866  	94.645523 
4183.673290  	94.628756 
4184.637715  	94.651545 
4185.602139  	94.633075 
4186.566563  	94.571069 
4187.530988  	94.557268 
4188.495412  	94.573831 
4189.459837  	94.590100 
4190.424261  	94.596098 
4191.388686  	94.600490 
4192.353110  	94.625355 
4193.317535  	94.625658 
4194.281959  	94.589603 
4195.246384  	94.559299 
4196.210808  	94.574217 
4197.175233  	94.575183 
4198.139657  	94.592369 
4199.104081  	94.595516 
4200.068506  	94.572098 
4201.032930  	94.566352 
4201.997355  	94.594556 
4202.961779  	94.631650 
4203.926204  	94.590327 
4204.890628  	94.565844 
4205.855053  	94.573045 
4206.819477  	94.546310 
4207.783902  	94.569455 
4208.748326  	94.591310 
4209.712750  	94.621331 
4210.677175  	94.653386 
4211.641599  	94.635768 
4212.606024  	94.608008 
4213.570448  	94.630964 
4214.534873  	94.677294 
4215.499297  	94.615229 
4216.463722  	94.566410 
4217.428146  	94.500914 
4218.392571  	94.492849 
4219.356995  	94.540019 
4220.321419  	94.576222 
4221.285844  	94.653268 
4222.250268  	94.677515 
4223.214693  	94.538756 
4224.179117  	94.500344 
4225.143542  	94.601649 
4226.107966  	94.658601 
4227.072391  	94.665743 
4228.036815  	94.626834 
4229.001240  	94.591527 
4229.965664  	94.568806 
4230.930088  	94.555633 
4231.894513  	94.619324 
4232.858937  	94.646225 
4233.823362  	94.650546 
4234.787786  	94.638037 
4235.752211  	94.603002 
4236.716635  	94.624355 
4237.681060  	94.674578 
4238.645484  	94.641568 
4239.609909  	94.598095 
4240.574333  	94.591322 
4241.538757  	94.654107 
4242.503182  	94.700236 
4243.467606  	94.699138 
4244.432031  	94.600442 
4245.396455  	94.520501 
4246.360880  	94.578966 
4247.325304  	94.650079 
4248.289729  	94.648955 
4249.254153  	94.634572 
4250.218578  	94.653802 
4251.183002  	94.690809 
4252.147427  	94.667073 
4253.111851  	94.616713 
4254.076275  	94.553752 
4255.040700  	94.526022 
4256.005124  	94.573465 
4256.969549  	94.702020 
4257.933973  	94.798278 
4258.898398  	94.735464 
4259.862822  	94.589659 
4260.827247  	94.524069 
4261.791671  	94.597103 
4262.756096  	94.683854 
4263.720520  	94.671196 
4264.684944  	94.619375 
4265.649369  	94.587157 
4266.613793  	94.643102 
4267.578218  	94.650798 
4268.542642  	94.617421 
4269.507067  	94.591603 
4270.471491  	94.579772 
4271.435916  	94.574828 
4272.400340  	94.561823 
4273.364765  	94.582913 
4274.329189  	94.672149 
4275.293613  	94.687758 
4276.258038  	94.623338 
4277.222462  	94.591764 
4278.186887  	94.586226 
4279.151311  	94.518244 
4280.115736  	94.540369 
4281.080160  	94.626647 
4282.044585  	94.671954 
4283.009009  	94.665212 
4283.973434  	94.634496 
4284.937858  	94.615788 
4285.902282  	94.592539 
4286.866707  	94.595837 
4287.831131  	94.660379 
4288.795556  	94.698592 
4289.759980  	94.650070 
4290.724405  	94.597317 
4291.688829  	94.593923 
4292.653254  	94.616705 
4293.617678  	94.715175 
4294.582103  	94.773642 
4295.546527  	94.737957 
4296.510951  	94.723044 
4297.475376  	94.720446 
4298.439800  	94.672836 
4299.404225  	94.682971 
4300.368649  	94.738034 
4301.333074  	94.689707 
4302.297498  	94.596922 
4303.261923  	94.607141 
4304.226347  	94.699327 
4305.190772  	94.805719 
4306.155196  	94.749005 
4307.119620  	94.650912 
4308.084045  	94.639867 
4309.048469  	94.727907 
4310.012894  	94.758541 
4310.977318  	94.735974 
4311.941743  	94.691013 
4312.906167  	94.684333 
4313.870592  	94.656196 
4314.835016  	94.655118 
4315.799441  	94.639710 
4316.763865  	94.694106 
4317.728290  	94.736077 
4318.692714  	94.708261 
4319.657138  	94.662134 
4320.621563  	94.700286 
4321.585987  	94.691936 
4322.550412  	94.622507 
4323.514836  	94.589806 
4324.479261  	94.561369 
4325.443685  	94.544338 
4326.408110  	94.583217 
4327.372534  	94.613229 
4328.336959  	94.627177 
4329.301383  	94.584535 
4330.265807  	94.601310 
4331.230232  	94.685509 
4332.194656  	94.664971 
4333.159081  	94.652480 
4334.123505  	94.653200 
4335.087930  	94.634464 
4336.052354  	94.658276 
4337.016779  	94.674984 
4337.981203  	94.664702 
4338.945628  	94.681167 
4339.910052  	94.621764 
4340.874476  	94.580024 
4341.838901  	94.624031 
4342.803325  	94.557878 
4343.767750  	94.490183 
4344.732174  	94.521625 
4345.696599  	94.555308 
4346.661023  	94.559457 
4347.625448  	94.486172 
4348.589872  	94.479069 
4349.554297  	94.558555 
4350.518721  	94.584636 
4351.483145  	94.632572 
4352.447570  	94.562922 
4353.411994  	94.536725 
4354.376419  	94.537273 
4355.340843  	94.568364 
4356.305268  	94.622150 
4357.269692  	94.626922 
4358.234117  	94.611125 
4359.198541  	94.581537 
4360.162966  	94.564629 
4361.127390  	94.568426 
4362.091814  	94.542123 
4363.056239  	94.494148 
4364.020663  	94.533599 
4364.985088  	94.552093 
4365.949512  	94.588141 
4366.913937  	94.555287 
4367.878361  	94.497148 
4368.842786  	94.537723 
4369.807210  	94.596963 
4370.771635  	94.590496 
4371.736059  	94.581831 
4372.700484  	94.578282 
4373.664908  	94.611778 
4374.629332  	94.619463 
4375.593757  	94.614978 
4376.558181  	94.672064 
4377.522606  	94.686156 
4378.487030  	94.612572 
4379.451455  	94.597063 
4380.415879  	94.616398 
4381.380304  	94.565998 
4382.344728  	94.613192 
4383.309153  	94.706222 
4384.273577  	94.705807 
4385.238001  	94.694519 
4386.202426  	94.705477 
4387.166850  	94.742327 
4388.131275  	94.686578 
4389.095699  	94.640629 
4390.060124  	94.672819 
4391.024548  	94.713752 
4391.988973  	94.733342 
4392.953397  	94.767490 
4393.917822  	94.777066 
4394.882246  	94.672257 
4395.846670  	94.633161 
4396.811095  	94.652259 
4397.775519  	94.752079 
4398.739944  	94.820627 
4399.704368  	94.795563 
4400.668793  	94.813488 
4401.633217  	94.730582 
4402.597642  	94.691338 
4403.562066  	94.811391 
4404.526491  	94.857558 
4405.490915  	94.830787 
4406.455339  	94.775842 
4407.419764  	94.753364 
4408.384188  	94.785325 
4409.348613  	94.827688 
4410.313037  	94.838531 
4411.277462  	94.799389 
4412.241886  	94.804526 
4413.206311  	94.822348 
4414.170735  	94.847669 
4415.135160  	94.867289 
4416.099584  	94.834379 
4417.064008  	94.747327 
4418.028433  	94.712059 
4418.992857  	94.770028 
4419.957282  	94.772837 
4420.921706  	94.705536 
4421.886131  	94.747553 
4422.850555  	94.797848 
4423.814980  	94.790086 
4424.779404  	94.773047 
4425.743829  	94.740353 
4426.708253  	94.766073 
4427.672677  	94.808986 
4428.637102  	94.826889 
4429.601526  	94.836786 
4430.565951  	94.768231 
4431.530375  	94.742215 
4432.494800  	94.716663 
4433.459224  	94.678923 
4434.423649  	94.718820 
4435.388073  	94.762302 
4436.352498  	94.872650 
4437.316922  	94.933175 
4438.281347  	94.896498 
4439.245771  	94.774435 
4440.210195  	94.755326 
4441.174620  	94.810489 
4442.139044  	94.804041 
4443.103469  	94.811564 
4444.067893  	94.814881 
4445.032318  	94.870560 
4445.996742  	94.916900 
4446.961167  	94.870363 
4447.925591  	94.784123 
4448.890016  	94.786654 
4449.854440  	94.765086 
4450.818864  	94.782138 
4451.783289  	94.833596 
4452.747713  	94.806590 
4453.712138  	94.875391 
4454.676562  	94.873211 
4455.640987  	94.844815 
4456.605411  	94.941083 
4457.569836  	94.945440 
4458.534260  	94.885157 
4459.498685  	94.841274 
4460.463109  	94.822872 
4461.427533  	94.802479 
4462.391958  	94.791469 
4463.356382  	94.791009 
4464.320807  	94.806915 
4465.285231  	94.807384 
4466.249656  	94.787144 
4467.214080  	94.799617 
4468.178505  	94.799997 
4469.142929  	94.806103 
4470.107354  	94.855971 
4471.071778  	94.863250 
4472.036202  	94.883523 
4473.000627  	94.867847 
4473.965051  	94.792595 
4474.929476  	94.793950 
4475.893900  	94.821057 
4476.858325  	94.824701 
4477.822749  	94.799905 
4478.787174  	94.855325 
4479.751598  	94.891189 
4480.716023  	94.869315 
4481.680447  	94.826250 
4482.644871  	94.784652 
4483.609296  	94.753616 
4484.573720  	94.777861 
4485.538145  	94.843144 
4486.502569  	94.831464 
4487.466994  	94.806169 
4488.431418  	94.860335 
4489.395843  	94.822317 
4490.360267  	94.767919 
4491.324692  	94.767665 
4492.289116  	94.802145 
4493.253541  	94.841359 
4494.217965  	94.820066 
4495.182389  	94.800585 
4496.146814  	94.820235 
4497.111238  	94.828796 
4498.075663  	94.824398 
4499.040087  	94.809831 
4500.004512  	94.800986 
4500.968936  	94.811076 
4501.933361  	94.790745 
4502.897785  	94.794639 
4503.862210  	94.813650 
4504.826634  	94.801774 
4505.791058  	94.824332 
4506.755483  	94.833414 
4507.719907  	94.768837 
4508.684332  	94.767044 
4509.648756  	94.782213 
4510.613181  	94.753816 
4511.577605  	94.834023 
4512.542030  	94.925852 
4513.506454  	94.889512 
4514.470879  	94.807048 
4515.435303  	94.739841 
4516.399727  	94.733668 
4517.364152  	94.740946 
4518.328576  	94.785241 
4519.293001  	94.822722 
4520.257425  	94.814341 
4521.221850  	94.736756 
4522.186274  	94.796293 
4523.150699  	94.849126 
4524.115123  	94.788556 
4525.079548  	94.753641 
4526.043972  	94.778124 
4527.008396  	94.744686 
4527.972821  	94.746599 
4528.937245  	94.843226 
4529.901670  	94.823386 
4530.866094  	94.837159 
4531.830519  	94.871345 
4532.794943  	94.839804 
4533.759368  	94.801690 
4534.723792  	94.765251 
4535.688217  	94.710604 
4536.652641  	94.749557 
4537.617065  	94.806783 
4538.581490  	94.863806 
4539.545914  	94.879148 
4540.510339  	94.861200 
4541.474763  	94.789337 
4542.439188  	94.762441 
4543.403612  	94.805898 
4544.368037  	94.782587 
4545.332461  	94.741773 
4546.296886  	94.731983 
4547.261310  	94.703235 
4548.225734  	94.732948 
4549.190159  	94.832340 
4550.154583  	94.809040 
4551.119008  	94.728917 
4552.083432  	94.759980 
4553.047857  	94.772295 
4554.012281  	94.779954 
4554.976706  	94.780159 
4555.941130  	94.733600 
4556.905555  	94.791927 
4557.869979  	94.863676 
4558.834404  	94.857960 
4559.798828  	94.784156 
4560.763252  	94.750104 
4561.727677  	94.787129 
4562.692101  	94.826971 
4563.656526  	94.848328 
4564.620950  	94.762816 
4565.585375  	94.700652 
4566.549799  	94.713303 
4567.514224  	94.781254 
4568.478648  	94.783511 
4569.443073  	94.734983 
4570.407497  	94.753661 
4571.371921  	94.844227 
4572.336346  	94.875105 
4573.300770  	94.838962 
4574.265195  	94.756808 
4575.229619  	94.741160 
4576.194044  	94.730761 
4577.158468  	94.775596 
4578.122893  	94.839412 
4579.087317  	94.815242 
4580.051742  	94.809217 
4581.016166  	94.824108 
4581.980590  	94.836605 
4582.945015  	94.839145 
4583.909439  	94.827771 
4584.873864  	94.830108 
4585.838288  	94.825903 
4586.802713  	94.847418 
4587.767137  	94.823735 
4588.731562  	94.774552 
4589.695986  	94.758166 
4590.660411  	94.746826 
4591.624835  	94.813381 
4592.589259  	94.891383 
4593.553684  	94.872151 
4594.518108  	94.763898 
4595.482533  	94.769449 
4596.446957  	94.807192 
4597.411382  	94.703010 
4598.375806  	94.707170 
4599.340231  	94.812506 
4600.304655  	94.820667 
4601.269080  	94.806118 
4602.233504  	94.795764 
4603.197928  	94.782395 
4604.162353  	94.817526 
4605.126777  	94.797431 
4606.091202  	94.786020 
4607.055626  	94.799185 
4608.020051  	94.841217 
4608.984475  	94.891151 
4609.948900  	94.910382 
4610.913324  	94.899471 
4611.877749  	94.854678 
4612.842173  	94.842146 
4613.806598  	94.940398 
4614.771022  	94.899099 
4615.735446  	94.833457 
4616.699871  	94.816653 
4617.664295  	94.766898 
4618.628720  	94.787572 
4619.593144  	94.824846 
4620.557569  	94.891142 
4621.521993  	94.813468 
4622.486418  	94.769413 
4623.450842  	94.805612 
4624.415267  	94.901746 
4625.379691  	94.956813 
4626.344115  	94.857672 
4627.308540  	94.843752 
4628.272964  	94.791691 
4629.237389  	94.799599 
4630.201813  	94.852227 
4631.166238  	94.853998 
4632.130662  	94.841951 
4633.095087  	94.811618 
4634.059511  	94.857589 
4635.023936  	94.978025 
4635.988360  	95.021012 
4636.952784  	94.954394 
4637.917209  	94.855251 
4638.881633  	94.780716 
4639.846058  	94.737079 
4640.810482  	94.736430 
4641.774907  	94.803972 
4642.739331  	94.774761 
4643.703756  	94.753102 
4644.668180  	94.858795 
4645.632605  	94.840842 
4646.597029  	94.812838 
4647.561453  	94.789462 
4648.525878  	94.812040 
4649.490302  	94.840540 
4650.454727  	94.876111 
4651.419151  	94.909438 
4652.383576  	94.849666 
4653.348000  	94.779042 
4654.312425  	94.839614 
4655.276849  	94.925158 
4656.241274  	94.884657 
4657.205698  	94.817455 
4658.170122  	94.719345 
4659.134547  	94.728296 
4660.098971  	94.782684 
4661.063396  	94.799524 
4662.027820  	94.881291 
4662.992245  	94.892914 
4663.956669  	94.903103 
4664.921094  	94.950584 
4665.885518  	94.929018 
4666.849943  	94.903041 
4667.814367  	94.850389 
4668.778791  	94.895042 
4669.743216  	94.918546 
4670.707640  	94.894273 
4671.672065  	94.905235 
4672.636489  	94.873732 
4673.600914  	94.840568 
4674.565338  	94.858884 
4675.529763  	94.867744 
4676.494187  	94.887320 
4677.458612  	94.907730 
4678.423036  	94.939389 
4679.387461  	94.925605 
4680.351885  	94.886499 
4681.316309  	94.858363 
4682.280734  	94.805430 
4683.245158  	94.743042 
4684.209583  	94.788648 
4685.174007  	94.822197 
4686.138432  	94.821258 
4687.102856  	94.859819 
4688.067281  	94.850195 
4689.031705  	94.810783 
4689.996130  	94.842315 
4690.960554  	94.851766 
4691.924978  	94.840546 
4692.889403  	94.810120 
4693.853827  	94.808115 
4694.818252  	94.809485 
4695.782676  	94.859550 
4696.747101  	94.849318 
4697.711525  	94.849861 
4698.675950  	94.907305 
4699.640374  	94.842298 