##TITLE=No Description
##DATA TYPE=INFRARED SPECTRUM
##XUNITS=1/CM
##YUNITS=%T
400.236149  	104.246150 
401.200574  	101.961686 
402.164998  	85.132179 
403.129423  	88.233743 
404.093847  	101.937224 
405.058272  	89.196528 
406.022696  	70.964959 
406.987120  	73.939006 
407.951545  	87.496245 
408.915969  	87.657119 
409.880394  	87.952142 
410.844818  	94.289318 
411.809243  	100.521425 
412.773667  	94.396550 
413.738092  	81.378483 
414.702516  	76.056754 
415.666941  	79.737661 
416.631365  	88.474273 
417.595789  	97.522694 
418.560214  	107.423726 
419.524638  	95.580903 
420.489063  	89.416808 
421.453487  	87.643925 
422.417912  	88.933302 
423.382336  	88.821523 
424.346761  	84.144946 
425.311185  	78.628836 
426.275610  	81.255794 
427.240034  	83.615157 
428.204458  	83.385065 
429.168883  	83.572061 
430.133307  	83.437660 
431.097732  	82.723765 
432.062156  	82.541791 
433.026581  	81.310959 
433.991005  	82.251853 
434.955430  	84.134390 
435.919854  	83.543959 
436.884279  	80.316838 
437.848703  	80.525504 
438.813127  	82.827467 
439.777552  	81.774843 
440.741976  	80.373712 
441.706401  	81.572414 
442.670825  	82.262120 
443.635250  	80.376578 
444.599674  	80.969084 
445.564099  	80.819325 
446.528523  	78.760560 
447.492948  	79.574670 
448.457372  	80.414091 
449.421796  	79.441028 
450.386221  	79.084064 
451.350645  	79.674366 
452.315070  	78.866408 
453.279494  	78.658035 
454.243919  	79.311237 
455.208343  	78.345356 
456.172768  	76.930729 
457.137192  	77.591149 
458.101617  	78.867684 
459.066041  	78.150377 
460.030466  	78.463495 
460.994890  	78.251224 
461.959314  	78.120869 
462.923739  	78.237471 
463.888163  	77.511841 
464.852588  	76.478931 
465.817012  	76.439963 
466.781437  	76.700355 
467.745861  	76.367706 
468.710286  	75.963328 
469.674710  	75.557966 
470.639135  	76.007530 
471.603559  	76.270147 
472.567983  	76.571065 
473.532408  	76.697474 
474.496832  	76.004284 
475.461257  	76.000607 
476.425681  	75.821476 
477.390106  	75.744480 
478.354530  	76.531930 
479.318955  	76.384646 
480.283379  	75.700354 
481.247804  	75.412764 
482.212228  	75.173063 
483.176652  	75.779740 
484.141077  	75.844359 
485.105501  	74.644520 
486.069926  	74.180514 
487.034350  	74.508860 
487.998775  	74.526126 
488.963199  	74.586073 
489.927624  	74.550060 
490.892048  	73.827056 
491.856473  	73.682900 
492.820897  	74.610453 
493.785321  	74.676334 
494.749746  	73.784031 
495.714170  	73.849725 
496.678595  	74.312973 
497.643019  	74.549623 
498.607444  	74.654756 
499.571868  	73.704993 
500.536293  	73.325492 
501.500717  	73.095268 
502.465142  	72.586890 
503.429566  	72.838886 
504.393990  	72.740900 
505.358415  	72.303534 
506.322839  	71.622263 
507.287264  	71.528000 
508.251688  	72.356938 
509.216113  	72.537927 
510.180537  	71.929733 
511.144962  	71.827765 
512.109386  	72.057341 
513.073811  	72.230380 
514.038235  	72.148254 
515.002660  	71.588991 
515.967084  	71.228615 
516.931508  	71.153845 
517.895933  	71.137408 
518.860357  	70.929741 
519.824782  	70.277383 
520.789206  	70.761245 
521.753631  	71.159458 
522.718055  	70.856402 
523.682480  	70.494487 
524.646904  	69.805493 
525.611329  	68.960803 
526.575753  	69.189088 
527.540177  	69.751105 
528.504602  	69.636606 
529.469026  	69.353161 
530.433451  	69.156734 
531.397875  	68.662445 
532.362300  	68.140474 
533.326724  	68.207687 
534.291149  	68.252019 
535.255573  	68.238175 
536.219998  	68.531939 
537.184422  	69.306244 
538.148846  	69.481641 
539.113271  	69.966787 
540.077695  	70.586031 
541.042120  	71.082204 
542.006544  	71.117158 
542.970969  	70.966061 
543.935393  	70.860742 
544.899818  	70.602663 
545.864242  	70.756560 
546.828667  	70.953168 
547.793091  	70.625412 
548.757515  	70.432167 
549.721940  	70.694150 
550.686364  	70.371172 
551.650789  	70.047805 
552.615213  	69.468391 
553.579638  	69.488748 
554.544062  	69.450621 
555.508487  	69.500462 
556.472911  	69.190142 
557.437336  	68.488100 
558.401760  	68.314896 
559.366184  	68.413778 
560.330609  	68.000123 
561.295033  	67.321069 
562.259458  	66.797065 
563.223882  	66.048855 
564.188307  	65.455280 
565.152731  	65.379854 
566.117156  	64.979083 
567.081580  	64.063776 
568.046005  	63.546575 
569.010429  	63.096736 
569.974853  	62.471720 
570.939278  	61.894243 
571.903702  	61.212024 
572.868127  	60.583956 
573.832551  	60.051337 
574.796976  	59.762082 
575.761400  	59.194927 
576.725825  	59.165360 
577.690249  	59.466778 
578.654674  	59.798368 
579.619098  	60.162226 
580.583523  	60.649164 
581.547947  	61.557520 
582.512371  	62.727251 
583.476796  	63.542132 
584.441220  	64.298137 
585.405645  	65.286202 
586.370069  	66.534921 
587.334494  	67.389710 
588.298918  	67.973107 
589.263343  	68.469461 
590.227767  	69.060075 
591.192192  	69.277642 
592.156616  	69.482193 
593.121040  	70.071563 
594.085465  	70.467030 
595.049889  	70.759258 
596.014314  	70.978756 
596.978738  	71.052928 
597.943163  	71.282323 
598.907587  	71.327229 
599.872012  	71.250756 
600.836436  	71.667455 
601.800861  	72.037201 
602.765285  	72.085774 
603.729709  	72.105295 
604.694134  	72.262423 
605.658558  	72.473000 
606.622983  	72.425239 
607.587407  	72.405829 
608.551832  	72.552830 
609.516256  	72.753989 
610.480681  	72.662627 
611.445105  	72.573986 
612.409530  	72.737404 
613.373954  	72.830500 
614.338378  	72.581213 
615.302803  	72.387271 
616.267227  	72.428011 
617.231652  	72.778257 
618.196076  	72.814113 
619.160501  	72.735401 
620.124925  	72.558469 
621.089350  	72.674429 
622.053774  	72.749142 
623.018199  	72.950844 
623.982623  	72.966957 
624.947047  	72.903263 
625.911472  	72.642879 
626.875896  	72.632770 
627.840321  	72.582538 
628.804745  	72.700368 
629.769170  	72.715258 
630.733594  	72.593222 
631.698019  	72.534979 
632.662443  	72.458375 
633.626868  	72.312843 
634.591292  	72.231322 
635.555717  	72.123184 
636.520141  	72.355548 
637.484565  	72.211382 
638.448990  	72.123647 
639.413414  	72.002279 
640.377839  	71.932026 
641.342263  	71.806346 
642.306688  	71.540388 
643.271112  	71.485840 
644.235537  	71.501439 
645.199961  	71.273878 
646.164386  	71.129388 
647.128810  	71.035075 
648.093234  	70.793178 
649.057659  	70.466191 
650.022083  	70.239825 
650.986508  	70.081862 
651.950932  	69.898589 
652.915357  	69.593474 
653.879781  	69.468138 
654.844206  	69.354191 
655.808630  	69.136023 
656.773055  	68.685239 
657.737479  	68.430448 
658.701903  	68.146933 
659.666328  	67.879754 
660.630752  	67.583037 
661.595177  	67.152974 
662.559601  	66.750889 
663.524026  	66.574463 
664.488450  	66.397927 
665.452875  	66.064269 
666.417299  	65.790938 
667.381724  	65.737809 
668.346148  	64.737311 
669.310572  	64.354473 
670.274997  	64.438771 
671.239421  	64.379139 
672.203846  	64.171448 
673.168270  	63.869523 
674.132695  	63.395196 
675.097119  	63.149554 
676.061544  	62.926783 
677.025968  	62.769461 
677.990393  	62.618393 
678.954817  	62.486172 
679.919241  	62.431982 
680.883666  	62.392189 
681.848090  	62.290347 
682.812515  	62.305574 
683.776939  	62.347894 
684.741364  	62.345620 
685.705788  	62.254916 
686.670213  	62.412682 
687.634637  	62.624508 
688.599062  	62.951265 
689.563486  	63.318088 
690.527910  	63.736082 
691.492335  	64.144785 
692.456759  	64.621715 
693.421184  	65.034747 
694.385608  	65.567376 
695.350033  	66.156677 
696.314457  	66.647320 
697.278882  	67.033775 
698.243306  	67.406708 
699.207731  	67.930291 
700.172155  	68.413006 
701.136580  	68.695034 
702.101004  	68.994392 
703.065428  	69.299264 
704.029853  	69.669823 
704.994277  	69.984675 
705.958702  	70.313323 
706.923126  	70.595253 
707.887551  	70.786152 
708.851975  	71.096725 
709.816400  	71.303735 
710.780824  	71.427035 
711.745249  	71.550549 
712.709673  	71.655336 
713.674097  	71.694621 
714.638522  	71.848925 
715.602946  	71.933819 
716.567371  	72.016179 
717.531795  	72.108842 
718.496220  	72.077613 
719.460644  	72.051313 
720.425069  	72.178640 
721.389493  	72.297209 
722.353918  	72.259346 
723.318342  	72.227511 
724.282766  	72.209903 
725.247191  	72.060808 
726.211615  	71.948471 
727.176040  	72.028548 
728.140464  	72.007283 
729.104889  	72.045511 
730.069313  	72.262927 
731.033738  	72.745421 
731.998162  	73.421470 
732.962587  	74.127050 
733.927011  	74.871035 
734.891435  	75.562688 
735.855860  	76.276492 
736.820284  	77.052861 
737.784709  	77.759252 
738.749133  	78.447073 
739.713558  	78.995120 
740.677982  	79.420819 
741.642407  	79.796204 
742.606831  	80.142817 
743.571256  	80.365197 
744.535680  	80.459345 
745.500104  	80.692001 
746.464529  	80.922104 
747.428953  	80.938390 
748.393378  	81.063279 
749.357802  	81.141965 
750.322227  	81.168371 
751.286651  	81.199533 
752.251076  	81.307361 
753.215500  	81.486284 
754.179925  	81.638019 
755.144349  	81.795718 
756.108774  	81.963556 
757.073198  	82.061065 
758.037622  	82.116085 
759.002047  	82.132676 
759.966471  	82.218429 
760.930896  	82.357029 
761.895320  	82.542538 
762.859745  	82.758097 
763.824169  	82.909420 
764.788594  	82.961310 
765.753018  	83.062100 
766.717443  	83.226320 
767.681867  	83.399110 
768.646291  	83.458294 
769.610716  	83.590947 
770.575140  	83.744663 
771.539565  	83.937023 
772.503989  	83.997292 
773.468414  	84.004964 
774.432838  	84.167532 
775.397263  	84.424700 
776.361687  	84.464442 
777.326112  	84.616747 
778.290536  	84.769504 
779.254960  	84.751455 
780.219385  	84.667241 
781.183809  	84.919489 
782.148234  	85.080077 
783.112658  	85.250407 
784.077083  	85.231614 
785.041507  	85.261274 
786.005932  	85.469328 
786.970356  	85.376949 
787.934781  	85.393538 
788.899205  	85.481954 
789.863629  	85.582856 
790.828054  	85.591114 
791.792478  	85.587696 
792.756903  	85.654536 
793.721327  	85.726854 
794.685752  	85.660585 
795.650176  	85.685083 
796.614601  	85.854503 
797.579025  	85.996102 
798.543450  	85.906408 
799.507874  	85.928473 
800.472298  	86.230159 
801.436723  	86.500714 
802.401147  	86.599066 
803.365572  	86.745238 
804.329996  	86.972714 
805.294421  	87.034858 
806.258845  	86.980681 
807.223270  	87.153182 
808.187694  	87.332032 
809.152119  	87.364780 
810.116543  	87.368446 
811.080967  	87.462353 
812.045392  	87.563033 
813.009816  	87.604507 
813.974241  	87.702345 
814.938665  	87.826780 
815.903090  	87.884666 
816.867514  	87.922550 
817.831939  	88.032606 
818.796363  	88.186023 
819.760788  	88.282416 
820.725212  	88.368949 
821.689637  	88.343191 
822.654061  	88.406412 
823.618485  	88.518531 
824.582910  	88.579467 
825.547334  	88.597547 
826.511759  	88.625321 
827.476183  	88.705794 
828.440608  	88.769316 
829.405032  	88.762416 
830.369457  	88.807525 
831.333881  	88.858160 
832.298306  	88.913352 
833.262730  	88.977743 
834.227154  	89.118757 
835.191579  	89.180860 
836.156003  	89.149580 
837.120428  	89.166741 
838.084852  	89.189490 
839.049277  	89.236048 
840.013701  	89.205073 
840.978126  	89.164613 
841.942550  	89.343978 
842.906975  	89.465356 
843.871399  	89.380268 
844.835823  	89.341881 
845.800248  	89.436848 
846.764672  	89.506715 
847.729097  	89.565631 
848.693521  	89.541958 
849.657946  	89.500427 
850.622370  	89.579387 
851.586795  	89.650562 
852.551219  	89.554646 
853.515644  	89.575082 
854.480068  	89.632168 
855.444492  	89.602677 
856.408917  	89.619050 
857.373341  	89.670467 
858.337766  	89.758584 
859.302190  	89.828117 
860.266615  	89.815116 
861.231039  	89.773017 
862.195464  	89.760162 
863.159888  	89.767448 
864.124313  	89.796689 
865.088737  	89.824011 
866.053161  	89.830508 
867.017586  	89.782925 
867.982010  	89.753591 
868.946435  	89.853921 
869.910859  	89.871505 
870.875284  	89.829990 
871.839708  	89.813522 
872.804133  	89.826087 
873.768557  	89.798230 
874.732982  	89.707874 
875.697406  	89.674030 
876.661831  	89.633010 
877.626255  	89.633423 
878.590679  	89.662697 
879.555104  	89.693257 
880.519528  	89.715256 
881.483953  	89.645327 
882.448377  	89.554752 
883.412802  	89.613685 
884.377226  	89.660941 
885.341651  	89.608118 
886.306075  	89.592148 
887.270500  	89.555272 
888.234924  	89.582905 
889.199348  	89.525670 
890.163773  	89.454616 
891.128197  	89.480093 
892.092622  	89.440454 
893.057046  	89.315312 
894.021471  	89.239320 
894.985895  	89.187855 
895.950320  	89.022199 
896.914744  	88.871754 
897.879169  	88.788810 
898.843593  	88.647869 
899.808017  	88.410672 
900.772442  	88.120571 
901.736866  	87.776916 
902.701291  	87.415775 
903.665715  	87.078711 
904.630140  	86.763589 
905.594564  	86.568442 
906.558989  	86.606558 
907.523413  	86.820350 
908.487838  	87.105448 
909.452262  	87.404432 
910.416686  	87.704254 
911.381111  	87.888637 
912.345535  	87.937636 
913.309960  	87.897754 
914.274384  	87.797653 
915.238809  	87.746634 
916.203233  	87.629457 
917.167658  	87.505996 
918.132082  	87.345633 
919.096507  	87.214451 
920.060931  	87.090802 
921.025355  	86.898657 
921.989780  	86.635191 
922.954204  	86.341379 
923.918629  	86.015236 
924.883053  	85.744726 
925.847478  	85.448584 
926.811902  	84.977393 
927.776327  	84.400641 
928.740751  	83.778313 
929.705176  	83.134275 
930.669600  	82.378558 
931.634024  	81.574448 
932.598449  	80.910258 
933.562873  	80.414438 
934.527298  	80.232691 
935.491722  	80.450576 
936.456147  	81.081291 
937.420571  	82.029545 
938.384996  	83.068958 
939.349420  	84.015618 
940.313845  	84.892262 
941.278269  	85.671466 
942.242694  	86.282095 
943.207118  	86.720346 
944.171542  	87.080323 
945.135967  	87.373122 
946.100391  	87.606618 
947.064816  	87.780993 
948.029240  	87.941580 
948.993665  	88.132609 
949.958089  	88.280457 
950.922514  	88.376564 
951.886938  	88.513350 
952.851363  	88.548438 
953.815787  	88.573142 
954.780211  	88.661356 
955.744636  	88.792579 
956.709060  	88.885129 
957.673485  	88.922939 
958.637909  	88.961234 
959.602334  	88.992073 
960.566758  	89.012814 
961.531183  	89.017160 
962.495607  	89.042312 
963.460032  	89.108423 
964.424456  	89.151940 
965.388880  	89.087962 
966.353305  	89.083209 
967.317729  	89.217284 
968.282154  	89.263237 
969.246578  	89.245973 
970.211003  	89.259654 
971.175427  	89.253173 
972.139852  	89.200621 
973.104276  	89.163062 
974.068701  	89.172849 
975.033125  	89.178796 
975.997549  	89.141048 
976.961974  	89.112186 
977.926398  	89.091772 
978.890823  	89.063390 
979.855247  	88.994002 
980.819672  	88.917539 
981.784096  	88.873427 
982.748521  	88.828861 
983.712945  	88.713924 
984.677370  	88.551116 
985.641794  	88.461313 
986.606218  	88.421966 
987.570643  	88.384859 
988.535067  	88.347434 
989.499492  	88.348490 
990.463916  	88.341015 
991.428341  	88.326207 
992.392765  	88.252421 
993.357190  	88.169676 
994.321614  	88.100393 
995.286039  	88.027183 
996.250463  	88.003342 
997.214888  	87.984810 
998.179312  	87.927235 
999.143736  	87.866329 
1000.108161  	87.804077 
1001.072585  	87.780421 
1002.037010  	87.757317 
1003.001434  	87.679575 
1003.965859  	87.612632 
1004.930283  	87.540914 
1005.894708  	87.429639 
1006.859132  	87.317292 
1007.823557  	87.207647 
1008.787981  	87.133549 
1009.752405  	87.051875 
1010.716830  	86.922500 
1011.681254  	86.835312 
1012.645679  	86.796266 
1013.610103  	86.749750 
1014.574528  	86.672727 
1015.538952  	86.627104 
1016.503377  	86.690768 
1017.467801  	86.721906 
1018.432226  	86.681623 
1019.396650  	86.668800 
1020.361074  	86.691690 
1021.325499  	86.693777 
1022.289923  	86.669956 
1023.254348  	86.619695 
1024.218772  	86.554455 
1025.183197  	86.501485 
1026.147621  	86.439890 
1027.112046  	86.407528 
1028.076470  	86.340067 
1029.040895  	86.260804 
1030.005319  	86.178479 
1030.969743  	86.095961 
1031.934168  	86.063080 
1032.898592  	86.024490 
1033.863017  	85.940709 
1034.827441  	85.791016 
1035.791866  	85.696887 
1036.756290  	85.652879 
1037.720715  	85.612737 
1038.685139  	85.558129 
1039.649564  	85.514223 
1040.613988  	85.497255 
1041.578412  	85.475789 
1042.542837  	85.509508 
1043.507261  	85.584576 
1044.471686  	85.681477 
1045.436110  	85.758351 
1046.400535  	85.846866 
1047.364959  	85.932831 
1048.329384  	85.982663 
1049.293808  	86.044186 
1050.258233  	86.122923 
1051.222657  	86.202982 
1052.187081  	86.208657 
1053.151506  	86.172693 
1054.115930  	86.193947 
1055.080355  	86.175526 
1056.044779  	86.108723 
1057.009204  	86.043206 
1057.973628  	86.012763 
1058.938053  	85.984770 
1059.902477  	85.877866 
1060.866902  	85.737899 
1061.831326  	85.694689 
1062.795751  	85.682235 
1063.760175  	85.630289 
1064.724599  	85.581119 
1065.689024  	85.600842 
1066.653448  	85.730147 
1067.617873  	85.838150 
1068.582297  	85.971693 
1069.546722  	86.198131 
1070.511146  	86.393495 
1071.475571  	86.486685 
1072.439995  	86.581390 
1073.404420  	86.695382 
1074.368844  	86.748760 
1075.333268  	86.777629 
1076.297693  	86.775057 
1077.262117  	86.706818 
1078.226542  	86.708788 
1079.190966  	86.724548 
1080.155391  	86.673091 
1081.119815  	86.632305 
1082.084240  	86.596733 
1083.048664  	86.566393 
1084.013089  	86.546103 
1084.977513  	86.509930 
1085.941937  	86.398306 
1086.906362  	86.284307 
1087.870786  	86.196807 
1088.835211  	86.085225 
1089.799635  	85.932184 
1090.764060  	85.843925 
1091.728484  	85.903387 
1092.692909  	85.931372 
1093.657333  	85.871412 
1094.621758  	85.801454 
1095.586182  	85.789380 
1096.550606  	85.771517 
1097.515031  	85.747816 
1098.479455  	85.748927 
1099.443880  	85.761632 
1100.408304  	85.770066 
1101.372729  	85.792149 
1102.337153  	85.808335 
1103.301578  	85.807834 
1104.266002  	85.849904 
1105.230427  	85.891002 
1106.194851  	85.880862 
1107.159275  	85.873793 
1108.123700  	85.849433 
1109.088124  	85.825950 
1110.052549  	85.806845 
1111.016973  	85.851154 
1111.981398  	85.899435 
1112.945822  	85.913105 
1113.910247  	85.884746 
1114.874671  	85.829646 
1115.839096  	85.808043 
1116.803520  	85.803903 
1117.767945  	85.748448 
1118.732369  	85.685804 
1119.696793  	85.655341 
1120.661218  	85.577229 
1121.625642  	85.453944 
1122.590067  	85.388501 
1123.554491  	85.303859 
1124.518916  	85.162756 
1125.483340  	85.025649 
1126.447765  	84.937216 
1127.412189  	84.837398 
1128.376614  	84.652570 
1129.341038  	84.429371 
1130.305462  	84.283863 
1131.269887  	84.055983 
1132.234311  	83.681341 
1133.198736  	83.239606 
1134.163160  	82.752662 
1135.127585  	82.214502 
1136.092009  	81.631321 
1137.056434  	81.142134 
1138.020858  	80.860007 
1138.985283  	80.697166 
1139.949707  	80.618765 
1140.914131  	80.684335 
1141.878556  	80.800257 
1142.842980  	80.840848 
1143.807405  	80.865080 
1144.771829  	80.904872 
1145.736254  	80.904648 
1146.700678  	80.886375 
1147.665103  	80.895654 
1148.629527  	81.004189 
1149.593952  	81.206019 
1150.558376  	81.429942 
1151.522800  	81.617893 
1152.487225  	81.843251 
1153.451649  	82.131070 
1154.416074  	82.385715 
1155.380498  	82.570913 
1156.344923  	82.756454 
1157.309347  	82.916328 
1158.273772  	82.993861 
1159.238196  	82.988297 
1160.202621  	82.996070 
1161.167045  	82.988313 
1162.131469  	82.899798 
1163.095894  	82.746844 
1164.060318  	82.608994 
1165.024743  	82.442059 
1165.989167  	82.212672 
1166.953592  	81.964085 
1167.918016  	81.696634 
1168.882441  	81.376350 
1169.846865  	80.979630 
1170.811290  	80.536775 
1171.775714  	80.046288 
1172.740138  	79.518684 
1173.704563  	78.899083 
1174.668987  	78.200237 
1175.633412  	77.617923 
1176.597836  	77.104873 
1177.562261  	76.615944 
1178.526685  	76.258287 
1179.491110  	76.110293 
1180.455534  	76.136108 
1181.419959  	76.294504 
1182.384383  	76.505951 
1183.348808  	76.729167 
1184.313232  	76.964146 
1185.277656  	77.119236 
1186.242081  	77.176128 
1187.206505  	77.149955 
1188.170930  	77.003624 
1189.135354  	76.682852 
1190.099779  	76.246816 
1191.064203  	75.742969 
1192.028628  	75.070932 
1192.993052  	74.211670 
1193.957477  	73.325784 
1194.921901  	72.496746 
1195.886325  	71.808025 
1196.850750  	71.410995 
1197.815174  	71.476767 
1198.779599  	72.033363 
1199.744023  	72.938451 
1200.708448  	73.986590 
1201.672872  	75.140851 
1202.637297  	76.293139 
1203.601721  	77.313378 
1204.566146  	78.173031 
1205.530570  	78.896079 
1206.494994  	79.497616 
1207.459419  	79.946387 
1208.423843  	80.268573 
1209.388268  	80.513104 
1210.352692  	80.695870 
1211.317117  	80.751311 
1212.281541  	80.733652 
1213.245966  	80.780370 
1214.210390  	80.808585 
1215.174815  	80.771301 
1216.139239  	80.722909 
1217.103663  	80.641375 
1218.068088  	80.528163 
1219.032512  	80.301342 
1219.996937  	80.004058 
1220.961361  	79.639592 
1221.925786  	79.190168 
1222.890210  	78.712140 
1223.854635  	78.360289 
1224.819059  	78.246642 
1225.783484  	78.442587 
1226.747908  	78.701877 
1227.712332  	78.864141 
1228.676757  	78.931105 
1229.641181  	78.882145 
1230.605606  	78.728219 
1231.570030  	78.513333 
1232.534455  	78.324442 
1233.498879  	78.160500 
1234.463304  	77.968495 
1235.427728  	77.770836 
1236.392153  	77.637054 
1237.356577  	77.525909 
1238.321002  	77.399965 
1239.285426  	77.308164 
1240.249850  	77.214079 
1241.214275  	77.094807 
1242.178699  	76.979496 
1243.143124  	76.841549 
1244.107548  	76.691378 
1245.071973  	76.611637 
1246.036397  	76.480032 
1247.000822  	76.315715 
1247.965246  	76.188938 
1248.929671  	76.066721 
1249.894095  	75.913964 
1250.858519  	75.752102 
1251.822944  	75.595810 
1252.787368  	75.417151 
1253.751793  	75.206934 
1254.716217  	75.004497 
1255.680642  	74.805574 
1256.645066  	74.601019 
1257.609491  	74.347162 
1258.573915  	74.051372 
1259.538340  	73.711606 
1260.502764  	73.354051 
1261.467188  	73.138737 
1262.431613  	72.898274 
1263.396037  	72.598123 
1264.360462  	72.254747 
1265.324886  	71.914388 
1266.289311  	71.599556 
1267.253735  	71.346773 
1268.218160  	71.090349 
1269.182584  	70.780105 
1270.147009  	70.466438 
1271.111433  	70.243473 
1272.075857  	70.065869 
1273.040282  	70.051554 
1274.004706  	70.064142 
1274.969131  	70.149904 
1275.933555  	70.385794 
1276.897980  	70.770823 
1277.862404  	71.308112 
1278.826829  	71.962890 
1279.791253  	72.618591 
1280.755678  	73.334581 
1281.720102  	74.081910 
1282.684526  	74.786083 
1283.648951  	75.432081 
1284.613375  	76.023263 
1285.577800  	76.565270 
1286.542224  	76.971312 
1287.506649  	77.228497 
1288.471073  	77.563410 
1289.435498  	77.986630 
1290.399922  	78.283357 
1291.364347  	78.510860 
1292.328771  	78.716546 
1293.293195  	78.872510 
1294.257620  	78.989395 
1295.222044  	79.060536 
1296.186469  	79.051783 
1297.150893  	79.077553 
1298.115318  	79.195495 
1299.079742  	79.198401 
1300.044167  	79.184447 
1301.008591  	79.167599 
1301.973016  	79.183841 
1302.937440  	79.245273 
1303.901865  	79.326440 
1304.866289  	79.443069 
1305.830713  	79.562744 
1306.795138  	79.668078 
1307.759562  	79.729808 
1308.723987  	79.864266 
1309.688411  	80.133625 
1310.652836  	80.271475 
1311.617260  	80.256828 
1312.581685  	80.027893 
1313.546109  	80.175622 
1314.510534  	80.390933 
1315.474958  	80.581676 
1316.439382  	80.523963 
1317.403807  	80.414407 
1318.368231  	80.390353 
1319.332656  	80.266891 
1320.297080  	80.499756 
1321.261505  	80.668177 
1322.225929  	80.731698 
1323.190354  	80.613453 
1324.154778  	80.548215 
1325.119203  	80.505055 
1326.083627  	80.430528 
1327.048051  	80.324206 
1328.012476  	80.257197 
1328.976900  	80.211370 
1329.941325  	80.153505 
1330.905749  	80.180867 
1331.870174  	80.240713 
1332.834598  	80.197039 
1333.799023  	80.150829 
1334.763447  	80.068326 
1335.727872  	79.741885 
1336.692296  	79.182583 
1337.656720  	78.996416 
1338.621145  	78.328784 
1339.585569  	77.609839 
1340.549994  	77.750832 
1341.514418  	78.728370 
1342.478843  	79.127740 
1343.443267  	79.034246 
1344.407692  	78.877348 
1345.372116  	78.746751 
1346.336541  	78.601412 
1347.300965  	78.418851 
1348.265389  	78.176283 
1349.229814  	77.850328 
1350.194238  	77.691253 
1351.158663  	77.570074 
1352.123087  	77.349428 
1353.087512  	77.129901 
1354.051936  	76.768672 
1355.016361  	76.303427 
1355.980785  	76.272909 
1356.945210  	76.164785 
1357.909634  	75.821317 
1358.874059  	75.617038 
1359.838483  	75.396694 
1360.802907  	74.661920 
1361.767332  	74.041459 
1362.731756  	73.119594 
1363.696181  	73.040659 
1364.660605  	73.942797 
1365.625030  	73.988094 
1366.589454  	73.796332 
1367.553879  	73.376386 
1368.518303  	72.764896 
1369.482728  	72.705433 
1370.447152  	73.016229 
1371.411576  	73.069967 
1372.376001  	73.035127 
1373.340425  	72.621958 
1374.304850  	72.552903 
1375.269274  	73.398437 
1376.233699  	74.491214 
1377.198123  	74.994599 
1378.162548  	75.188575 
1379.126972  	75.643856 
1380.091397  	76.107750 
1381.055821  	76.580676 
1382.020245  	76.876094 
1382.984670  	77.128318 
1383.949094  	77.363550 
1384.913519  	77.546842 
1385.877943  	77.315436 
1386.842368  	76.559400 
1387.806792  	76.670377 
1388.771217  	77.926078 
1389.735641  	78.496638 
1390.700066  	78.679710 
1391.664490  	78.949647 
1392.628914  	79.239125 
1393.593339  	78.894845 
1394.557763  	78.003132 
1395.522188  	78.120260 
1396.486612  	78.952773 
1397.451037  	79.031636 
1398.415461  	78.516493 
1399.379886  	78.485441 
1400.344310  	79.343695 
1401.308735  	79.710705 
1402.273159  	79.576292 
1403.237583  	79.284048 
1404.202008  	78.515936 
1405.166432  	77.582382 
1406.130857  	77.764340 
1407.095281  	77.698176 
1408.059706  	77.038780 
1409.024130  	76.142631 
1409.988555  	74.951726 
1410.952979  	73.615800 
1411.917404  	72.043802 
1412.881828  	70.697099 
1413.846252  	69.257571 
1414.810677  	67.801111 
1415.775101  	66.593842 
1416.739526  	66.134607 
1417.703950  	66.630734 
1418.668375  	67.248471 
1419.632799  	68.858884 
1420.597224  	71.849813 
1421.561648  	73.025338 
1422.526073  	73.690128 
1423.490497  	73.421862 
1424.454922  	73.802372 
1425.419346  	75.083774 
1426.383770  	75.614188 
1427.348195  	75.701031 
1428.312619  	75.473073 
1429.277044  	74.947115 
1430.241468  	74.543377 
1431.205893  	74.873560 
1432.170317  	74.695461 
1433.134742  	74.301433 
1434.099166  	74.266485 
1435.063591  	73.904506 
1436.028015  	72.595379 
1436.992439  	71.962582 
1437.956864  	73.390036 
1438.921288  	73.952853 
1439.885713  	74.111480 
1440.850137  	74.199953 
1441.814562  	74.285401 
1442.778986  	74.429603 
1443.743411  	74.477716 
1444.707835  	74.479078 
1445.672260  	74.440886 
1446.636684  	74.245068 
1447.601108  	73.486694 
1448.565533  	73.423969 
1449.529957  	74.009639 
1450.494382  	73.911156 
1451.458806  	73.223299 
1452.423231  	72.553202 
1453.387655  	72.504091 
1454.352080  	71.748921 
1455.316504  	70.393481 
1456.280929  	69.147185 
1457.245353  	68.126798 
1458.209777  	67.880867 
1459.174202  	68.079956 
1460.138626  	68.485937 
1461.103051  	68.289163 
1462.067475  	67.458418 
1463.031900  	66.634425 
1463.996324  	65.632255 
1464.960749  	65.035042 
1465.925173  	66.453680 
1466.889598  	67.831160 
1467.854022  	69.021211 
1468.818446  	69.997474 
1469.782871  	70.321709 
1470.747295  	69.711787 
1471.711720  	67.792360 
1472.676144  	65.839571 
1473.640569  	65.644251 
1474.604993  	66.466984 
1475.569418  	66.452979 
1476.533842  	66.857939 
1477.498267  	68.935052 
1478.462691  	70.473766 
1479.427116  	71.830187 
1480.391540  	72.933734 
1481.355964  	73.814461 
1482.320389  	75.472095 
1483.284813  	76.679689 
1484.249238  	77.393293 
1485.213662  	77.604423 
1486.178087  	77.261240 
1487.142511  	76.720560 
1488.106936  	76.820214 
1489.071360  	75.888440 
1490.035785  	74.482080 
1491.000209  	75.393017 
1491.964633  	76.626556 
1492.929058  	76.883850 
1493.893482  	76.590241 
1494.857907  	75.930837 
1495.822331  	74.645996 
1496.786756  	73.920871 
1497.751180  	74.112603 
1498.715605  	73.321549 
1499.680029  	73.205293 
1500.644454  	73.198794 
1501.608878  	72.470297 
1502.573302  	72.069196 
1503.537727  	71.803471 
1504.502151  	70.837265 
1505.466576  	68.865736 
1506.431000  	65.278830 
1507.395425  	63.728217 
1508.359849  	64.590152 
1509.324274  	65.134989 
1510.288698  	65.292188 
1511.253123  	65.443300 
1512.217547  	64.533188 
1513.181971  	64.200564 
1514.146396  	63.720879 
1515.110820  	62.182065 
1516.075245  	60.552572 
1517.039669  	58.735730 
1518.004094  	58.975655 
1518.968518  	58.993233 
1519.932943  	57.444017 
1520.897367  	54.691232 
1521.861792  	53.924075 
1522.826216  	53.953937 
1523.790640  	53.786764 
1524.755065  	52.638709 
1525.719489  	51.402410 
1526.683914  	50.901515 
1527.648338  	49.953293 
1528.612763  	49.461873 
1529.577187  	49.523918 
1530.541612  	49.190591 
1531.506036  	48.392654 
1532.470461  	47.801158 
1533.434885  	47.198512 
1534.399309  	48.037171 
1535.363734  	48.849934 
1536.328158  	49.479426 
1537.292583  	49.905610 
1538.257007  	49.393593 
1539.221432  	48.208931 
1540.185856  	49.786764 
1541.150281  	51.223930 
1542.114705  	51.810511 
1543.079130  	53.081051 
1544.043554  	53.621570 
1545.007979  	54.048616 
1545.972403  	56.013933 
1546.936827  	57.587141 
1547.901252  	58.345348 
1548.865676  	58.531074 
1549.830101  	57.996298 
1550.794525  	59.447448 
1551.758950  	60.996693 
1552.723374  	61.517781 
1553.687799  	61.224498 
1554.652223  	61.489621 
1555.616648  	63.015822 
1556.581072  	63.311979 
1557.545496  	62.463875 
1558.509921  	60.428292 
1559.474345  	60.606762 
1560.438770  	64.281886 
1561.403194  	66.783049 
1562.367619  	67.793616 
1563.332043  	68.492343 
1564.296468  	68.740172 
1565.260892  	69.288067 
1566.225317  	70.440643 
1567.189741  	71.120411 
1568.154165  	71.275351 
1569.118590  	70.547415 
1570.083014  	71.456576 
1571.047439  	73.276495 
1572.011863  	74.039404 
1572.976288  	74.532385 
1573.940712  	74.978753 
1574.905137  	74.947336 
1575.869561  	74.286738 
1576.833986  	74.756218 
1577.798410  	76.006489 
1578.762834  	76.799146 
1579.727259  	77.328096 
1580.691683  	77.638755 
1581.656108  	77.865655 
1582.620532  	77.992522 
1583.584957  	78.145109 
1584.549381  	78.246268 
1585.513806  	78.312543 
1586.478230  	78.297191 
1587.442655  	78.294688 
1588.407079  	78.185609 
1589.371503  	77.938340 
1590.335928  	77.672971 
1591.300352  	77.514603 
1592.264777  	77.213153 
1593.229201  	76.904359 
1594.193626  	76.272476 
1595.158050  	75.797190 
1596.122475  	75.366083 
1597.086899  	74.912587 
1598.051324  	74.396434 
1599.015748  	73.759888 
1599.980173  	72.956787 
1600.944597  	72.001328 
1601.909021  	71.000116 
1602.873446  	69.910122 
1603.837870  	68.868303 
1604.802295  	68.081806 
1605.766719  	67.041456 
1606.731144  	65.825877 
1607.695568  	64.726208 
1608.659993  	63.897586 
1609.624417  	62.725208 
1610.588842  	61.989109 
1611.553266  	61.028349 
1612.517690  	59.878015 
1613.482115  	58.649201 
1614.446539  	57.388427 
1615.410964  	55.820345 
1616.375388  	53.929964 
1617.339813  	52.367060 
1618.304237  	52.145851 
1619.268662  	51.303251 
1620.233086  	50.371790 
1621.197511  	49.382355 
1622.161935  	48.336800 
1623.126359  	46.896961 
1624.090784  	46.420828 
1625.055208  	46.258005 
1626.019633  	45.761686 
1626.984057  	44.890975 
1627.948482  	44.091043 
1628.912906  	43.853848 
1629.877331  	43.663332 
1630.841755  	43.338791 
1631.806180  	43.329325 
1632.770604  	43.450247 
1633.735028  	43.605200 
1634.699453  	43.143570 
1635.663877  	43.596663 
1636.628302  	45.577483 
1637.592726  	46.628698 
1638.557151  	48.396105 
1639.521575  	49.765494 
1640.486000  	50.977727 
1641.450424  	52.403613 
1642.414849  	53.684866 
1643.379273  	55.148594 
1644.343697  	56.320981 
1645.308122  	56.749493 
1646.272546  	57.271620 
1647.236971  	58.585322 
1648.201395  	60.330573 
1649.165820  	62.837477 
1650.130244  	64.239051 
1651.094669  	64.965874 
1652.059093  	64.672481 
1653.023518  	63.026305 
1653.987942  	65.382457 
1654.952366  	68.628081 
1655.916791  	70.681963 
1656.881215  	71.878150 
1657.845640  	73.059460 
1658.810064  	74.219293 
1659.774489  	75.205797 
1660.738913  	75.959628 
1661.703338  	76.372127 
1662.667762  	76.738401 
1663.632187  	78.345858 
1664.596611  	79.757531 
1665.561036  	80.716449 
1666.525460  	81.583519 
1667.489884  	81.945694 
1668.454309  	81.413219 
1669.418733  	81.579534 
1670.383158  	83.312191 
1671.347582  	83.684123 
1672.312007  	84.726476 
1673.276431  	85.872874 
1674.240856  	85.970171 
1675.205280  	85.249286 
1676.169705  	86.355989 
1677.134129  	87.672379 
1678.098553  	88.260471 
1679.062978  	88.261790 
1680.027402  	87.364092 
1680.991827  	87.944501 
1681.956251  	89.055322 
1682.920676  	88.341328 
1683.885100  	85.249417 
1684.849525  	85.599460 
1685.813949  	89.368701 
1686.778374  	90.487124 
1687.742798  	90.279072 
1688.707222  	89.980511 
1689.671647  	90.448051 
1690.636071  	90.824213 
1691.600496  	91.604335 
1692.564920  	91.845949 
1693.529345  	91.776271 
1694.493769  	91.287537 
1695.458194  	90.043132 
1696.422618  	89.106074 
1697.387043  	90.147416 
1698.351467  	90.597469 
1699.315891  	90.178856 
1700.280316  	87.692106 
1701.244740  	89.514080 
1702.209165  	90.885166 
1703.173589  	91.225556 
1704.138014  	90.761283 
1705.102438  	90.566239 
1706.066863  	90.579561 
1707.031287  	90.620174 
1707.995712  	91.526816 
1708.960136  	91.884654 
1709.924560  	91.415668 
1710.888985  	91.411023 
1711.853409  	91.878541 
1712.817834  	91.588502 
1713.782258  	90.681451 
1714.746683  	89.611697 
1715.711107  	89.729687 
1716.675532  	89.898629 
1717.639956  	88.443456 
1718.604381  	88.299767 
1719.568805  	90.515401 
1720.533230  	91.405109 
1721.497654  	91.493417 
1722.462078  	91.358914 
1723.426503  	90.938084 
1724.390927  	91.068673 
1725.355352  	91.459739 
1726.319776  	91.463878 
1727.284201  	91.441461 
1728.248625  	91.355491 
1729.213050  	90.618366 
1730.177474  	89.392053 
1731.141899  	90.198380 
1732.106323  	90.431253 
1733.070747  	89.153443 
1734.035172  	86.964080 
1734.999596  	88.696111 
1735.964021  	90.605465 
1736.928445  	91.065460 
1737.892870  	91.022880 
1738.857294  	90.799367 
1739.821719  	90.168004 
1740.786143  	91.043711 
1741.750568  	91.667333 
1742.714992  	90.961753 
1743.679416  	90.027737 
1744.643841  	90.886705 
1745.608265  	91.468569 
1746.572690  	91.232613 
1747.537114  	90.743719 
1748.501539  	90.421868 
1749.465963  	90.611403 
1750.430388  	90.955007 
1751.394812  	90.172717 
1752.359237  	91.402122 
1753.323661  	92.537059 
1754.288085  	92.981594 
1755.252510  	92.988924 
1756.216934  	92.315470 
1757.181359  	91.697574 
1758.145783  	92.384821 
1759.110208  	92.811329 
1760.074632  	93.020116 
1761.039057  	92.408203 
1762.003481  	91.527349 
1762.967906  	92.477784 
1763.932330  	93.157876 
1764.896754  	93.263226 
1765.861179  	93.309660 
1766.825603  	93.100053 
1767.790028  	92.159018 
1768.754452  	91.883161 
1769.718877  	92.879029 
1770.683301  	92.552301 
1771.647726  	91.484309 
1772.612150  	91.126363 
1773.576575  	92.264772 
1774.540999  	92.870916 
1775.505423  	92.498720 
1776.469848  	92.791702 
1777.434272  	93.467405 
1778.398697  	93.262693 
1779.363121  	92.933327 
1780.327546  	92.449405 
1781.291970  	92.381546 
1782.256395  	93.095236 
1783.220819  	93.420265 
1784.185244  	93.045772 
1785.149668  	92.558127 
1786.114093  	93.133239 
1787.078517  	93.528205 
1788.042941  	93.480376 
1789.007366  	93.400195 
1789.971790  	93.052582 
1790.936215  	92.126567 
1791.900639  	91.700884 
1792.865064  	91.742326 
1793.829488  	92.678998 
1794.793913  	93.061331 
1795.758337  	92.381090 
1796.722762  	92.472492 
1797.687186  	93.230573 
1798.651610  	93.208049 
1799.616035  	92.592210 
1800.580459  	92.631075 
1801.544884  	92.461747 
1802.509308  	92.307950 
1803.473733  	93.062858 
1804.438157  	93.549814 
1805.402582  	93.531942 
1806.367006  	93.487370 
1807.331431  	93.168601 
1808.295855  	93.082684 
1809.260279  	93.390895 
1810.224704  	92.940529 
1811.189128  	92.539981 
1812.153553  	92.897344 
1813.117977  	93.229006 
1814.082402  	93.606779 
1815.046826  	93.666152 
1816.011251  	93.683703 
1816.975675  	93.381636 
1817.940100  	93.189753 
1818.904524  	93.460972 
1819.868948  	93.590348 
1820.833373  	93.507534 
1821.797797  	93.442511 
1822.762222  	93.206742 
1823.726646  	93.200728 
1824.691071  	92.624835 
1825.655495  	91.993708 
1826.619920  	92.984972 
1827.584344  	93.372011 
1828.548769  	92.885791 
1829.513193  	91.806212 
1830.477617  	91.903959 
1831.442042  	93.083725 
1832.406466  	93.373920 
1833.370891  	93.194924 
1834.335315  	93.390511 
1835.299740  	93.603955 
1836.264164  	93.370267 
1837.228589  	92.886811 
1838.193013  	93.098648 
1839.157438  	93.455224 
1840.121862  	93.539836 
1841.086287  	93.494010 
1842.050711  	93.095546 
1843.015135  	92.741563 
1843.979560  	91.930090 
1844.943984  	91.790808 
1845.908409  	92.684792 
1846.872833  	92.979930 
1847.837258  	92.510021 
1848.801682  	92.761561 
1849.766107  	93.319182 
1850.730531  	93.567560 
1851.694956  	93.587799 
1852.659380  	93.575977 
1853.623804  	93.581632 
1854.588229  	93.591219 
1855.552653  	93.595233 
1856.517078  	93.538567 
1857.481502  	93.436306 
1858.445927  	93.326599 
1859.410351  	93.273749 
1860.374776  	93.308531 
1861.339200  	93.178518 
1862.303625  	93.258138 
1863.268049  	93.414453 
1864.232473  	93.438109 
1865.196898  	93.387203 
1866.161322  	93.051415 
1867.125747  	92.634128 
1868.090171  	92.087383 
1869.054596  	91.635096 
1870.019020  	92.077195 
1870.983445  	92.765676 
1871.947869  	93.266661 
1872.912294  	93.523264 
1873.876718  	93.563563 
1874.841142  	93.458781 
1875.805567  	93.485040 
1876.769991  	93.531554 
1877.734416  	93.555738 
1878.698840  	93.460704 
1879.663265  	93.365495 
1880.627689  	93.407383 
1881.592114  	93.405850 
1882.556538  	93.334812 
1883.520963  	93.416451 
1884.485387  	93.368407 
1885.449811  	93.245459 
1886.414236  	93.403254 
1887.378660  	93.511246 
1888.343085  	93.289160 
1889.307509  	92.537260 
1890.271934  	92.468250 
1891.236358  	93.224742 
1892.200783  	93.410395 
1893.165207  	93.451130 
1894.129632  	93.337721 
1895.094056  	92.881483 
1896.058480  	93.016481 
1897.022905  	93.460549 
1897.987329  	93.478713 
1898.951754  	93.486839 
1899.916178  	93.464217 
1900.880603  	93.481771 
1901.845027  	93.355739 
1902.809452  	93.485317 
1903.773876  	93.504305 
1904.738301  	93.466584 
1905.702725  	93.418738 
1906.667150  	93.409703 
1907.631574  	93.134991 
1908.595998  	93.029009 
1909.560423  	92.826558 
1910.524847  	92.817241 
1911.489272  	93.338323 
1912.453696  	93.521683 
1913.418121  	93.371111 
1914.382545  	93.301295 
1915.346970  	93.450633 
1916.311394  	93.426886 
1917.275819  	92.875077 
1918.240243  	92.224121 
1919.204667  	92.846616 
1920.169092  	93.266436 
1921.133516  	93.165096 
1922.097941  	92.666916 
1923.062365  	92.095681 
1924.026790  	92.929136 
1924.991214  	93.557408 
1925.955639  	93.501406 
1926.920063  	93.418900 
1927.884488  	93.489252 
1928.848912  	93.567222 
1929.813336  	93.653859 
1930.777761  	93.628808 
1931.742185  	93.487976 
1932.706610  	93.391984 
1933.671034  	93.518868 
1934.635459  	93.569419 
1935.599883  	93.615953 
1936.564308  	93.681613 
1937.528732  	93.618403 
1938.493157  	93.612393 
1939.457581  	93.653812 
1940.422005  	93.433744 
1941.386430  	93.128273 
1942.350854  	92.288649 
1943.315279  	92.341453 
1944.279703  	93.109583 
1945.244128  	93.221747 
1946.208552  	93.380888 
1947.172977  	93.546292 
1948.137401  	93.582690 
1949.101826  	93.655244 
1950.066250  	93.750732 
1951.030674  	93.710442 
1951.995099  	93.585841 
1952.959523  	93.677539 
1953.923948  	93.725807 
1954.888372  	93.647720 
1955.852797  	93.599633 
1956.817221  	93.903285 
1957.781646  	94.147231 
1958.746070  	93.950998 
1959.710495  	93.656752 
1960.674919  	93.593344 
1961.639344  	93.585290 
1962.603768  	93.566605 
1963.568192  	93.431389 
1964.532617  	93.604138 
1965.497041  	93.770575 
1966.461466  	93.467002 
1967.425890  	93.012107 
1968.390315  	93.598991 
1969.354739  	93.788597 
1970.319164  	93.521876 
1971.283588  	93.502797 
1972.248013  	93.666091 
1973.212437  	93.845025 
1974.176861  	93.598388 
1975.141286  	93.363036 
1976.105710  	93.768001 
1977.070135  	94.253903 
1978.034559  	94.116097 
1978.998984  	93.416957 
1979.963408  	92.988205 
1980.927833  	92.909443 
1981.892257  	93.092700 
1982.856682  	93.108361 
1983.821106  	93.212608 
1984.785530  	93.412158 
1985.749955  	93.415627 
1986.714379  	93.459644 
1987.678804  	93.306699 
1988.643228  	93.031350 
1989.607653  	93.433076 
1990.572077  	93.486939 
1991.536502  	93.008971 
1992.500926  	92.577501 
1993.465351  	92.973145 
1994.429775  	93.382464 
1995.394199  	93.460166 
1996.358624  	93.206555 
1997.323048  	93.115416 
1998.287473  	93.310226 
1999.251897  	93.808103 
2000.216322  	94.045406 
2001.180746  	94.089100 
2002.145171  	93.788631 
2003.109595  	93.736872 
2004.074020  	93.684713 
2005.038444  	93.841080 
2006.002868  	93.934396 
2006.967293  	93.903361 
2007.931717  	93.502913 
2008.896142  	93.508746 
2009.860566  	93.771365 
2010.824991  	93.690891 
2011.789415  	93.652634 
2012.753840  	93.899420 
2013.718264  	93.526485 
2014.682689  	93.383438 
2015.647113  	93.653604 
2016.611537  	93.336479 
2017.575962  	93.206141 
2018.540386  	93.444567 
2019.504811  	93.503345 
2020.469235  	93.979877 
2021.433660  	94.160677 
2022.398084  	93.926147 
2023.362509  	93.756975 
2024.326933  	93.713290 
2025.291358  	93.380676 
2026.255782  	93.217565 
2027.220207  	93.465727 
2028.184631  	93.658337 
2029.149055  	93.915803 
2030.113480  	93.981471 
2031.077904  	93.603427 
2032.042329  	93.385148 
2033.006753  	93.459154 
2033.971178  	93.730125 
2034.935602  	93.898133 
2035.900027  	93.962420 
2036.864451  	93.649905 
2037.828876  	93.674971 
2038.793300  	93.617919 
2039.757724  	93.190627 
2040.722149  	92.836129 
2041.686573  	92.681022 
2042.650998  	92.995977 
2043.615422  	93.111986 
2044.579847  	93.158007 
2045.544271  	93.477921 
2046.508696  	93.592809 
2047.473120  	93.385866 
2048.437545  	93.394520 
2049.401969  	93.601515 
2050.366393  	93.213789 
2051.330818  	93.125786 
2052.295242  	93.554352 
2053.259667  	93.659751 
2054.224091  	93.400518 
2055.188516  	93.257506 
2056.152940  	93.228603 
2057.117365  	93.113538 
2058.081789  	93.194209 
2059.046214  	93.321829 
2060.010638  	93.145852 
2060.975062  	93.075445 
2061.939487  	93.189703 
2062.903911  	93.136554 
2063.868336  	92.961816 
2064.832760  	92.965372 
2065.797185  	93.110925 
2066.761609  	93.169880 
2067.726034  	93.157013 
2068.690458  	93.208546 
2069.654883  	93.231632 
2070.619307  	93.310081 
2071.583731  	93.227774 
2072.548156  	93.227521 
2073.512580  	93.312466 
2074.477005  	93.211730 
2075.441429  	93.221692 
2076.405854  	93.159036 
2077.370278  	92.977877 
2078.334703  	92.939130 
2079.299127  	92.903035 
2080.263552  	93.012483 
2081.227976  	93.075104 
2082.192401  	93.036748 
2083.156825  	92.995803 
2084.121249  	92.989327 
2085.085674  	93.090532 
2086.050098  	93.218139 
2087.014523  	93.146343 
2087.978947  	93.153368 
2088.943372  	93.100443 
2089.907796  	92.986556 
2090.872221  	93.002546 
2091.836645  	93.301466 
2092.801070  	93.367939 
2093.765494  	93.308339 
2094.729918  	93.339349 
2095.694343  	93.290947 
2096.658767  	93.121422 
2097.623192  	93.103637 
2098.587616  	93.170491 
2099.552041  	93.159292 
2100.516465  	93.162827 
2101.480890  	93.280018 
2102.445314  	93.185522 
2103.409739  	93.104123 
2104.374163  	93.081449 
2105.338587  	93.049426 
2106.303012  	93.002546 
2107.267436  	93.088446 
2108.231861  	92.998124 
2109.196285  	92.950795 
2110.160710  	93.109572 
2111.125134  	93.269352 
2112.089559  	93.115874 
2113.053983  	93.089209 
2114.018408  	93.092563 
2114.982832  	93.048564 
2115.947256  	92.995220 
2116.911681  	93.163641 
2117.876105  	93.347337 
2118.840530  	93.330077 
2119.804954  	93.305819 
2120.769379  	93.356626 
2121.733803  	93.217934 
2122.698228  	93.303335 
2123.662652  	93.331207 
2124.627077  	93.247436 
2125.591501  	93.465382 
2126.555925  	93.680390 
2127.520350  	93.573025 
2128.484774  	93.567221 
2129.449199  	93.710116 
2130.413623  	93.731987 
2131.378048  	93.749771 
2132.342472  	93.906480 
2133.306897  	93.840468 
2134.271321  	93.624836 
2135.235746  	93.378943 
2136.200170  	93.269088 
2137.164594  	93.438249 
2138.129019  	93.741644 
2139.093443  	93.750231 
2140.057868  	93.694589 
2141.022292  	93.619402 
2141.986717  	93.450547 
2142.951141  	93.444174 
2143.915566  	93.697329 
2144.879990  	93.842346 
2145.844415  	93.761316 
2146.808839  	93.676302 
2147.773264  	93.813320 
2148.737688  	93.959753 
2149.702112  	94.018746 
2150.666537  	93.771712 
2151.630961  	93.581418 
2152.595386  	93.624373 
2153.559810  	93.865113 
2154.524235  	94.202708 
2155.488659  	94.595628 
2156.453084  	94.779035 
2157.417508  	94.545952 
2158.381933  	94.228070 
2159.346357  	93.517411 
2160.310781  	93.054261 
2161.275206  	93.127965 
2162.239630  	93.145794 
2163.204055  	93.340058 
2164.168479  	93.198721 
2165.132904  	92.955512 
2166.097328  	92.861500 
2167.061753  	93.241258 
2168.026177  	93.406595 
2168.990602  	93.346769 
2169.955026  	93.290429 
2170.919450  	93.556615 
2171.883875  	93.370500 
2172.848299  	93.258598 
2173.812724  	93.281997 
2174.777148  	93.455610 
2175.741573  	93.360640 
2176.705997  	93.218465 
2177.670422  	93.147305 
2178.634846  	93.430564 
2179.599271  	93.457475 
2180.563695  	93.585919 
2181.528119  	93.674131 
2182.492544  	93.333912 
2183.456968  	93.021664 
2184.421393  	92.944831 
2185.385817  	93.106634 
2186.350242  	93.285926 
2187.314666  	93.050107 
2188.279091  	92.961227 
2189.243515  	92.962537 
2190.207940  	93.117453 
2191.172364  	93.175900 
2192.136788  	93.241389 
2193.101213  	93.373002 
2194.065637  	93.376134 
2195.030062  	93.128934 
2195.994486  	92.799825 
2196.958911  	92.824801 
2197.923335  	93.173268 
2198.887760  	93.203885 
2199.852184  	93.234099 
2200.816609  	93.221510 
2201.781033  	93.179696 
2202.745458  	93.073004 
2203.709882  	93.154235 
2204.674306  	93.074565 
2205.638731  	92.949672 
2206.603155  	93.042817 
2207.567580  	93.199599 
2208.532004  	93.228041 
2209.496429  	93.363748 
2210.460853  	93.183241 
2211.425278  	93.160825 
2212.389702  	93.120352 
2213.354127  	92.994985 
2214.318551  	92.945588 
2215.282975  	93.061435 
2216.247400  	93.117970 
2217.211824  	93.174485 
2218.176249  	93.124312 
2219.140673  	93.056342 
2220.105098  	92.994751 
2221.069522  	93.183792 
2222.033947  	93.244700 
2222.998371  	93.184245 
2223.962796  	93.162886 
2224.927220  	93.342192 
2225.891644  	93.139380 
2226.856069  	92.964736 
2227.820493  	92.995465 
2228.784918  	93.220500 
2229.749342  	93.170260 
2230.713767  	93.211086 
2231.678191  	93.105001 
2232.642616  	92.944570 
2233.607040  	93.102103 
2234.571465  	93.221381 
2235.535889  	93.069810 
2236.500313  	92.932885 
2237.464738  	92.949787 
2238.429162  	93.106641 
2239.393587  	93.174187 
2240.358011  	93.215529 
2241.322436  	93.313634 
2242.286860  	93.276527 
2243.251285  	93.209626 
2244.215709  	93.156582 
2245.180134  	93.006835 
2246.144558  	92.973084 
2247.108982  	93.037628 
2248.073407  	93.087159 
2249.037831  	93.099091 
2250.002256  	93.062505 
2250.966680  	93.080992 
2251.931105  	93.098578 
2252.895529  	93.001476 
2253.859954  	93.004711 
2254.824378  	92.965497 
2255.788803  	92.962045 
2256.753227  	93.038922 
2257.717651  	93.151870 
2258.682076  	93.001941 
2259.646500  	92.923381 
2260.610925  	92.884097 
2261.575349  	92.820869 
2262.539774  	92.832808 
2263.504198  	92.933863 
2264.468623  	92.920743 
2265.433047  	92.985815 
2266.397472  	93.063354 
2267.361896  	93.057287 
2268.326321  	92.948084 
2269.290745  	92.909401 
2270.255169  	92.983688 
2271.219594  	93.065199 
2272.184018  	92.965138 
2273.148443  	92.874034 
2274.112867  	92.933589 
2275.077292  	92.997914 
2276.041716  	92.877596 
2277.006141  	92.838594 
2277.970565  	92.884278 
2278.934990  	92.909387 
2279.899414  	92.859060 
2280.863838  	92.847770 
2281.828263  	92.805192 
2282.792687  	92.783786 
2283.757112  	92.755206 
2284.721536  	92.731598 
2285.685961  	92.731692 
2286.650385  	92.807414 
2287.614810  	92.786394 
2288.579234  	92.666563 
2289.543659  	92.554665 
2290.508083  	92.670848 
2291.472507  	92.679254 
2292.436932  	92.683469 
2293.401356  	92.639486 
2294.365781  	92.566448 
2295.330205  	92.541430 
2296.294630  	92.483958 
2297.259054  	92.470913 
2298.223479  	92.415693 
2299.187903  	92.440913 
2300.152328  	92.492677 
2301.116752  	92.463277 
2302.081176  	92.518137 
2303.045601  	92.408130 
2304.010025  	92.457226 
2304.974450  	92.298413 
2305.938874  	92.331127 
2306.903299  	92.274636 
2307.867723  	92.298339 
2308.832148  	92.140353 
2309.796572  	92.170212 
2310.760997  	92.174507 
2311.725421  	92.156421 
2312.689845  	92.245920 
2313.654270  	92.211990 
2314.618694  	92.209978 
2315.583119  	92.282677 
2316.547543  	92.389477 
2317.511968  	92.411674 
2318.476392  	92.444963 
2319.440817  	92.407537 
2320.405241  	92.292737 
2321.369666  	92.306299 
2322.334090  	92.422267 
2323.298515  	92.381433 
2324.262939  	92.300482 
2325.227363  	92.671761 
2326.191788  	93.103620 
2327.156212  	93.286727 
2328.120637  	93.265771 
2329.085061  	93.302526 
2330.049486  	93.395745 
2331.013910  	93.466623 
2331.978335  	93.575195 
2332.942759  	93.761561 
2333.907184  	93.875250 
2334.871608  	93.919903 
2335.836032  	94.062061 
2336.800457  	94.140315 
2337.764881  	94.051644 
2338.729306  	94.063600 
2339.693730  	93.997553 
2340.658155  	94.074484 
2341.622579  	94.202620 
2342.587004  	94.150299 
2343.551428  	93.961486 
2344.515853  	93.791768 
2345.480277  	93.637536 
2346.444701  	93.402597 
2347.409126  	93.169739 
2348.373550  	92.904307 
2349.337975  	92.791881 
2350.302399  	93.008025 
2351.266824  	93.395515 
2352.231248  	93.726086 
2353.195673  	93.852947 
2354.160097  	93.919375 
2355.124522  	94.037926 
2356.088946  	94.307736 
2357.053370  	94.419005 
2358.017795  	94.433992 
2358.982219  	94.445762 
2359.946644  	94.704893 
2360.911068  	94.824926 
2361.875493  	94.770125 
2362.839917  	94.620906 
2363.804342  	94.647453 
2364.768766  	94.638123 
2365.733191  	94.555422 
2366.697615  	94.317880 
2367.662039  	94.127940 
2368.626464  	93.925658 
2369.590888  	93.728534 
2370.555313  	93.530634 
2371.519737  	93.381977 
2372.484162  	93.262618 
2373.448586  	93.187643 
2374.413011  	93.021068 
2375.377435  	92.837859 
2376.341860  	92.688230 
2377.306284  	92.587658 
2378.270708  	92.535496 
2379.235133  	92.451948 
2380.199557  	92.483734 
2381.163982  	92.582723 
2382.128406  	92.707646 
2383.092831  	92.785692 
2384.057255  	92.784244 
2385.021680  	92.848096 
2385.986104  	92.943518 
2386.950529  	92.988668 
2387.914953  	93.021190 
2388.879378  	93.070374 
2389.843802  	93.114079 
2390.808226  	93.129279 
2391.772651  	93.108537 
2392.737075  	93.144633 
2393.701500  	93.183022 
2394.665924  	93.177218 
2395.630349  	93.108086 
2396.594773  	93.080817 
2397.559198  	93.053566 
2398.523622  	93.078599 
2399.488047  	93.136287 
2400.452471  	93.120979 
2401.416895  	93.086791 
2402.381320  	93.111162 
2403.345744  	93.154635 
2404.310169  	93.147964 
2405.274593  	93.084510 
2406.239018  	93.079696 
2407.203442  	93.096992 
2408.167867  	93.077590 
2409.132291  	93.081187 
2410.096716  	93.071624 
2411.061140  	93.030218 
2412.025564  	93.032076 
2412.989989  	93.037888 
2413.954413  	93.051026 
2414.918838  	93.077687 
2415.883262  	93.082803 
2416.847687  	93.035961 
2417.812111  	93.060160 
2418.776536  	93.057052 
2419.740960  	92.979809 
2420.705385  	92.983122 
2421.669809  	92.958867 
2422.634233  	92.992865 
2423.598658  	93.006161 
2424.563082  	93.004485 
2425.527507  	93.066177 
2426.491931  	93.055458 
2427.456356  	93.002042 
2428.420780  	93.005996 
2429.385205  	93.004633 
2430.349629  	93.051079 
2431.314054  	93.039520 
2432.278478  	93.016298 
2433.242902  	93.042449 
2434.207327  	93.028554 
2435.171751  	93.057156 
2436.136176  	93.104599 
2437.100600  	93.118115 
2438.065025  	93.046899 
2439.029449  	93.018584 
2439.993874  	93.004034 
2440.958298  	92.995805 
2441.922723  	92.988552 
2442.887147  	92.973443 
2443.851572  	93.006667 
2444.815996  	93.007861 
2445.780420  	92.931486 
2446.744845  	92.881648 
2447.709269  	92.921681 
2448.673694  	92.987639 
2449.638118  	92.986404 
2450.602543  	92.896338 
2451.566967  	92.821503 
2452.531392  	92.861745 
2453.495816  	92.891665 
2454.460241  	92.940612 
2455.424665  	92.958877 
2456.389089  	92.935512 
2457.353514  	92.910185 
2458.317938  	92.928476 
2459.282363  	92.917611 
2460.246787  	92.917380 
2461.211212  	92.900415 
2462.175636  	92.901465 
2463.140061  	92.903581 
2464.104485  	92.883746 
2465.068910  	92.902255 
2466.033334  	92.902100 
2466.997758  	92.859226 
2467.962183  	92.901657 
2468.926607  	92.895052 
2469.891032  	92.827901 
2470.855456  	92.840074 
2471.819881  	92.913129 
2472.784305  	92.938683 
2473.748730  	92.909198 
2474.713154  	92.917337 
2475.677579  	92.903427 
2476.642003  	92.888039 
2477.606427  	92.904491 
2478.570852  	92.919203 
2479.535276  	92.930702 
2480.499701  	92.906621 
2481.464125  	92.907212 
2482.428550  	92.949038 
2483.392974  	92.950969 
2484.357399  	92.943799 
2485.321823  	92.888455 
2486.286248  	92.801325 
2487.250672  	92.832054 
2488.215096  	92.907397 
2489.179521  	92.885719 
2490.143945  	92.830095 
2491.108370  	92.808640 
2492.072794  	92.826068 
2493.037219  	92.887917 
2494.001643  	92.919576 
2494.966068  	92.926453 
2495.930492  	92.968679 
2496.894917  	92.932331 
2497.859341  	92.867615 
2498.823765  	92.866336 
2499.788190  	92.884549 
2500.752614  	92.947854 
2501.717039  	92.940690 
2502.681463  	92.907126 
2503.645888  	92.851481 
2504.610312  	92.823764 
2505.574737  	92.811603 
2506.539161  	92.850291 
2507.503586  	92.931481 
2508.468010  	92.974773 
2509.432435  	92.883813 
2510.396859  	92.869479 
2511.361283  	92.929515 
2512.325708  	92.895736 
2513.290132  	92.851911 
2514.254557  	92.890767 
2515.218981  	92.854870 
2516.183406  	92.862259 
2517.147830  	92.882740 
2518.112255  	92.817477 
2519.076679  	92.797755 
2520.041104  	92.824540 
2521.005528  	92.807402 
2521.969952  	92.756831 
2522.934377  	92.760726 
2523.898801  	92.809256 
2524.863226  	92.857962 
2525.827650  	92.862258 
2526.792075  	92.880064 
2527.756499  	92.862136 
2528.720924  	92.826126 
2529.685348  	92.775909 
2530.649773  	92.774014 
2531.614197  	92.773302 
2532.578621  	92.816469 
2533.543046  	92.863518 
2534.507470  	92.827620 
2535.471895  	92.803674 
2536.436319  	92.780331 
2537.400744  	92.777156 
2538.365168  	92.684606 
2539.329593  	92.674603 
2540.294017  	92.724382 
2541.258442  	92.730259 
2542.222866  	92.739954 
2543.187290  	92.804804 
2544.151715  	92.827872 
2545.116139  	92.765726 
2546.080564  	92.704971 
2547.044988  	92.682586 
2548.009413  	92.640771 
2548.973837  	92.631132 
2549.938262  	92.619761 
2550.902686  	92.654836 
2551.867111  	92.727954 
2552.831535  	92.753303 
2553.795959  	92.701088 
2554.760384  	92.659259 
2555.724808  	92.596960 
2556.689233  	92.568557 
2557.653657  	92.574398 
2558.618082  	92.608916 
2559.582506  	92.699004 
2560.546931  	92.681024 
2561.511355  	92.616323 
2562.475780  	92.614819 
2563.440204  	92.641800 
2564.404629  	92.712340 
2565.369053  	92.708231 
2566.333477  	92.677445 
2567.297902  	92.676232 
2568.262326  	92.700715 
2569.226751  	92.578551 
2570.191175  	92.508171 
2571.155600  	92.579750 
2572.120024  	92.625862 
2573.084449  	92.618289 
2574.048873  	92.572081 
2575.013298  	92.482313 
2575.977722  	92.480377 
2576.942146  	92.533516 
2577.906571  	92.532432 
2578.870995  	92.510518 
2579.835420  	92.496339 
2580.799844  	92.458095 
2581.764269  	92.410447 
2582.728693  	92.482788 
2583.693118  	92.473496 
2584.657542  	92.427511 
2585.621967  	92.483371 
2586.586391  	92.462093 
2587.550815  	92.430871 
2588.515240  	92.386469 
2589.479664  	92.345233 
2590.444089  	92.377236 
2591.408513  	92.407273 
2592.372938  	92.417464 
2593.337362  	92.410874 
2594.301787  	92.350140 
2595.266211  	92.333685 
2596.230636  	92.334559 
2597.195060  	92.354950 
2598.159484  	92.374709 
2599.123909  	92.432232 
2600.088333  	92.451234 
2601.052758  	92.393262 
2602.017182  	92.319042 
2602.981607  	92.323713 
2603.946031  	92.361572 
2604.910456  	92.376242 
2605.874880  	92.404690 
2606.839305  	92.413344 
2607.803729  	92.404604 
2608.768153  	92.396181 
2609.732578  	92.349772 
2610.697002  	92.327063 
2611.661427  	92.338073 
2612.625851  	92.364369 
2613.590276  	92.383235 
2614.554700  	92.368013 
2615.519125  	92.355405 
2616.483549  	92.356474 
2617.447974  	92.321701 
2618.412398  	92.348408 
2619.376822  	92.352311 
2620.341247  	92.342512 
2621.305671  	92.352534 
2622.270096  	92.369152 
2623.234520  	92.365208 
2624.198945  	92.354512 
2625.163369  	92.391935 
2626.127794  	92.386839 
2627.092218  	92.355561 
2628.056643  	92.325968 
2629.021067  	92.285263 
2629.985492  	92.280826 
2630.949916  	92.353885 
2631.914340  	92.374144 
2632.878765  	92.324340 
2633.843189  	92.309439 
2634.807614  	92.302827 
2635.772038  	92.310661 
2636.736463  	92.295588 
2637.700887  	92.316032 
2638.665312  	92.322784 
2639.629736  	92.302101 
2640.594161  	92.297588 
2641.558585  	92.301005 
2642.523009  	92.264901 
2643.487434  	92.266755 
2644.451858  	92.287665 
2645.416283  	92.264069 
2646.380707  	92.242430 
2647.345132  	92.251342 
2648.309556  	92.272095 
2649.273981  	92.271815 
2650.238405  	92.285275 
2651.202830  	92.292860 
2652.167254  	92.242654 
2653.131678  	92.231857 
2654.096103  	92.218515 
2655.060527  	92.210950 
2656.024952  	92.224813 
2656.989376  	92.207809 
2657.953801  	92.182112 
2658.918225  	92.201337 
2659.882650  	92.237289 
2660.847074  	92.243813 
2661.811499  	92.233077 
2662.775923  	92.238013 
2663.740347  	92.272612 
2664.704772  	92.275361 
2665.669196  	92.298205 
2666.633621  	92.297588 
2667.598045  	92.296597 
2668.562470  	92.291607 
2669.526894  	92.258966 
2670.491319  	92.255614 
2671.455743  	92.281434 
2672.420168  	92.290478 
2673.384592  	92.267751 
2674.349016  	92.257045 
2675.313441  	92.259782 
2676.277865  	92.249040 
2677.242290  	92.240377 
2678.206714  	92.244708 
2679.171139  	92.222945 
2680.135563  	92.211566 
2681.099988  	92.243568 
2682.064412  	92.256805 
2683.028837  	92.236732 
2683.993261  	92.211746 
2684.957686  	92.198076 
2685.922110  	92.209052 
2686.886534  	92.184569 
2687.850959  	92.149814 
2688.815383  	92.152673 
2689.779808  	92.163476 
2690.744232  	92.152410 
2691.708657  	92.166902 
2692.673081  	92.176402 
2693.637506  	92.162376 
2694.601930  	92.154792 
2695.566355  	92.159758 
2696.530779  	92.156153 
2697.495203  	92.166747 
2698.459628  	92.168548 
2699.424052  	92.152112 
2700.388477  	92.138942 
2701.352901  	92.108336 
2702.317326  	92.083681 
2703.281750  	92.106209 
2704.246175  	92.112834 
2705.210599  	92.113031 
2706.175024  	92.125036 
2707.139448  	92.118415 
2708.103872  	92.081947 
2709.068297  	92.116593 
2710.032721  	92.119795 
2710.997146  	92.093155 
2711.961570  	92.089325 
2712.925995  	92.059906 
2713.890419  	92.024589 
2714.854844  	92.041888 
2715.819268  	92.066741 
2716.783693  	92.057025 
2717.748117  	92.020692 
2718.712541  	92.011620 
2719.676966  	92.008937 
2720.641390  	92.014609 
2721.605815  	92.010254 
2722.570239  	91.986640 
2723.534664  	91.943431 
2724.499088  	91.922053 
2725.463513  	91.898517 
2726.427937  	91.889874 
2727.392362  	91.877733 
2728.356786  	91.856841 
2729.321210  	91.826216 
2730.285635  	91.822029 
2731.250059  	91.795043 
2732.214484  	91.769683 
2733.178908  	91.751997 
2734.143333  	91.735977 
2735.107757  	91.713408 
2736.072182  	91.709778 
2737.036606  	91.700175 
2738.001031  	91.662686 
2738.965455  	91.622979 
2739.929879  	91.626152 
2740.894304  	91.633423 
2741.858728  	91.617536 
2742.823153  	91.581727 
2743.787577  	91.577878 
2744.752002  	91.564476 
2745.716426  	91.546745 
2746.680851  	91.537388 
2747.645275  	91.527970 
2748.609700  	91.511823 
2749.574124  	91.481691 
2750.538549  	91.476818 
2751.502973  	91.450257 
2752.467397  	91.440231 
2753.431822  	91.457311 
2754.396246  	91.442289 
2755.360671  	91.437675 
2756.325095  	91.461967 
2757.289520  	91.452594 
2758.253944  	91.447480 
2759.218369  	91.446886 
2760.182793  	91.425095 
2761.147218  	91.414257 
2762.111642  	91.418865 
2763.076066  	91.408455 
2764.040491  	91.376129 
2765.004915  	91.342627 
2765.969340  	91.345305 
2766.933764  	91.360373 
2767.898189  	91.339348 
2768.862613  	91.327674 
2769.827038  	91.320575 
2770.791462  	91.309477 
2771.755887  	91.276130 
2772.720311  	91.262692 
2773.684735  	91.255238 
2774.649160  	91.239626 
2775.613584  	91.240180 
2776.578009  	91.230027 
2777.542433  	91.191911 
2778.506858  	91.162494 
2779.471282  	91.166623 
2780.435707  	91.167414 
2781.400131  	91.147567 
2782.364556  	91.115639 
2783.328980  	91.097326 
2784.293404  	91.087541 
2785.257829  	91.100425 
2786.222253  	91.106372 
2787.186678  	91.105110 
2788.151102  	91.075416 
2789.115527  	91.055866 
2790.079951  	91.023504 
2791.044376  	90.994703 
2792.008800  	90.949287 
2792.973225  	90.898612 
2793.937649  	90.878405 
2794.902073  	90.832478 
2795.866498  	90.804442 
2796.830922  	90.787687 
2797.795347  	90.781887 
2798.759771  	90.763441 
2799.724196  	90.711550 
2800.688620  	90.656795 
2801.653045  	90.612720 
2802.617469  	90.566817 
2803.581894  	90.543081 
2804.546318  	90.525722 
2805.510743  	90.478453 
2806.475167  	90.417240 
2807.439591  	90.390509 
2808.404016  	90.371964 
2809.368440  	90.362072 
2810.332865  	90.322959 
2811.297289  	90.230587 
2812.261714  	90.149690 
2813.226138  	90.121440 
2814.190563  	90.080575 
2815.154987  	90.084876 
2816.119412  	90.031063 
2817.083836  	89.931042 
2818.048260  	89.850697 
2819.012685  	89.785041 
2819.977109  	89.729822 
2820.941534  	89.655710 
2821.905958  	89.580982 
2822.870383  	89.511344 
2823.834807  	89.480370 
2824.799232  	89.410496 
2825.763656  	89.373176 
2826.728081  	89.341468 
2827.692505  	89.273236 
2828.656929  	89.207182 
2829.621354  	89.144980 
2830.585778  	89.089080 
2831.550203  	89.013311 
2832.514627  	88.912190 
2833.479052  	88.823611 
2834.443476  	88.733504 
2835.407901  	88.614255 
2836.372325  	88.463905 
2837.336750  	88.289986 
2838.301174  	88.064330 
2839.265598  	87.822807 
2840.230023  	87.573171 
2841.194447  	87.257803 
2842.158872  	86.862895 
2843.123296  	86.410526 
2844.087721  	85.902558 
2845.052145  	85.279352 
2846.016570  	84.573379 
2846.980994  	83.795762 
2847.945419  	82.953300 
2848.909843  	82.086211 
2849.874267  	81.284399 
2850.838692  	80.643620 
2851.803116  	80.114467 
2852.767541  	79.631077 
2853.731965  	79.212234 
2854.696390  	78.816109 
2855.660814  	78.446978 
2856.625239  	78.161273 
2857.589663  	77.925447 
2858.554088  	77.785938 
2859.518512  	77.763778 
2860.482936  	77.810634 
2861.447361  	77.912986 
2862.411785  	78.123476 
2863.376210  	78.368466 
2864.340634  	78.609563 
2865.305059  	78.872884 
2866.269483  	79.135083 
2867.233908  	79.344564 
2868.198332  	79.514755 
2869.162757  	79.658600 
2870.127181  	79.799331 
2871.091606  	79.892050 
2872.056030  	80.018722 
2873.020454  	80.227691 
2873.984879  	80.442134 
2874.949303  	80.654514 
2875.913728  	80.928238 
2876.878152  	81.279509 
2877.842577  	81.615367 
2878.807001  	81.979805 
2879.771426  	82.388246 
2880.735850  	82.762526 
2881.700275  	83.124407 
2882.664699  	83.453511 
2883.629123  	83.743528 
2884.593548  	84.011553 
2885.557972  	84.199837 
2886.522397  	84.319934 
2887.486821  	84.410562 
2888.451246  	84.438311 
2889.415670  	84.437517 
2890.380095  	84.383958 
2891.344519  	84.303533 
2892.308944  	84.187022 
2893.273368  	84.027665 
2894.237792  	83.843176 
2895.202217  	83.587640 
2896.166641  	83.349207 
2897.131066  	83.103789 
2898.095490  	82.788727 
2899.059915  	82.467736 
2900.024339  	82.135824 
2900.988764  	81.797268 
2901.953188  	81.459800 
2902.917613  	81.078089 
2903.882037  	80.700697 
2904.846461  	80.363024 
2905.810886  	79.995585 
2906.775310  	79.645484 
2907.739735  	79.358609 
2908.704159  	79.051410 
2909.668584  	78.728772 
2910.633008  	78.357396 
2911.597433  	78.009993 
2912.561857  	77.648013 
2913.526282  	77.231430 
2914.490706  	76.754761 
2915.455130  	76.247472 
2916.419555  	75.780027 
2917.383979  	75.342442 
2918.348404  	74.925967 
2919.312828  	74.570230 
2920.277253  	74.194186 
2921.241677  	73.853143 
2922.206102  	73.549414 
2923.170526  	73.230095 
2924.134951  	72.969796 
2925.099375  	72.679221 
2926.063800  	72.349545 
2927.028224  	72.046483 
2927.992648  	71.747744 
2928.957073  	71.455303 
2929.921497  	71.179707 
2930.885922  	70.974838 
2931.850346  	70.842683 
2932.814771  	70.802066 
2933.779195  	70.861356 
2934.743620  	70.970262 
2935.708044  	71.207951 
2936.672469  	71.554370 
2937.636893  	71.995298 
2938.601317  	72.498674 
2939.565742  	73.079779 
2940.530166  	73.683440 
2941.494591  	74.253738 
2942.459015  	74.800480 
2943.423440  	75.298737 
2944.387864  	75.747422 
2945.352289  	76.240999 
2946.316713  	76.843368 
2947.281138  	77.507499 
2948.245562  	78.232994 
2949.209986  	78.980810 
2950.174411  	79.689895 
2951.138835  	80.416469 
2952.103260  	81.136857 
2953.067684  	81.817814 
2954.032109  	82.464396 
2954.996533  	83.039050 
2955.960958  	83.575212 
2956.925382  	84.118300 
2957.889807  	84.608639 
2958.854231  	85.039449 
2959.818655  	85.426744 
2960.783080  	85.777215 
2961.747504  	86.089085 
2962.711929  	86.345796 
2963.676353  	86.587063 
2964.640778  	86.836261 
2965.605202  	87.108570 
2966.569627  	87.376468 
2967.534051  	87.672957 
2968.498476  	87.992724 
2969.462900  	88.266346 
2970.427324  	88.501900 
2971.391749  	88.748066 
2972.356173  	88.976320 
2973.320598  	89.193461 
2974.285022  	89.388400 
2975.249447  	89.550529 
2976.213871  	89.742959 
2977.178296  	89.923988 
2978.142720  	90.055904 
2979.107145  	90.183485 
2980.071569  	90.355528 
2981.035993  	90.472311 
2982.000418  	90.591668 
2982.964842  	90.719397 
2983.929267  	90.795978 
2984.893691  	90.876234 
2985.858116  	90.955474 
2986.822540  	91.033988 
2987.786965  	91.079935 
2988.751389  	91.170132 
2989.715814  	91.262599 
2990.680238  	91.291661 
2991.644663  	91.280846 
2992.609087  	91.310960 
2993.573511  	91.355239 
2994.537936  	91.389733 
2995.502360  	91.452762 
2996.466785  	91.460608 
2997.431209  	91.465268 
2998.395634  	91.482499 
2999.360058  	91.484426 
3000.324483  	91.547720 
3001.288907  	91.566190 
3002.253332  	91.541595 
3003.217756  	91.509251 
3004.182180  	91.444871 
3005.146605  	91.408317 
3006.111029  	91.464936 
3007.075454  	91.493423 
3008.039878  	91.466304 
3009.004303  	91.476264 
3009.968727  	91.467459 
3010.933152  	91.433918 
3011.897576  	91.379504 
3012.862001  	91.301401 
3013.826425  	91.392356 
3014.790849  	91.451081 
3015.755274  	91.383614 
3016.719698  	91.374590 
3017.684123  	91.408096 
3018.648547  	91.337695 
3019.612972  	91.264205 
3020.577396  	91.277105 
3021.541821  	91.238946 
3022.506245  	91.147756 
3023.470670  	91.120563 
3024.435094  	91.116221 
3025.399518  	91.036324 
3026.363943  	90.980195 
3027.328367  	91.010379 
3028.292792  	90.973794 
3029.257216  	90.914710 
3030.221641  	90.801887 
3031.186065  	90.626633 
3032.150490  	90.526506 
3033.114914  	90.580131 
3034.079339  	90.553842 
3035.043763  	90.515100 
3036.008187  	90.484851 
3036.972612  	90.419149 
3037.937036  	90.325501 
3038.901461  	90.225772 
3039.865885  	90.173568 
3040.830310  	90.132737 
3041.794734  	90.038652 
3042.759159  	89.906267 
3043.723583  	89.832937 
3044.688008  	89.772911 
3045.652432  	89.671961 
3046.616857  	89.534400 
3047.581281  	89.377613 
3048.545705  	89.203487 
3049.510130  	89.075479 
3050.474554  	89.042746 
3051.438979  	89.015681 
3052.403403  	88.889503 
3053.367828  	88.720298 
3054.332252  	88.619264 
3055.296677  	88.528784 
3056.261101  	88.337990 
3057.225526  	88.252086 
3058.189950  	88.277718 
3059.154374  	88.235793 
3060.118799  	88.203535 
3061.083223  	88.167362 
3062.047648  	88.158191 
3063.012072  	88.074276 
3063.976497  	87.934478 
3064.940921  	87.901801 
3065.905346  	87.991309 
3066.869770  	87.981218 
3067.834195  	87.959583 
3068.798619  	87.964753 
3069.763043  	87.951164 
3070.727468  	87.957835 
3071.691892  	88.016500 
3072.656317  	87.980453 
3073.620741  	87.919920 
3074.585166  	87.937654 
3075.549590  	87.991779 
3076.514015  	87.987653 
3077.478439  	87.988563 
3078.442864  	88.009872 
3079.407288  	87.999690 
3080.371712  	87.984933 
3081.336137  	88.019765 
3082.300561  	88.044115 
3083.264986  	88.122158 
3084.229410  	88.207307 
3085.193835  	88.225426 
3086.158259  	88.237783 
3087.122684  	88.246613 
3088.087108  	88.250645 
3089.051533  	88.313952 
3090.015957  	88.346807 
3090.980381  	88.420913 
3091.944806  	88.472589 
3092.909230  	88.513145 
3093.873655  	88.541838 
3094.838079  	88.566435 
3095.802504  	88.638848 
3096.766928  	88.752667 
3097.731353  	88.843940 
3098.695777  	88.919031 
3099.660202  	88.940386 
3100.624626  	88.976612 
3101.589050  	88.972010 
3102.553475  	89.020382 
3103.517899  	89.110614 
3104.482324  	89.221703 
3105.446748  	89.296226 
3106.411173  	89.356564 
3107.375597  	89.409976 
3108.340022  	89.507782 
3109.304446  	89.595435 
3110.268871  	89.613708 
3111.233295  	89.621997 
3112.197720  	89.639358 
3113.162144  	89.687527 
3114.126568  	89.760170 
3115.090993  	89.785287 
3116.055417  	89.822449 
3117.019842  	89.900491 
3117.984266  	89.934678 
3118.948691  	89.876164 
3119.913115  	89.984843 
3120.877540  	90.093195 
3121.841964  	90.043022 
3122.806389  	89.983064 
3123.770813  	90.092369 
3124.735237  	90.113009 
3125.699662  	90.081996 
3126.664086  	90.067652 
3127.628511  	90.133688 
3128.592935  	90.194709 
3129.557360  	90.202044 
3130.521784  	90.189795 
3131.486209  	90.182226 
3132.450633  	90.112262 
3133.415058  	90.061738 
3134.379482  	90.183117 
3135.343906  	90.221363 
3136.308331  	90.149070 
3137.272755  	90.137803 
3138.237180  	90.191739 
3139.201604  	90.223677 
3140.166029  	90.209908 
3141.130453  	90.182297 
3142.094878  	90.083398 
3143.059302  	90.015421 
3144.023727  	90.025130 
3144.988151  	90.024771 
3145.952575  	89.974774 
3146.917000  	89.934321 
3147.881424  	89.953240 
3148.845849  	90.007059 
3149.810273  	89.948245 
3150.774698  	89.909626 
3151.739122  	89.902402 
3152.703547  	89.871537 
3153.667971  	89.800634 
3154.632396  	89.750967 
3155.596820  	89.688544 
3156.561244  	89.644935 
3157.525669  	89.640758 
3158.490093  	89.576092 
3159.454518  	89.554640 
3160.418942  	89.511905 
3161.383367  	89.412088 
3162.347791  	89.316670 
3163.312216  	89.255680 
3164.276640  	89.237686 
3165.241065  	89.192002 
3166.205489  	89.126892 
3167.169914  	89.054363 
3168.134338  	88.933224 
3169.098762  	88.858898 
3170.063187  	88.775872 
3171.027611  	88.701716 
3171.992036  	88.667712 
3172.956460  	88.580277 
3173.920885  	88.482514 
3174.885309  	88.446743 
3175.849734  	88.418291 
3176.814158  	88.341465 
3177.778583  	88.199509 
3178.743007  	88.090783 
3179.707431  	88.071564 
3180.671856  	88.058627 
3181.636280  	88.069758 
3182.600705  	87.991907 
3183.565129  	87.838961 
3184.529554  	87.722823 
3185.493978  	87.667238 
3186.458403  	87.638667 
3187.422827  	87.589687 
3188.387252  	87.519684 
3189.351676  	87.515470 
3190.316100  	87.489679 
3191.280525  	87.440655 
3192.244949  	87.382773 
3193.209374  	87.344318 
3194.173798  	87.209561 
3195.138223  	87.127289 
3196.102647  	87.044019 
3197.067072  	86.929524 
3198.031496  	86.865135 
3198.995921  	86.942739 
3199.960345  	86.953363 
3200.924769  	86.886371 
3201.889194  	86.891451 
3202.853618  	86.867923 
3203.818043  	86.751273 
3204.782467  	86.674123 
3205.746892  	86.625346 
3206.711316  	86.556256 
3207.675741  	86.524034 
3208.640165  	86.530821 
3209.604590  	86.480108 
3210.569014  	86.412542 
3211.533438  	86.355582 
3212.497863  	86.305699 
3213.462287  	86.228840 
3214.426712  	86.111113 
3215.391136  	86.108893 
3216.355561  	86.132114 
3217.319985  	86.082553 
3218.284410  	85.975904 
3219.248834  	85.865166 
3220.213259  	85.783716 
3221.177683  	85.755524 
3222.142107  	85.683469 
3223.106532  	85.538130 
3224.070956  	85.411557 
3225.035381  	85.353391 
3225.999805  	85.278734 
3226.964230  	85.137144 
3227.928654  	84.993630 
3228.893079  	84.888402 
3229.857503  	84.752083 
3230.821928  	84.602887 
3231.786352  	84.522049 
3232.750777  	84.449951 
3233.715201  	84.327821 
3234.679625  	84.169710 
3235.644050  	83.969480 
3236.608474  	83.754033 
3237.572899  	83.593693 
3238.537323  	83.434758 
3239.501748  	83.241972 
3240.466172  	83.057542 
3241.430597  	82.959821 
3242.395021  	82.823175 
3243.359446  	82.592800 
3244.323870  	82.332583 
3245.288294  	82.092509 
3246.252719  	81.975964 
3247.217143  	81.878694 
3248.181568  	81.649243 
3249.145992  	81.384567 
3250.110417  	81.160619 
3251.074841  	80.948434 
3252.039266  	80.684742 
3253.003690  	80.409146 
3253.968115  	80.087073 
3254.932539  	79.836700 
3255.896963  	79.623550 
3256.861388  	79.336991 
3257.825812  	79.117058 
3258.790237  	78.889642 
3259.754661  	78.581261 
3260.719086  	78.298512 
3261.683510  	78.027322 
3262.647935  	77.736121 
3263.612359  	77.487527 
3264.576784  	77.192206 
3265.541208  	76.793501 
3266.505632  	76.493623 
3267.470057  	76.233291 
3268.434481  	76.005174 
3269.398906  	75.781602 
3270.363330  	75.468357 
3271.327755  	75.137347 
3272.292179  	74.844606 
3273.256604  	74.487183 
3274.221028  	74.163660 
3275.185453  	73.907362 
3276.149877  	73.558055 
3277.114301  	73.119645 
3278.078726  	72.787104 
3279.043150  	72.356882 
3280.007575  	71.979132 
3280.971999  	71.638158 
3281.936424  	71.278731 
3282.900848  	70.820743 
3283.865273  	70.405243 
3284.829697  	70.086936 
3285.794122  	69.724407 
3286.758546  	69.319453 
3287.722971  	68.954129 
3288.687395  	68.658764 
3289.651819  	68.402436 
3290.616244  	68.089932 
3291.580668  	67.834019 
3292.545093  	67.607452 
3293.509517  	67.469582 
3294.473942  	67.386727 
3295.438366  	67.318093 
3296.402791  	67.304736 
3297.367215  	67.320442 
3298.331640  	67.392218 
3299.296064  	67.592577 
3300.260488  	67.799101 
3301.224913  	68.060933 
3302.189337  	68.397393 
3303.153762  	68.739927 
3304.118186  	69.130816 
3305.082611  	69.626176 
3306.047035  	70.122656 
3307.011460  	70.662841 
3307.975884  	71.161399 
3308.940309  	71.676880 
3309.904733  	72.352157 
3310.869157  	72.989413 
3311.833582  	73.649186 
3312.798006  	74.363738 
3313.762431  	75.031597 
3314.726855  	75.676491 
3315.691280  	76.278395 
3316.655704  	76.861231 
3317.620129  	77.447828 
3318.584553  	78.036448 
3319.548978  	78.573280 
3320.513402  	79.093436 
3321.477826  	79.596637 
3322.442251  	80.103099 
3323.406675  	80.579513 
3324.371100  	81.023951 
3325.335524  	81.392930 
3326.299949  	81.771624 
3327.264373  	82.087464 
3328.228798  	82.401798 
3329.193222  	82.689241 
3330.157647  	83.012320 
3331.122071  	83.371945 
3332.086495  	83.758783 
3333.050920  	84.011535 
3334.015344  	84.245795 
3334.979769  	84.470629 
3335.944193  	84.711289 
3336.908618  	84.844103 
3337.873042  	85.129611 
3338.837467  	85.436725 
3339.801891  	85.643063 
3340.766316  	85.843601 
3341.730740  	85.987688 
3342.695164  	86.110305 
3343.659589  	86.344570 
3344.624013  	86.587483 
3345.588438  	86.768746 
3346.552862  	86.877282 
3347.517287  	86.969398 
3348.481711  	87.071550 
3349.446136  	87.253053 
3350.410560  	87.412182 
3351.374985  	87.547957 
3352.339409  	87.663865 
3353.303834  	87.721282 
3354.268258  	87.769558 
3355.232682  	87.816326 
3356.197107  	87.813202 
3357.161531  	87.976977 
3358.125956  	88.189768 
3359.090380  	88.315960 
3360.054805  	88.275521 
3361.019229  	88.299326 
3361.983654  	88.347934 
3362.948078  	88.492472 
3363.912503  	88.591530 
3364.876927  	88.564633 
3365.841351  	88.624145 
3366.805776  	88.748732 
3367.770200  	88.745049 
3368.734625  	88.818724 
3369.699049  	88.948554 
3370.663474  	89.073942 
3371.627898  	89.135122 
3372.592323  	89.152243 
3373.556747  	89.188892 
3374.521172  	89.272361 
3375.485596  	89.311402 
3376.450020  	89.310251 
3377.414445  	89.326520 
3378.378869  	89.411714 
3379.343294  	89.439930 
3380.307718  	89.474371 
3381.272143  	89.595360 
3382.236567  	89.644689 
3383.200992  	89.593589 
3384.165416  	89.511519 
3385.129841  	89.540651 
3386.094265  	89.655273 
3387.058689  	89.712219 
3388.023114  	89.824390 
3388.987538  	89.862849 
3389.951963  	89.836718 
3390.916387  	89.807888 
3391.880812  	89.722803 
3392.845236  	89.571900 
3393.809661  	89.659575 
3394.774085  	89.834998 
3395.738510  	89.924273 
3396.702934  	89.949042 
3397.667358  	89.820280 
3398.631783  	89.932617 
3399.596207  	90.047217 
3400.560632  	90.002900 
3401.525056  	90.008277 
3402.489481  	90.079550 
3403.453905  	90.084238 
3404.418330  	90.057675 
3405.382754  	90.111641 
3406.347179  	90.118947 
3407.311603  	90.081787 
3408.276028  	90.106386 
3409.240452  	90.100797 
3410.204876  	90.078540 
3411.169301  	90.183797 
3412.133725  	90.263680 
3413.098150  	90.269708 
3414.062574  	90.282351 
3415.026999  	90.301327 
3415.991423  	90.267558 
3416.955848  	90.264395 
3417.920272  	90.237493 
3418.884697  	90.235974 
3419.849121  	90.027117 
3420.813545  	89.811295 
3421.777970  	89.916014 
3422.742394  	90.067884 
3423.706819  	90.196308 
3424.671243  	90.302586 
3425.635668  	90.341963 
3426.600092  	90.359382 
3427.564517  	90.328173 
3428.528941  	90.328688 
3429.493366  	90.363237 
3430.457790  	90.355731 
3431.422214  	90.384270 
3432.386639  	90.418874 
3433.351063  	90.437735 
3434.315488  	90.533783 
3435.279912  	90.525407 
3436.244337  	90.474482 
3437.208761  	90.441132 
3438.173186  	90.419685 
3439.137610  	90.478835 
3440.102035  	90.576451 
3441.066459  	90.518140 
3442.030883  	90.413880 
3442.995308  	90.298290 
3443.959732  	90.410320 
3444.924157  	90.425929 
3445.888581  	90.364092 
3446.853006  	89.989605 
3447.817430  	89.682990 
3448.781855  	90.211180 
3449.746279  	90.533565 
3450.710704  	90.632087 
3451.675128  	90.679698 
3452.639552  	90.665436 
3453.603977  	90.649221 
3454.568401  	90.634878 
3455.532826  	90.676478 
3456.497250  	90.687405 
3457.461675  	90.611801 
3458.426099  	90.585965 
3459.390524  	90.614602 
3460.354948  	90.591119 
3461.319373  	90.433140 
3462.283797  	90.370240 
3463.248221  	90.431263 
3464.212646  	90.631976 
3465.177070  	90.754159 
3466.141495  	90.715118 
3467.105919  	90.475030 
3468.070344  	90.601783 
3469.034768  	90.815207 
3469.999193  	90.789668 
3470.963617  	90.734598 
3471.928042  	90.717662 
3472.892466  	90.791790 
3473.856891  	90.753009 
3474.821315  	90.653394 
3475.785739  	90.775862 
3476.750164  	90.911613 
3477.714588  	90.879647 
3478.679013  	90.903378 
3479.643437  	90.847299 
3480.607862  	90.535755 
3481.572286  	90.344232 
3482.536711  	90.286276 
3483.501135  	90.628118 
3484.465560  	90.883095 
3485.429984  	90.808480 
3486.394408  	90.783061 
3487.358833  	90.784521 
3488.323257  	90.559941 
3489.287682  	90.571083 
3490.252106  	90.811055 
3491.216531  	90.842891 
3492.180955  	90.920753 
3493.145380  	90.998833 
3494.109804  	91.058512 
3495.074229  	90.926527 
3496.038653  	90.716510 
3497.003077  	90.642827 
3497.967502  	90.836091 
3498.931926  	90.997239 
3499.896351  	90.944468 
3500.860775  	90.817276 
3501.825200  	90.477107 
3502.789624  	89.997363 
3503.754049  	89.955282 
3504.718473  	90.444583 
3505.682898  	90.838740 
3506.647322  	91.046259 
3507.611746  	91.167701 
3508.576171  	90.909857 
3509.540595  	90.283952 
3510.505020  	90.468995 
3511.469444  	90.963872 
3512.433869  	91.098097 
3513.398293  	91.147527 
3514.362718  	91.299256 
3515.327142  	91.470959 
3516.291567  	91.443205 
3517.255991  	91.324420 
3518.220415  	91.256273 
3519.184840  	91.301962 
3520.149264  	91.354938 
3521.113689  	91.483945 
3522.078113  	91.363185 
3523.042538  	90.603632 
3524.006962  	90.251957 
3524.971387  	90.689248 
3525.935811  	90.866856 
3526.900236  	90.819991 
3527.864660  	90.693068 
3528.829085  	90.772918 
3529.793509  	91.014091 
3530.757933  	91.270165 
3531.722358  	91.319017 
3532.686782  	91.617471 
3533.651207  	91.813157 
3534.615631  	91.905505 
3535.580056  	91.689372 
3536.544480  	91.077591 
3537.508905  	91.258674 
3538.473329  	91.827072 
3539.437754  	91.873748 
3540.402178  	91.938444 
3541.366602  	91.919379 
3542.331027  	91.941373 
3543.295451  	91.705404 
3544.259876  	91.305122 
3545.224300  	90.538133 
3546.188725  	90.420462 
3547.153149  	90.441765 
3548.117574  	90.878780 
3549.081998  	91.736371 
3550.046423  	91.967963 
3551.010847  	91.843827 
3551.975271  	91.281958 
3552.939696  	91.061025 
3553.904120  	91.415870 
3554.868545  	91.810403 
3555.832969  	92.271147 
3556.797394  	92.256929 
3557.761818  	92.237432 
3558.726243  	92.349000 
3559.690667  	91.958731 
3560.655092  	91.468081 
3561.619516  	91.940708 
3562.583940  	92.005989 
3563.548365  	91.879697 
3564.512789  	91.841457 
3565.477214  	91.002964 
3566.441638  	88.848226 
3567.406063  	88.750376 
3568.370487  	89.183808 
3569.334912  	90.752160 
3570.299336  	91.944812 
3571.263761  	92.068178 
3572.228185  	92.377516 
3573.192609  	92.422567 
3574.157034  	92.363346 
3575.121458  	92.421966 
3576.085883  	92.500441 
3577.050307  	92.367368 
3578.014732  	92.398160 
3578.979156  	92.444391 
3579.943581  	92.085317 
3580.908005  	92.112078 
3581.872430  	92.545756 
3582.836854  	92.623059 
3583.801278  	92.485472 
3584.765703  	92.501830 
3585.730127  	92.153286 
3586.694552  	90.653898 
3587.658976  	89.682140 
3588.623401  	90.010820 
3589.587825  	91.017315 
3590.552250  	92.341247 
3591.516674  	92.705983 
3592.481099  	92.630240 
3593.445523  	91.932424 
3594.409948  	91.977801 
3595.374372  	91.626899 
3596.338796  	91.488577 
3597.303221  	92.336565 
3598.267645  	92.415754 
3599.232070  	92.144938 
3600.196494  	92.210123 
3601.160919  	91.941500 
3602.125343  	92.265119 
3603.089768  	92.554062 
3604.054192  	92.854489 
3605.018617  	93.037530 
3605.983041  	92.806944 
3606.947465  	91.715691 
3607.911890  	91.224781 
3608.876314  	91.553828 
3609.840739  	91.243604 
3610.805163  	92.262327 
3611.769588  	92.363080 
3612.734012  	91.160121 
3613.698437  	91.233440 
3614.662861  	91.454212 
3615.627286  	91.552271 
3616.591710  	92.521217 
3617.556134  	91.990045 
3618.520559  	91.081184 
3619.484983  	90.983834 
3620.449408  	91.031243 
3621.413832  	91.833305 
3622.378257  	92.545530 
3623.342681  	93.019317 
3624.307106  	93.179515 
3625.271530  	93.102025 
3626.235955  	92.602586 
3627.200379  	92.361332 
3628.164803  	91.472629 
3629.129228  	88.878720 
3630.093652  	89.622402 
3631.058077  	91.842255 
3632.022501  	92.752859 
3632.986926  	92.793214 
3633.951350  	92.123443 
3634.915775  	92.490779 
3635.880199  	93.229063 
3636.844624  	93.375842 
3637.809048  	93.190573 
3638.773472  	93.055421 
3639.737897  	93.302320 
3640.702321  	93.347018 
3641.666746  	93.035432 
3642.631170  	92.655312 
3643.595595  	92.913239 
3644.560019  	93.284666 
3645.524444  	92.954610 
3646.488868  	91.885267 
3647.453293  	90.091579 
3648.417717  	90.173360 
3649.382142  	90.032166 
3650.346566  	89.243564 
3651.310990  	89.626466 
3652.275415  	91.622538 
3653.239839  	92.931716 
3654.204264  	93.334544 
3655.168688  	93.217704 
3656.133113  	92.294168 
3657.097537  	91.946914 
3658.061962  	93.050657 
3659.026386  	93.345877 
3659.990811  	93.243896 
3660.955235  	93.358583 
3661.919659  	93.565196 
3662.884084  	93.586205 
3663.848508  	93.600192 
3664.812933  	93.542464 
3665.777357  	93.530239 
3666.741782  	93.555361 
3667.706206  	93.475044 
3668.670631  	92.562796 
3669.635055  	91.349952 
3670.599480  	90.714868 
3671.563904  	91.251435 
3672.528328  	92.795272 
3673.492753  	93.083980 
3674.457177  	91.918463 
3675.421602  	89.217389 
3676.386026  	89.704700 
3677.350451  	91.464373 
3678.314875  	92.315315 
3679.279300  	92.421664 
3680.243724  	92.428424 
3681.208149  	93.182223 
3682.172573  	93.591420 
3683.136997  	93.668233 
3684.101422  	93.535928 
3685.065846  	93.388717 
3686.030271  	93.498136 
3686.994695  	93.318207 
3687.959120  	92.544443 
3688.923544  	91.504233 
3689.887969  	92.027069 
3690.852393  	91.607918 
3691.816818  	91.432000 
3692.781242  	92.931356 
3693.745666  	93.408054 
3694.710091  	93.480622 
3695.674515  	93.562513 
3696.638940  	93.442456 
3697.603364  	93.499262 
3698.567789  	93.744500 
3699.532213  	93.705044 
3700.496638  	93.636418 
3701.461062  	92.873345 
3702.425487  	92.259517 
3703.389911  	93.240966 
3704.354335  	93.691824 
3705.318760  	93.578747 
3706.283184  	93.546046 
3707.247609  	93.636366 
3708.212033  	93.599449 
3709.176458  	92.946075 
3710.140882  	92.292201 
3711.105307  	92.085126 
3712.069731  	91.046052 
3713.034156  	91.060623 
3713.998580  	92.574376 
3714.963005  	92.740763 
3715.927429  	92.996678 
3716.891853  	93.567385 
3717.856278  	93.651209 
3718.820702  	92.999540 
3719.785127  	92.731270 
3720.749551  	93.358183 
3721.713976  	92.967863 
3722.678400  	91.616519 
3723.642825  	92.270036 
3724.607249  	92.688099 
3725.571674  	91.958830 
3726.536098  	91.677803 
3727.500522  	91.944278 
3728.464947  	92.926241 
3729.429371  	93.539634 
3730.393796  	93.468494 
3731.358220  	93.023544 
3732.322645  	92.162815 
3733.287069  	92.231291 
3734.251494  	91.720937 
3735.215918  	88.670971 
3736.180343  	88.996777 
3737.144767  	90.725341 
3738.109191  	91.685505 
3739.073616  	92.101031 
3740.038040  	92.613628 
3741.002465  	92.279661 
3741.966889  	92.409197 
3742.931314  	92.990893 
3743.895738  	92.057189 
3744.860163  	88.866941 
3745.824587  	90.955613 
3746.789012  	92.065385 
3747.753436  	92.093422 
3748.717860  	91.954000 
3749.682285  	91.434623 
3750.646709  	91.203113 
3751.611134  	91.005507 
3752.575558  	89.953626 
3753.539983  	91.496061 
3754.504407  	92.584847 
3755.468832  	93.129185 
3756.433256  	92.832710 
3757.397681  	92.749558 
3758.362105  	92.945634 
3759.326529  	92.010175 
3760.290954  	91.559907 
3761.255378  	93.030076 
3762.219803  	93.469694 
3763.184227  	93.522811 
3764.148652  	93.582881 
3765.113076  	93.192001 
3766.077501  	92.298983 
3767.041925  	92.986463 
3768.006350  	93.573455 
3768.970774  	93.299308 
3769.935199  	92.281985 
3770.899623  	92.342841 
3771.864047  	93.201927 
3772.828472  	93.584561 
3773.792896  	93.733688 
3774.757321  	93.820145 
3775.721745  	93.907669 
3776.686170  	93.935892 
3777.650594  	93.825238 
3778.615019  	93.400970 
3779.579443  	92.532465 
3780.543868  	92.696416 
3781.508292  	93.539725 
3782.472716  	93.625649 
3783.437141  	93.653123 
3784.401565  	93.287738 
3785.365990  	92.793983 
3786.330414  	93.147823 
3787.294839  	93.501901 
3788.259263  	93.688895 
3789.223688  	93.730830 
3790.188112  	93.739514 
3791.152537  	93.851807 
3792.116961  	93.882583 
3793.081385  	93.908794 
3794.045810  	93.905133 
3795.010234  	93.762668 
3795.974659  	93.231774 
3796.939083  	92.407187 
3797.903508  	92.636346 
3798.867932  	93.215298 
3799.832357  	93.337739 
3800.796781  	92.421719 
3801.761206  	90.968933 
3802.725630  	91.409809 
3803.690054  	92.426135 
3804.654479  	93.378494 
3805.618903  	93.535332 
3806.583328  	92.766503 
3807.547752  	91.983662 
3808.512177  	93.112605 
3809.476601  	93.610347 
3810.441026  	93.642495 
3811.405450  	93.746024 
3812.369875  	93.820391 
3813.334299  	93.825683 
3814.298723  	93.684026 
3815.263148  	93.094623 
3816.227572  	91.726689 
3817.191997  	92.147104 
3818.156421  	93.074132 
3819.120846  	92.997525 
3820.085270  	92.326178 
3821.049695  	90.792906 
3822.014119  	90.554587 
3822.978544  	92.256988 
3823.942968  	92.952043 
3824.907392  	93.231915 
3825.871817  	93.199185 
3826.836241  	92.574309 
3827.800666  	92.634401 
3828.765090  	93.319159 
3829.729515  	93.653332 
3830.693939  	93.522413 
3831.658364  	92.736673 
3832.622788  	92.742670 
3833.587213  	93.388230 
3834.551637  	92.982079 
3835.516062  	92.343552 
3836.480486  	92.893715 
3837.444910  	92.474264 
3838.409335  	91.268410 
3839.373759  	91.780861 
3840.338184  	91.293906 
3841.302608  	91.348635 
3842.267033  	92.721152 
3843.231457  	92.808593 
3844.195882  	91.992927 
3845.160306  	92.830700 
3846.124731  	93.466896 
3847.089155  	93.618759 
3848.053579  	93.674339 
3849.018004  	93.435516 
3849.982428  	92.912750 
3850.946853  	92.903087 
3851.911277  	92.173537 
3852.875702  	90.520420 
3853.840126  	89.794004 
3854.804551  	90.051433 
3855.768975  	92.190058 
3856.733400  	92.428711 
3857.697824  	92.018843 
3858.662248  	93.051537 
3859.626673  	93.711279 
3860.591097  	93.669284 
3861.555522  	92.991317 
3862.519946  	92.398890 
3863.484371  	92.787138 
3864.448795  	92.069406 
3865.413220  	90.980760 
3866.377644  	92.333613 
3867.342069  	93.367400 
3868.306493  	93.302119 
3869.270917  	92.052290 
3870.235342  	90.054092 
3871.199766  	91.314138 
3872.164191  	92.633209 
3873.128615  	92.959147 
3874.093040  	91.724408 
3875.057464  	91.703726 
3876.021889  	93.309453 
3876.986313  	93.711431 
3877.950738  	93.774519 
3878.915162  	93.656893 
3879.879586  	92.655312 
3880.844011  	90.869283 
3881.808435  	92.031541 
3882.772860  	93.024648 
3883.737284  	92.777863 
3884.701709  	92.719613 
3885.666133  	91.923440 
3886.630558  	91.556340 
3887.594982  	93.119576 
3888.559407  	93.627413 
3889.523831  	93.653495 
3890.488256  	93.222599 
3891.452680  	91.984424 
3892.417104  	91.929417 
3893.381529  	92.917511 
3894.345953  	92.903386 
3895.310378  	93.208381 
3896.274802  	93.659954 
3897.239227  	93.701345 
3898.203651  	93.049499 
3899.168076  	91.919922 
3900.132500  	91.780791 
3901.096925  	92.638560 
3902.061349  	91.497059 
3903.025773  	91.408856 
3903.990198  	91.818455 
3904.954622  	91.324101 
3905.919047  	91.752186 
3906.883471  	92.549582 
3907.847896  	93.502841 
3908.812320  	93.830336 
3909.776745  	93.878017 
3910.741169  	93.859936 
3911.705594  	93.848729 
3912.670018  	93.799323 
3913.634442  	93.733112 
3914.598867  	93.781111 
3915.563291  	93.644107 
3916.527716  	92.747868 
3917.492140  	91.960267 
3918.456565  	92.889579 
3919.420989  	93.227235 
3920.385414  	92.525352 
3921.349838  	93.035471 
3922.314263  	93.719587 
3923.278687  	93.381689 
3924.243111  	92.595290 
3925.207536  	92.138193 
3926.171960  	92.868217 
3927.136385  	93.668958 
3928.100809  	93.712237 
3929.065234  	93.503236 
3930.029658  	93.159703 
3930.994083  	92.943356 
3931.958507  	92.555293 
3932.922932  	92.177569 
3933.887356  	92.949263 
3934.851780  	93.389524 
3935.816205  	93.686961 
3936.780629  	93.835048 
3937.745054  	93.741758 
3938.709478  	93.503296 
3939.673903  	93.635071 
3940.638327  	93.750747 
3941.602752  	93.601998 
3942.567176  	92.726427 
3943.531601  	92.281644 
3944.496025  	93.101283 
3945.460449  	93.567233 
3946.424874  	93.654276 
3947.389298  	93.076744 
3948.353723  	92.669408 
3949.318147  	92.931263 
3950.282572  	92.679869 
3951.246996  	93.081452 
3952.211421  	93.703084 
3953.175845  	93.596712 
3954.140270  	93.618424 
3955.104694  	93.761504 
3956.069119  	93.727209 
3957.033543  	93.551892 
3957.997967  	93.550996 
3958.962392  	93.687834 
3959.926816  	93.703359 
3960.891241  	93.607153 
3961.855665  	93.162473 
3962.820090  	93.116335 
3963.784514  	93.636007 
3964.748939  	93.703195 
3965.713363  	93.779630 
3966.677788  	93.868457 
3967.642212  	93.818056 
3968.606636  	93.645315 
3969.571061  	93.521537 
3970.535485  	93.680113 
3971.499910  	93.725037 
3972.464334  	93.482011 
3973.428759  	93.571451 
3974.393183  	93.708182 
3975.357608  	93.565942 
3976.322032  	93.403808 
3977.286457  	93.572150 
3978.250881  	93.792647 
3979.215305  	93.827188 
3980.179730  	93.792974 
3981.144154  	93.748533 
3982.108579  	93.667973 
3983.073003  	93.700035 
3984.037428  	93.836527 
3985.001852  	93.843905 
3985.966277  	93.785526 
3986.930701  	93.807517 
3987.895126  	93.802939 
3988.859550  	93.782941 
3989.823974  	93.702499 
3990.788399  	93.484154 
3991.752823  	93.559377 
3992.717248  	93.726155 
3993.681672  	93.731353 
3994.646097  	93.669590 
3995.610521  	93.601746 
3996.574946  	93.759392 
3997.539370  	93.856173 
3998.503795  	93.857964 
3999.468219  	93.831444 
4000.432643  	93.873364 
4001.397068  	93.856747 
4002.361492  	93.810743 
4003.325917  	93.778926 
4004.290341  	93.816968 
4005.254766  	93.825305 
4006.219190  	93.796595 
4007.183615  	93.783202 
4008.148039  	93.640207 
4009.112464  	93.498698 
4010.076888  	93.668198 
4011.041313  	93.775956 
4012.005737  	93.808428 
4012.970161  	93.811790 
4013.934586  	93.826657 
4014.899010  	93.835412 
4015.863435  	93.776615 
4016.827859  	93.789121 
4017.792284  	93.817778 
4018.756708  	93.816371 
4019.721133  	93.742208 
4020.685557  	93.720156 
4021.649982  	93.794720 
4022.614406  	93.867854 
4023.578830  	93.847380 
4024.543255  	93.776895 
4025.507679  	93.661711 
4026.472104  	93.678478 
4027.436528  	93.798495 
4028.400953  	93.782482 
4029.365377  	93.777018 
4030.329802  	93.784065 
4031.294226  	93.792523 
4032.258651  	93.795021 
4033.223075  	93.832248 
4034.187499  	93.854660 
4035.151924  	93.839739 
4036.116348  	93.838848 
4037.080773  	93.847610 
4038.045197  	93.861092 
4039.009622  	93.871220 
4039.974046  	93.797839 
4040.938471  	93.784765 
4041.902895  	93.814823 
4042.867320  	93.832090 
4043.831744  	93.735421 
4044.796168  	93.636139 
4045.760593  	93.680384 
4046.725017  	93.830922 
4047.689442  	93.860345 
4048.653866  	93.849393 
4049.618291  	93.877401 
4050.582715  	93.883290 
4051.547140  	93.837512 
4052.511564  	93.818748 
4053.475989  	93.834110 
4054.440413  	93.830239 
4055.404837  	93.819595 
4056.369262  	93.890085 
4057.333686  	93.960476 
4058.298111  	93.923601 
4059.262535  	93.881809 
4060.226960  	93.863631 
4061.191384  	93.815876 
4062.155809  	93.826787 
4063.120233  	93.889324 
4064.084658  	93.925536 
4065.049082  	93.935295 
4066.013506  	93.924254 
4066.977931  	93.882435 
4067.942355  	93.853564 
4068.906780  	93.860780 
4069.871204  	93.862820 
4070.835629  	93.847788 
4071.800053  	93.821367 
4072.764478  	93.788269 
4073.728902  	93.784553 
4074.693327  	93.829206 
4075.657751  	93.875017 
4076.622176  	93.877500 
4077.586600  	93.899882 
4078.551024  	93.869827 
4079.515449  	93.820217 
4080.479873  	93.858136 
4081.444298  	93.900887 
4082.408722  	93.893848 
4083.373147  	93.848913 
4084.337571  	93.834082 
4085.301996  	93.845106 
4086.266420  	93.818296 
4087.230845  	93.821032 
4088.195269  	93.806816 
4089.159693  	93.813528 
4090.124118  	93.848350 
4091.088542  	93.858110 
4092.052967  	93.891377 
4093.017391  	93.890672 
4093.981816  	93.852455 
4094.946240  	93.863108 
4095.910665  	93.887485 
4096.875089  	93.933704 
4097.839514  	93.918561 
4098.803938  	93.887279 
4099.768362  	93.900782 
4100.732787  	93.890828 
4101.697211  	93.886004 
4102.661636  	93.910907 
4103.626060  	93.915228 
4104.590485  	93.871541 
4105.554909  	93.793377 
4106.519334  	93.792826 
4107.483758  	93.828866 
4108.448183  	93.882219 
4109.412607  	93.916885 
4110.377031  	93.901188 
4111.341456  	93.898685 
4112.305880  	93.856231 
4113.270305  	93.818686 
4114.234729  	93.831808 
4115.199154  	93.892444 
4116.163578  	93.877685 
4117.128003  	93.860535 
4118.092427  	93.868243 
4119.056852  	93.845535 
4120.021276  	93.828381 
4120.985700  	93.833678 
4121.950125  	93.858503 
4122.914549  	93.869984 
4123.878974  	93.885104 
4124.843398  	93.876143 
4125.807823  	93.864376 
4126.772247  	93.878624 
4127.736672  	93.886176 
4128.701096  	93.894178 
4129.665521  	93.887062 
4130.629945  	93.893974 
4131.594370  	93.915874 
4132.558794  	93.921239 
4133.523218  	93.887338 
4134.487643  	93.872453 
4135.452067  	93.868695 
4136.416492  	93.876680 
4137.380916  	93.898627 
4138.345341  	93.838833 
4139.309765  	93.787927 
4140.274190  	93.866229 
4141.238614  	93.889057 
4142.203039  	93.865505 
4143.167463  	93.906489 
4144.131887  	93.859106 
4145.096312  	93.818672 
4146.060736  	93.833418 
4147.025161  	93.898796 
4147.989585  	93.888815 
4148.954010  	93.809317 
4149.918434  	93.789911 
4150.882859  	93.804504 
4151.847283  	93.850756 
4152.811708  	93.847340 
4153.776132  	93.836866 
4154.740556  	93.851592 
4155.704981  	93.822474 
4156.669405  	93.791477 
4157.633830  	93.787510 
4158.598254  	93.830002 
4159.562679  	93.829177 
4160.527103  	93.787600 
4161.491528  	93.808621 
4162.455952  	93.851430 
4163.420377  	93.884727 
4164.384801  	93.831167 
4165.349225  	93.815750 
4166.313650  	93.842044 
4167.278074  	93.802250 
4168.242499  	93.809239 
4169.206923  	93.845719 
4170.171348  	93.858439 
4171.135772  	93.865551 
4172.100197  	93.857211 
4173.064621  	93.833706 
4174.029046  	93.801517 
4174.993470  	93.835171 
4175.957894  	93.868423 
4176.922319  	93.861702 
4177.886743  	93.844556 
4178.851168  	93.815253 
4179.815592  	93.751124 
4180.780017  	93.764533 
4181.744441  	93.844844 
4182.708866  	93.870398 
4183.673290  	93.859803 
4184.637715  	93.880790 
4185.602139  	93.903302 
4186.566563  	93.825328 
4187.530988  	93.785648 
4188.495412  	93.794342 
4189.459837  	93.827774 
4190.424261  	93.854906 
4191.388686  	93.859723 
4192.353110  	93.879028 
4193.317535  	93.817819 
4194.281959  	93.810458 
4195.246384  	93.873912 
4196.210808  	93.857554 
4197.175233  	93.833598 
4198.139657  	93.823338 
4199.104081  	93.804241 
4200.068506  	93.810780 
4201.032930  	93.829051 
4201.997355  	93.864117 
4202.961779  	93.901081 
4203.926204  	93.841875 
4204.890628  	93.836238 
4205.855053  	93.850016 
4206.819477  	93.814132 
4207.783902  	93.821155 
4208.748326  	93.857703 
4209.712750  	93.875643 
4210.677175  	93.853287 
4211.641599  	93.802908 
4212.606024  	93.767403 
4213.570448  	93.829127 
4214.534873  	93.845556 
4215.499297  	93.789806 
4216.463722  	93.816183 
4217.428146  	93.780352 
4218.392571  	93.760458 
4219.356995  	93.809813 
4220.321419  	93.829944 
4221.285844  	93.877324 
4222.250268  	93.895482 
4223.214693  	93.812086 
4224.179117  	93.756500 
4225.143542  	93.736582 
4226.107966  	93.831295 
4227.072391  	93.909024 
4228.036815  	93.851302 
4229.001240  	93.811032 
4229.965664  	93.815251 
4230.930088  	93.825923 
4231.894513  	93.873355 
4232.858937  	93.897254 
4233.823362  	93.875016 
4234.787786  	93.878833 
4235.752211  	93.862101 
4236.716635  	93.872222 
4237.681060  	93.915493 
4238.645484  	93.883987 
4239.609909  	93.863751 
4240.574333  	93.857029 
4241.538757  	93.881606 
4242.503182  	93.932121 
4243.467606  	93.929403 
4244.432031  	93.856851 
4245.396455  	93.827361 
4246.360880  	93.895950 
4247.325304  	93.942157 
4248.289729  	93.941652 
4249.254153  	93.938138 
4250.218578  	93.941183 
4251.183002  	93.921418 
4252.147427  	93.859292 
4253.111851  	93.813166 
4254.076275  	93.814671 
4255.040700  	93.847745 
4256.005124  	93.842239 
4256.969549  	93.899051 
4257.933973  	93.907128 
4258.898398  	93.860028 
4259.862822  	93.808074 
4260.827247  	93.767073 
4261.791671  	93.810914 
4262.756096  	93.879243 
4263.720520  	93.824357 
4264.684944  	93.819539 
4265.649369  	93.866418 
4266.613793  	93.902908 
4267.578218  	93.845596 
4268.542642  	93.841423 
4269.507067  	93.852555 
4270.471491  	93.839325 
4271.435916  	93.855004 
4272.400340  	93.836803 
4273.364765  	93.845067 
4274.329189  	93.914815 
4275.293613  	93.912607 
4276.258038  	93.876246 
4277.222462  	93.849691 
4278.186887  	93.806264 
4279.151311  	93.775665 
4280.115736  	93.790339 
4281.080160  	93.872584 
4282.044585  	93.909072 
4283.009009  	93.890976 
4283.973434  	93.894075 
4284.937858  	93.850468 
4285.902282  	93.825043 
4286.866707  	93.869869 
4287.831131  	93.902221 
4288.795556  	93.935376 
4289.759980  	93.902532 
4290.724405  	93.864129 
4291.688829  	93.864119 
4292.653254  	93.855656 
4293.617678  	93.891351 
4294.582103  	93.979159 
4295.546527  	93.947492 
4296.510951  	93.927045 
4297.475376  	93.988157 
4298.439800  	93.942647 
4299.404225  	93.908969 
4300.368649  	93.942959 
4301.333074  	93.906565 
4302.297498  	93.850063 
4303.261923  	93.843038 
4304.226347  	93.932263 
4305.190772  	93.997444 
4306.155196  	93.939062 
4307.119620  	93.922642 
4308.084045  	93.908157 
4309.048469  	93.923623 
4310.012894  	93.912739 
4310.977318  	93.920127 
4311.941743  	93.934433 
4312.906167  	93.914445 
4313.870592  	93.845569 
4314.835016  	93.825439 
4315.799441  	93.839162 
4316.763865  	93.862926 
4317.728290  	93.877501 
4318.692714  	93.908153 
4319.657138  	93.911218 
4320.621563  	93.898658 
4321.585987  	93.892850 
4322.550412  	93.860120 
4323.514836  	93.831262 
4324.479261  	93.854314 
4325.443685  	93.852592 
4326.408110  	93.879418 
4327.372534  	93.886975 
4328.336959  	93.896694 
4329.301383  	93.894826 
4330.265807  	93.873611 
4331.230232  	93.928522 
4332.194656  	93.901853 
4333.159081  	93.909756 
4334.123505  	93.934161 
4335.087930  	93.862604 
4336.052354  	93.805979 
4337.016779  	93.803274 
4337.981203  	93.852183 
4338.945628  	93.863812 
4339.910052  	93.812067 
4340.874476  	93.768652 
4341.838901  	93.776654 
4342.803325  	93.791401 
4343.767750  	93.790017 
4344.732174  	93.776264 
4345.696599  	93.763228 
4346.661023  	93.759877 
4347.625448  	93.699175 
4348.589872  	93.678389 
4349.554297  	93.740619 
4350.518721  	93.782549 
4351.483145  	93.837294 
4352.447570  	93.853131 
4353.411994  	93.812513 
4354.376419  	93.753725 
4355.340843  	93.755370 
4356.305268  	93.815274 
4357.269692  	93.846668 
4358.234117  	93.875026 
4359.198541  	93.827290 
4360.162966  	93.803867 
4361.127390  	93.778766 
4362.091814  	93.759961 
4363.056239  	93.740599 
4364.020663  	93.763221 
4364.985088  	93.751586 
4365.949512  	93.751032 
4366.913937  	93.775499 
4367.878361  	93.712308 
4368.842786  	93.714127 
4369.807210  	93.782251 
4370.771635  	93.810061 
4371.736059  	93.790241 
4372.700484  	93.807014 
4373.664908  	93.862458 
4374.629332  	93.824098 
4375.593757  	93.797651 
4376.558181  	93.851333 
4377.522606  	93.873389 
4378.487030  	93.799077 
4379.451455  	93.763633 
4380.415879  	93.815048 
4381.380304  	93.875559 
4382.344728  	93.895178 
4383.309153  	93.910461 
4384.273577  	93.881903 
4385.238001  	93.856610 
4386.202426  	93.910028 
4387.166850  	93.929486 
4388.131275  	93.956414 
4389.095699  	93.960771 
4390.060124  	93.907473 
4391.024548  	93.900448 
4391.988973  	93.962995 
4392.953397  	93.986560 
4393.917822  	93.952393 
4394.882246  	93.949217 
4395.846670  	93.968067 
4396.811095  	93.941351 
4397.775519  	93.942545 
4398.739944  	93.967637 
4399.704368  	94.000850 
4400.668793  	94.018102 
4401.633217  	93.904239 
4402.597642  	93.882457 
4403.562066  	94.031767 
4404.526491  	94.060708 
4405.490915  	94.017167 
4406.455339  	93.979308 
4407.419764  	93.964884 
4408.384188  	94.062968 
4409.348613  	94.064433 
4410.313037  	94.007919 
4411.277462  	93.946579 
4412.241886  	93.976648 
4413.206311  	93.989528 
4414.170735  	94.005010 
4415.135160  	94.030947 
4416.099584  	93.992449 
4417.064008  	93.918691 
4418.028433  	93.873903 
4418.992857  	93.914230 
4419.957282  	93.901525 
4420.921706  	93.905299 
4421.886131  	93.956586 
4422.850555  	93.995556 
4423.814980  	93.992221 
4424.779404  	94.022741 
4425.743829  	94.030914 
4426.708253  	94.014201 
4427.672677  	94.021490 
4428.637102  	94.057135 
4429.601526  	94.096119 
4430.565951  	94.110210 
4431.530375  	94.045531 
4432.494800  	93.942986 
4433.459224  	93.894181 
4434.423649  	93.864282 
4435.388073  	93.920602 
4436.352498  	94.079301 
4437.316922  	94.140861 
4438.281347  	94.094580 
4439.245771  	94.016681 
4440.210195  	94.021614 
4441.174620  	94.034498 
4442.139044  	94.003898 
4443.103469  	94.057109 
4444.067893  	94.062293 
4445.032318  	94.056794 
4445.996742  	94.054833 
4446.961167  	94.053242 
4447.925591  	93.962802 
4448.890016  	93.891009 
4449.854440  	93.917475 
4450.818864  	94.016567 
4451.783289  	94.055027 
4452.747713  	94.007726 
4453.712138  	94.027721 
4454.676562  	94.023362 
4455.640987  	93.994844 
4456.605411  	94.051215 
4457.569836  	94.104274 
4458.534260  	94.049987 
4459.498685  	93.986593 
4460.463109  	93.978140 
4461.427533  	94.022552 
4462.391958  	94.062739 
4463.356382  	94.040605 
4464.320807  	94.010571 
4465.285231  	93.998931 
4466.249656  	94.000781 
4467.214080  	94.022020 
4468.178505  	94.054542 
4469.142929  	94.053760 
4470.107354  	94.079777 
4471.071778  	94.125881 
4472.036202  	94.145156 
4473.000627  	94.127844 
4473.965051  	94.027225 
4474.929476  	93.971379 
4475.893900  	94.030036 
4476.858325  	94.101954 
4477.822749  	94.136069 
4478.787174  	94.092335 
4479.751598  	94.028801 
4480.716023  	94.063339 
4481.680447  	94.052920 
4482.644871  	94.002938 
4483.609296  	94.015504 
4484.573720  	94.007987 
4485.538145  	94.039374 
4486.502569  	94.043433 
4487.466994  	94.022900 
4488.431418  	94.053775 
4489.395843  	94.009002 
4490.360267  	93.973296 
4491.324692  	94.024630 
4492.289116  	94.043202 
4493.253541  	94.035951 
4494.217965  	94.020645 
4495.182389  	93.994187 
4496.146814  	94.024805 
4497.111238  	94.048153 
4498.075663  	94.045808 
4499.040087  	94.055217 
4500.004512  	94.037475 
4500.968936  	94.037370 
4501.933361  	94.022961 
4502.897785  	94.043487 
4503.862210  	94.053269 
4504.826634  	94.064799 
4505.791058  	94.055121 
4506.755483  	94.027333 
4507.719907  	93.982504 
4508.684332  	94.067200 
4509.648756  	94.115628 
4510.613181  	94.066318 
4511.577605  	94.145423 
4512.542030  	94.161713 
4513.506454  	94.130901 
4514.470879  	94.066373 
4515.435303  	94.008643 
4516.399727  	94.018001 
4517.364152  	94.021854 
4518.328576  	94.034450 
4519.293001  	93.987268 
4520.257425  	94.021763 
4521.221850  	93.991556 
4522.186274  	93.970423 
4523.150699  	93.996973 
4524.115123  	94.009537 
4525.079548  	94.026990 
4526.043972  	94.017593 
4527.008396  	93.979676 
4527.972821  	93.943894 
4528.937245  	93.956324 
4529.901670  	94.010980 
4530.866094  	94.060301 
4531.830519  	94.057884 
4532.794943  	94.006779 
4533.759368  	94.020600 
4534.723792  	94.005238 
4535.688217  	93.947459 
4536.652641  	93.953559 
4537.617065  	94.059287 
4538.581490  	94.136174 
4539.545914  	94.021378 
4540.510339  	93.943292 
4541.474763  	93.961915 
4542.439188  	93.988966 
4543.403612  	94.022819 
4544.368037  	93.944783 
4545.332461  	93.885583 
4546.296886  	93.988133 
4547.261310  	93.995656 
4548.225734  	93.980666 
4549.190159  	93.977484 
4550.154583  	93.996109 
4551.119008  	93.964682 
4552.083432  	93.971169 
4553.047857  	94.039609 
4554.012281  	94.065020 
4554.976706  	94.056209 
4555.941130  	94.037893 
4556.905555  	94.029025 
4557.869979  	94.079796 
4558.834404  	94.110563 
4559.798828  	94.030000 
4560.763252  	93.974590 
4561.727677  	93.923166 
4562.692101  	93.942414 
4563.656526  	94.027806 
4564.620950  	94.072158 
4565.585375  	94.025400 
4566.549799  	93.979961 
4567.514224  	94.038222 
4568.478648  	94.070007 
4569.443073  	94.005964 
4570.407497  	93.965201 
4571.371921  	94.009457 
4572.336346  	94.026772 
4573.300770  	94.037990 
4574.265195  	94.012932 
4575.229619  	94.046413 
4576.194044  	94.028142 
4577.158468  	93.945327 
4578.122893  	94.015924 
4579.087317  	94.056442 
4580.051742  	94.067628 
4581.016166  	94.102062 
4581.980590  	94.107803 
4582.945015  	94.071497 
4583.909439  	94.046775 
4584.873864  	93.996924 
4585.838288  	93.888372 
4586.802713  	93.990059 
4587.767137  	94.064059 
4588.731562  	94.039080 
4589.695986  	94.034275 
4590.660411  	93.954126 
4591.624835  	93.924926 
4592.589259  	93.986878 
4593.553684  	94.066119 
4594.518108  	94.019446 
4595.482533  	93.927220 
4596.446957  	93.935770 
4597.411382  	93.952873 
4598.375806  	94.013945 
4599.340231  	94.079317 
4600.304655  	94.075227 
4601.269080  	94.034320 
4602.233504  	93.966587 
4603.197928  	93.964033 
4604.162353  	94.004446 
4605.126777  	93.987605 
4606.091202  	93.948436 
4607.055626  	93.922529 
4608.020051  	93.954386 
4608.984475  	93.966988 
4609.948900  	93.972067 
4610.913324  	94.015537 
4611.877749  	93.948806 
4612.842173  	93.950170 
4613.806598  	94.056245 
4614.771022  	94.067974 
4615.735446  	94.050910 
4616.699871  	93.992354 
4617.664295  	93.925368 
4618.628720  	94.010289 
4619.593144  	94.022144 
4620.557569  	94.062314 
4621.521993  	94.016234 
4622.486418  	93.962424 
4623.450842  	93.943311 
4624.415267  	93.981377 
4625.379691  	94.049876 
4626.344115  	94.030623 
4627.308540  	94.043653 
4628.272964  	94.027620 
4629.237389  	94.031231 
4630.201813  	93.998510 
4631.166238  	93.979122 
4632.130662  	94.008779 
4633.095087  	93.981573 
4634.059511  	93.994247 
4635.023936  	94.097689 
4635.988360  	94.096534 
4636.952784  	93.970378 
4637.917209  	93.982263 
4638.881633  	93.997598 
4639.846058  	94.002535 
4640.810482  	94.072138 
4641.774907  	94.109749 
4642.739331  	93.981297 
4643.703756  	93.915587 
4644.668180  	94.018323 
4645.632605  	94.029871 
4646.597029  	94.079396 
4647.561453  	94.055553 
4648.525878  	94.078269 
4649.490302  	94.145742 
4650.454727  	94.129585 
4651.419151  	94.033330 
4652.383576  	93.961513 
4653.348000  	94.036822 
4654.312425  	94.081043 
4655.276849  	94.113301 
4656.241274  	94.104738 
4657.205698  	94.076748 
4658.170122  	94.026085 
4659.134547  	93.924012 
4660.098971  	93.888348 
4661.063396  	94.028608 
4662.027820  	94.118201 
4662.992245  	94.015964 
4663.956669  	94.005300 
4664.921094  	94.051422 
4665.885518  	94.047585 
4666.849943  	94.096712 
4667.814367  	94.096731 
4668.778791  	94.072404 
4669.743216  	94.018965 
4670.707640  	93.984120 
4671.672065  	93.997259 
4672.636489  	93.979294 
4673.600914  	93.953442 
4674.565338  	93.978534 
4675.529763  	93.992681 
4676.494187  	94.035812 
4677.458612  	94.085919 
4678.423036  	94.110026 
4679.387461  	94.179519 
4680.351885  	94.172527 
4681.316309  	94.069366 
4682.280734  	94.035086 
4683.245158  	93.964551 
4684.209583  	93.986273 
4685.174007  	94.039354 
4686.138432  	94.051294 
4687.102856  	94.095407 
4688.067281  	94.075824 
4689.031705  	94.043654 
4689.996130  	94.091305 
4690.960554  	94.167354 
4691.924978  	94.144583 
4692.889403  	94.061303 
4693.853827  	93.968611 
4694.818252  	94.001688 
4695.782676  	94.034820 
4696.747101  	94.024561 
4697.711525  	94.020808 
4698.675950  	94.062407 
4699.640374  	94.091462 