##TITLE=No Description
##DATA TYPE=INFRARED SPECTRUM
##XUNITS=1/CM
##YUNITS=%T
400.236149  	155.675644 
401.200574  	106.270439 
402.164998  	87.515684 
403.129423  	75.847659 
404.093847  	73.000309 
405.058272  	95.083238 
406.022696  	91.375102 
406.987120  	84.385541 
407.951545  	102.854167 
408.915969  	81.468873 
409.880394  	83.573103 
410.844818  	96.370710 
411.809243  	88.757599 
412.773667  	100.372270 
413.738092  	91.022751 
414.702516  	76.367191 
415.666941  	85.477274 
416.631365  	83.824349 
417.595789  	88.806618 
418.560214  	104.373676 
419.524638  	93.243049 
420.489063  	96.771647 
421.453487  	86.325645 
422.417912  	80.936883 
423.382336  	86.028062 
424.346761  	82.913182 
425.311185  	80.592221 
426.275610  	83.791026 
427.240034  	80.913929 
428.204458  	86.554987 
429.168883  	88.020703 
430.133307  	85.317671 
431.097732  	85.520651 
432.062156  	81.778533 
433.026581  	82.018006 
433.991005  	84.743570 
434.955430  	84.340479 
435.919854  	83.163855 
436.884279  	80.948650 
437.848703  	80.618414 
438.813127  	85.398826 
439.777552  	84.744187 
440.741976  	82.444478 
441.706401  	84.434398 
442.670825  	82.390861 
443.635250  	80.189073 
444.599674  	82.092390 
445.564099  	81.869208 
446.528523  	81.310393 
447.492948  	81.203229 
448.457372  	81.856579 
449.421796  	83.281707 
450.386221  	80.736291 
451.350645  	80.038040 
452.315070  	81.993234 
453.279494  	79.503697 
454.243919  	79.802671 
455.208343  	80.225395 
456.172768  	78.350474 
457.137192  	79.886341 
458.101617  	80.018190 
459.066041  	79.442082 
460.030466  	79.757904 
460.994890  	78.610291 
461.959314  	79.175540 
462.923739  	79.418463 
463.888163  	78.295269 
464.852588  	78.933433 
465.817012  	79.095092 
466.781437  	78.597304 
467.745861  	79.003643 
468.710286  	78.181471 
469.674710  	77.219632 
470.639135  	77.762104 
471.603559  	77.527917 
472.567983  	78.346058 
473.532408  	79.134070 
474.496832  	76.827228 
475.461257  	77.316410 
476.425681  	76.898023 
477.390106  	77.536845 
478.354530  	78.864279 
479.318955  	76.519533 
480.283379  	76.707965 
481.247804  	77.348695 
482.212228  	76.482183 
483.176652  	76.945812 
484.141077  	77.065079 
485.105501  	76.129949 
486.069926  	76.305896 
487.034350  	75.924845 
487.998775  	76.226145 
488.963199  	76.618623 
489.927624  	76.167054 
490.892048  	76.217781 
491.856473  	75.214933 
492.820897  	75.677095 
493.785321  	76.423130 
494.749746  	75.697573 
495.714170  	75.426833 
496.678595  	75.573279 
497.643019  	75.600648 
498.607444  	75.166934 
499.571868  	75.280049 
500.536293  	75.169831 
501.500717  	74.671408 
502.465142  	74.041046 
503.429566  	74.545776 
504.393990  	75.096509 
505.358415  	74.481263 
506.322839  	74.003077 
507.287264  	74.119794 
508.251688  	74.180814 
509.216113  	74.508799 
510.180537  	74.221401 
511.144962  	73.889034 
512.109386  	74.353418 
513.073811  	74.289076 
514.038235  	74.008607 
515.002660  	73.881133 
515.967084  	72.906562 
516.931508  	72.699701 
517.895933  	73.158741 
518.860357  	72.979198 
519.824782  	72.944831 
520.789206  	72.795770 
521.753631  	72.818030 
522.718055  	73.169002 
523.682480  	72.253597 
524.646904  	72.200525 
525.611329  	72.235469 
526.575753  	71.614169 
527.540177  	71.863982 
528.504602  	71.548686 
529.469026  	71.124819 
530.433451  	71.053887 
531.397875  	70.986172 
532.362300  	70.619121 
533.326724  	70.932348 
534.291149  	70.808901 
535.255573  	70.979739 
536.219998  	71.324055 
537.184422  	71.612557 
538.148846  	71.941096 
539.113271  	72.212657 
540.077695  	72.431761 
541.042120  	72.827084 
542.006544  	72.901031 
542.970969  	73.126839 
543.935393  	73.069542 
544.899818  	72.620183 
545.864242  	73.047373 
546.828667  	72.852617 
547.793091  	72.097682 
548.757515  	72.370068 
549.721940  	72.626514 
550.686364  	72.570054 
551.650789  	72.556888 
552.615213  	72.000071 
553.579638  	72.260516 
554.544062  	72.098205 
555.508487  	71.601340 
556.472911  	71.077232 
557.437336  	70.768475 
558.401760  	70.703903 
559.366184  	70.775134 
560.330609  	70.132734 
561.295033  	69.652407 
562.259458  	69.376073 
563.223882  	68.558302 
564.188307  	68.060492 
565.152731  	67.911213 
566.117156  	67.536105 
567.081580  	66.950190 
568.046005  	66.398892 
569.010429  	65.757697 
569.974853  	65.332888 
570.939278  	64.676082 
571.903702  	64.275059 
572.868127  	63.872096 
573.832551  	63.160792 
574.796976  	63.167717 
575.761400  	62.642054 
576.725825  	62.390825 
577.690249  	62.627461 
578.654674  	62.833583 
579.619098  	63.228504 
580.583523  	63.888472 
581.547947  	64.564873 
582.512371  	65.708003 
583.476796  	66.380748 
584.441220  	66.811423 
585.405645  	67.879781 
586.370069  	68.912742 
587.334494  	69.740655 
588.298918  	70.439838 
589.263343  	70.645740 
590.227767  	71.165999 
591.192192  	71.484068 
592.156616  	71.562390 
593.121040  	72.287301 
594.085465  	72.778626 
595.049889  	72.850601 
596.014314  	73.250832 
596.978738  	73.439869 
597.943163  	73.591653 
598.907587  	73.621268 
599.872012  	73.507029 
600.836436  	73.921478 
601.800861  	74.046267 
602.765285  	73.998958 
603.729709  	74.235962 
604.694134  	74.489235 
605.658558  	74.710604 
606.622983  	74.726918 
607.587407  	74.499553 
608.551832  	74.684195 
609.516256  	74.848278 
610.480681  	74.616223 
611.445105  	74.705148 
612.409530  	74.817954 
613.373954  	75.161265 
614.338378  	74.956279 
615.302803  	74.638674 
616.267227  	74.613146 
617.231652  	74.691769 
618.196076  	74.842335 
619.160501  	74.833311 
620.124925  	74.784694 
621.089350  	74.848203 
622.053774  	74.750768 
623.018199  	75.020576 
623.982623  	75.051084 
624.947047  	74.965467 
625.911472  	74.758717 
626.875896  	74.764331 
627.840321  	74.792660 
628.804745  	74.922583 
629.769170  	74.840180 
630.733594  	74.863765 
631.698019  	74.818827 
632.662443  	74.622571 
633.626868  	74.573640 
634.591292  	74.711548 
635.555717  	74.519731 
636.520141  	74.501645 
637.484565  	74.395831 
638.448990  	74.286809 
639.413414  	74.345287 
640.377839  	74.290949 
641.342263  	73.998297 
642.306688  	73.808451 
643.271112  	73.665453 
644.235537  	73.583897 
645.199961  	73.615893 
646.164386  	73.554858 
647.128810  	73.324966 
648.093234  	73.152979 
649.057659  	72.881400 
650.022083  	72.826840 
650.986508  	72.665431 
651.950932  	72.520907 
652.915357  	72.221522 
653.879781  	71.959256 
654.844206  	71.776315 
655.808630  	71.489835 
656.773055  	71.254897 
657.737479  	71.106842 
658.701903  	70.707430 
659.666328  	70.419326 
660.630752  	70.213830 
661.595177  	69.876132 
662.559601  	69.606104 
663.524026  	69.333159 
664.488450  	69.018010 
665.452875  	68.819307 
666.417299  	68.527978 
667.381724  	68.437917 
668.346148  	68.265019 
669.310572  	67.830321 
670.274997  	67.581544 
671.239421  	67.263747 
672.203846  	67.037850 
673.168270  	66.885100 
674.132695  	66.515491 
675.097119  	66.254791 
676.061544  	66.086150 
677.025968  	65.921807 
677.990393  	65.836169 
678.954817  	65.659395 
679.919241  	65.575018 
680.883666  	65.623926 
681.848090  	65.490221 
682.812515  	65.330260 
683.776939  	65.273719 
684.741364  	65.385321 
685.705788  	65.489034 
686.670213  	65.617371 
687.634637  	65.710456 
688.599062  	65.982500 
689.563486  	66.277626 
690.527910  	66.615196 
691.492335  	66.997198 
692.456759  	67.460105 
693.421184  	67.939978 
694.385608  	68.507341 
695.350033  	68.955220 
696.314457  	69.364141 
697.278882  	69.765172 
698.243306  	70.164423 
699.207731  	70.566120 
700.172155  	71.038144 
701.136580  	71.376528 
702.101004  	71.610478 
703.065428  	71.857429 
704.029853  	72.118022 
704.994277  	72.439135 
705.958702  	72.793364 
706.923126  	72.977075 
707.887551  	73.200299 
708.851975  	73.457016 
709.816400  	73.593246 
710.780824  	73.749654 
711.745249  	73.886120 
712.709673  	74.029175 
713.674097  	73.986757 
714.638522  	74.070138 
715.602946  	74.231429 
716.567371  	74.279202 
717.531795  	74.376913 
718.496220  	74.355745 
719.460644  	74.290061 
720.425069  	74.351198 
721.389493  	74.450131 
722.353918  	74.439641 
723.318342  	74.407729 
724.282766  	74.440559 
725.247191  	74.496227 
726.211615  	74.441734 
727.176040  	74.285422 
728.140464  	74.190923 
729.104889  	74.251589 
730.069313  	74.469547 
731.033738  	75.020394 
731.998162  	75.667038 
732.962587  	76.340290 
733.927011  	77.030353 
734.891435  	77.664808 
735.855860  	78.312472 
736.820284  	79.033872 
737.784709  	79.681501 
738.749133  	80.321383 
739.713558  	80.770132 
740.677982  	81.070796 
741.642407  	81.429866 
742.606831  	81.744169 
743.571256  	82.018033 
744.535680  	82.195434 
745.500104  	82.341020 
746.464529  	82.442340 
747.428953  	82.508763 
748.393378  	82.626755 
749.357802  	82.683571 
750.322227  	82.706197 
751.286651  	82.779168 
752.251076  	82.968630 
753.215500  	83.093870 
754.179925  	83.274597 
755.144349  	83.308966 
756.108774  	83.399845 
757.073198  	83.596012 
758.037622  	83.636645 
759.002047  	83.692916 
759.966471  	83.860213 
760.930896  	83.984353 
761.895320  	84.173653 
762.859745  	84.380574 
763.824169  	84.499594 
764.788594  	84.615218 
765.753018  	84.752796 
766.717443  	84.787664 
767.681867  	84.785197 
768.646291  	84.858482 
769.610716  	85.032562 
770.575140  	85.146528 
771.539565  	85.297565 
772.503989  	85.367749 
773.468414  	85.546886 
774.432838  	85.681189 
775.397263  	85.839991 
776.361687  	85.933715 
777.326112  	85.955695 
778.290536  	86.109089 
779.254960  	86.233621 
780.219385  	86.448818 
781.183809  	86.572143 
782.148234  	86.360964 
783.112658  	86.672604 
784.077083  	86.702273 
785.041507  	86.678683 
786.005932  	86.886404 
786.970356  	86.780941 
787.934781  	86.716296 
788.899205  	86.757088 
789.863629  	86.898808 
790.828054  	87.028148 
791.792478  	86.968482 
792.756903  	86.915129 
793.721327  	86.986362 
794.685752  	86.934089 
795.650176  	87.056217 
796.614601  	87.218268 
797.579025  	87.265376 
798.543450  	87.220319 
799.507874  	87.335904 
800.472298  	87.631307 
801.436723  	87.806788 
802.401147  	87.855023 
803.365572  	88.029142 
804.329996  	88.176284 
805.294421  	88.236277 
806.258845  	88.293548 
807.223270  	88.441472 
808.187694  	88.420857 
809.152119  	88.494415 
810.116543  	88.631502 
811.080967  	88.673799 
812.045392  	88.681530 
813.009816  	88.711771 
813.974241  	88.866172 
814.938665  	89.056623 
815.903090  	89.087310 
816.867514  	89.075859 
817.831939  	89.182551 
818.796363  	89.354583 
819.760788  	89.444510 
820.725212  	89.482025 
821.689637  	89.487383 
822.654061  	89.545309 
823.618485  	89.637715 
824.582910  	89.689413 
825.547334  	89.608432 
826.511759  	89.599351 
827.476183  	89.745759 
828.440608  	89.886383 
829.405032  	89.905460 
830.369457  	89.886821 
831.333881  	89.962768 
832.298306  	90.078486 
833.262730  	90.077562 
834.227154  	90.137010 
835.191579  	90.275218 
836.156003  	90.265052 
837.120428  	90.183325 
838.084852  	90.249131 
839.049277  	90.352266 
840.013701  	90.409400 
840.978126  	90.342713 
841.942550  	90.350784 
842.906975  	90.469396 
843.871399  	90.497309 
844.835823  	90.354783 
845.800248  	90.433079 
846.764672  	90.546298 
847.729097  	90.624149 
848.693521  	90.626846 
849.657946  	90.587522 
850.622370  	90.654684 
851.586795  	90.673527 
852.551219  	90.550918 
853.515644  	90.626219 
854.480068  	90.719990 
855.444492  	90.673231 
856.408917  	90.620201 
857.373341  	90.590467 
858.337766  	90.712414 
859.302190  	90.790805 
860.266615  	90.760397 
861.231039  	90.836499 
862.195464  	90.868095 
863.159888  	90.850519 
864.124313  	90.853167 
865.088737  	90.807375 
866.053161  	90.800457 
867.017586  	90.820195 
867.982010  	90.798104 
868.946435  	90.879347 
869.910859  	90.915667 
870.875284  	90.845127 
871.839708  	90.865042 
872.804133  	90.858528 
873.768557  	90.849368 
874.732982  	90.832523 
875.697406  	90.694064 
876.661831  	90.623439 
877.626255  	90.699768 
878.590679  	90.755046 
879.555104  	90.791819 
880.519528  	90.738840 
881.483953  	90.615049 
882.448377  	90.634066 
883.412802  	90.586760 
884.377226  	90.571033 
885.341651  	90.706226 
886.306075  	90.602003 
887.270500  	90.530252 
888.234924  	90.625515 
889.199348  	90.534693 
890.163773  	90.433934 
891.128197  	90.446729 
892.092622  	90.484220 
893.057046  	90.382531 
894.021471  	90.294226 
894.985895  	90.335489 
895.950320  	90.221354 
896.914744  	89.989684 
897.879169  	89.875174 
898.843593  	89.745494 
899.808017  	89.508947 
900.772442  	89.250988 
901.736866  	88.887195 
902.701291  	88.625625 
903.665715  	88.377648 
904.630140  	88.059437 
905.594564  	87.858491 
906.558989  	87.935407 
907.523413  	88.246192 
908.487838  	88.552054 
909.452262  	88.745373 
910.416686  	89.002136 
911.381111  	89.185370 
912.345535  	89.144021 
913.309960  	89.128123 
914.274384  	89.094082 
915.238809  	89.001271 
916.203233  	88.879961 
917.167658  	88.742686 
918.132082  	88.581300 
919.096507  	88.471955 
920.060931  	88.365618 
921.025355  	88.195310 
921.989780  	87.973498 
922.954204  	87.738985 
923.918629  	87.446910 
924.883053  	87.121782 
925.847478  	86.782543 
926.811902  	86.406971 
927.776327  	85.914066 
928.740751  	85.354516 
929.705176  	84.753089 
930.669600  	84.072015 
931.634024  	83.373357 
932.598449  	82.720456 
933.562873  	82.244892 
934.527298  	82.107930 
935.491722  	82.287809 
936.456147  	82.890085 
937.420571  	83.769108 
938.384996  	84.699207 
939.349420  	85.632415 
940.313845  	86.441314 
941.278269  	87.133936 
942.242694  	87.657679 
943.207118  	88.040078 
944.171542  	88.398970 
945.135967  	88.712637 
946.100391  	88.926613 
947.064816  	89.086076 
948.029240  	89.218463 
948.993665  	89.361683 
949.958089  	89.479259 
950.922514  	89.573155 
951.886938  	89.722215 
952.851363  	89.777349 
953.815787  	89.787155 
954.780211  	89.855564 
955.744636  	89.953362 
956.709060  	90.057139 
957.673485  	90.108517 
958.637909  	90.093950 
959.602334  	90.102206 
960.566758  	90.157293 
961.531183  	90.178169 
962.495607  	90.184873 
963.460032  	90.227357 
964.424456  	90.287502 
965.388880  	90.263446 
966.353305  	90.272792 
967.317729  	90.364414 
968.282154  	90.390792 
969.246578  	90.366509 
970.211003  	90.343964 
971.175427  	90.346047 
972.139852  	90.340635 
973.104276  	90.305042 
974.068701  	90.301860 
975.033125  	90.294624 
975.997549  	90.252065 
976.961974  	90.223744 
977.926398  	90.201862 
978.890823  	90.211601 
979.855247  	90.159929 
980.819672  	90.065361 
981.784096  	90.057383 
982.748521  	90.002306 
983.712945  	89.879201 
984.677370  	89.734439 
985.641794  	89.637059 
986.606218  	89.624509 
987.570643  	89.568266 
988.535067  	89.495825 
989.499492  	89.482942 
990.463916  	89.496465 
991.428341  	89.482172 
992.392765  	89.390261 
993.357190  	89.293153 
994.321614  	89.257173 
995.286039  	89.226621 
996.250463  	89.147302 
997.214888  	89.122193 
998.179312  	89.110535 
999.143736  	89.039342 
1000.108161  	88.965437 
1001.072585  	88.934035 
1002.037010  	88.923882 
1003.001434  	88.875579 
1003.965859  	88.805660 
1004.930283  	88.761671 
1005.894708  	88.654630 
1006.859132  	88.500679 
1007.823557  	88.428272 
1008.787981  	88.345321 
1009.752405  	88.257751 
1010.716830  	88.141495 
1011.681254  	88.036485 
1012.645679  	88.047409 
1013.610103  	88.024761 
1014.574528  	87.953994 
1015.538952  	87.926858 
1016.503377  	87.934661 
1017.467801  	87.944236 
1018.432226  	87.905292 
1019.396650  	87.898945 
1020.361074  	87.946992 
1021.325499  	87.955234 
1022.289923  	87.937533 
1023.254348  	87.936436 
1024.218772  	87.855894 
1025.183197  	87.762682 
1026.147621  	87.714493 
1027.112046  	87.658551 
1028.076470  	87.611321 
1029.040895  	87.527017 
1030.005319  	87.449725 
1030.969743  	87.409451 
1031.934168  	87.359579 
1032.898592  	87.351743 
1033.863017  	87.294109 
1034.827441  	87.136879 
1035.791866  	87.058020 
1036.756290  	87.008951 
1037.720715  	86.937328 
1038.685139  	86.877748 
1039.649564  	86.843619 
1040.613988  	86.855069 
1041.578412  	86.862845 
1042.542837  	86.844622 
1043.507261  	86.941875 
1044.471686  	87.014576 
1045.436110  	87.051807 
1046.400535  	87.162740 
1047.364959  	87.238835 
1048.329384  	87.276997 
1049.293808  	87.377045 
1050.258233  	87.493478 
1051.222657  	87.552959 
1052.187081  	87.502342 
1053.151506  	87.462114 
1054.115930  	87.508336 
1055.080355  	87.492897 
1056.044779  	87.436131 
1057.009204  	87.369720 
1057.973628  	87.315218 
1058.938053  	87.297534 
1059.902477  	87.203374 
1060.866902  	87.082500 
1061.831326  	87.106166 
1062.795751  	87.099776 
1063.760175  	87.014518 
1064.724599  	86.994832 
1065.689024  	87.046459 
1066.653448  	87.138953 
1067.617873  	87.231061 
1068.582297  	87.321394 
1069.546722  	87.513528 
1070.511146  	87.726600 
1071.475571  	87.870599 
1072.439995  	87.958521 
1073.404420  	88.037942 
1074.368844  	88.075329 
1075.333268  	88.079322 
1076.297693  	88.050660 
1077.262117  	87.981563 
1078.226542  	88.026454 
1079.190966  	88.075032 
1080.155391  	88.008575 
1081.119815  	87.979792 
1082.084240  	87.944308 
1083.048664  	87.891491 
1084.013089  	87.890039 
1084.977513  	87.844805 
1085.941937  	87.728680 
1086.906362  	87.605398 
1087.870786  	87.527659 
1088.835211  	87.483185 
1089.799635  	87.406246 
1090.764060  	87.310800 
1091.728484  	87.284119 
1092.692909  	87.300420 
1093.657333  	87.248974 
1094.621758  	87.140947 
1095.586182  	87.158587 
1096.550606  	87.184136 
1097.515031  	87.154044 
1098.479455  	87.130766 
1099.443880  	87.136353 
1100.408304  	87.172414 
1101.372729  	87.176956 
1102.337153  	87.184780 
1103.301578  	87.217762 
1104.266002  	87.238456 
1105.230427  	87.237483 
1106.194851  	87.238171 
1107.159275  	87.265921 
1108.123700  	87.256189 
1109.088124  	87.238280 
1110.052549  	87.246316 
1111.016973  	87.254763 
1111.981398  	87.251599 
1112.945822  	87.248313 
1113.910247  	87.243769 
1114.874671  	87.253840 
1115.839096  	87.234737 
1116.803520  	87.205480 
1117.767945  	87.144146 
1118.732369  	87.069736 
1119.696793  	87.058510 
1120.661218  	86.979124 
1121.625642  	86.827362 
1122.590067  	86.787639 
1123.554491  	86.704621 
1124.518916  	86.555484 
1125.483340  	86.482603 
1126.447765  	86.416204 
1127.412189  	86.305939 
1128.376614  	86.135112 
1129.341038  	85.943072 
1130.305462  	85.789741 
1131.269887  	85.578463 
1132.234311  	85.257571 
1133.198736  	84.908543 
1134.163160  	84.448547 
1135.127585  	83.944021 
1136.092009  	83.408212 
1137.056434  	82.949535 
1138.020858  	82.709287 
1138.985283  	82.565155 
1139.949707  	82.512686 
1140.914131  	82.601785 
1141.878556  	82.669769 
1142.842980  	82.684294 
1143.807405  	82.725067 
1144.771829  	82.752146 
1145.736254  	82.780495 
1146.700678  	82.785950 
1147.665103  	82.764580 
1148.629527  	82.874624 
1149.593952  	83.039213 
1150.558376  	83.232447 
1151.522800  	83.444895 
1152.487225  	83.658912 
1153.451649  	83.888055 
1154.416074  	84.121788 
1155.380498  	84.318546 
1156.344923  	84.510525 
1157.309347  	84.637397 
1158.273772  	84.704109 
1159.238196  	84.717825 
1160.202621  	84.708623 
1161.167045  	84.719121 
1162.131469  	84.641256 
1163.095894  	84.484334 
1164.060318  	84.357572 
1165.024743  	84.196475 
1165.989167  	84.003624 
1166.953592  	83.792235 
1167.918016  	83.533581 
1168.882441  	83.242990 
1169.846865  	82.872629 
1170.811290  	82.436455 
1171.775714  	82.003192 
1172.740138  	81.520929 
1173.704563  	80.935971 
1174.668987  	80.291707 
1175.633412  	79.725937 
1176.597836  	79.243730 
1177.562261  	78.803575 
1178.526685  	78.475435 
1179.491110  	78.361166 
1180.455534  	78.379830 
1181.419959  	78.516716 
1182.384383  	78.705660 
1183.348808  	78.879664 
1184.313232  	79.082145 
1185.277656  	79.259881 
1186.242081  	79.323240 
1187.206505  	79.291938 
1188.170930  	79.131408 
1189.135354  	78.841125 
1190.099779  	78.458000 
1191.064203  	77.960484 
1192.028628  	77.324536 
1192.993052  	76.534237 
1193.957477  	75.697697 
1194.921901  	74.929062 
1195.886325  	74.300905 
1196.850750  	73.956341 
1197.815174  	74.037869 
1198.779599  	74.522654 
1199.744023  	75.355371 
1200.708448  	76.372888 
1201.672872  	77.439516 
1202.637297  	78.490770 
1203.601721  	79.419221 
1204.566146  	80.194575 
1205.530570  	80.862292 
1206.494994  	81.418054 
1207.459419  	81.854723 
1208.423843  	82.176238 
1209.388268  	82.381147 
1210.352692  	82.541890 
1211.317117  	82.613376 
1212.281541  	82.617434 
1213.245966  	82.649402 
1214.210390  	82.667417 
1215.174815  	82.643129 
1216.139239  	82.570806 
1217.103663  	82.467430 
1218.068088  	82.375036 
1219.032512  	82.180165 
1219.996937  	81.903843 
1220.961361  	81.587252 
1221.925786  	81.179154 
1222.890210  	80.746969 
1223.854635  	80.437600 
1224.819059  	80.327435 
1225.783484  	80.503813 
1226.747908  	80.764012 
1227.712332  	80.899545 
1228.676757  	80.948825 
1229.641181  	80.895384 
1230.605606  	80.757276 
1231.570030  	80.577921 
1232.534455  	80.384509 
1233.498879  	80.207206 
1234.463304  	80.046879 
1235.427728  	79.863314 
1236.392153  	79.720009 
1237.356577  	79.625052 
1238.321002  	79.522744 
1239.285426  	79.419877 
1240.249850  	79.322935 
1241.214275  	79.246688 
1242.178699  	79.148172 
1243.143124  	79.011193 
1244.107548  	78.879610 
1245.071973  	78.793021 
1246.036397  	78.674870 
1247.000822  	78.533279 
1247.965246  	78.417505 
1248.929671  	78.301749 
1249.894095  	78.164330 
1250.858519  	78.025768 
1251.822944  	77.882705 
1252.787368  	77.729494 
1253.751793  	77.546478 
1254.716217  	77.360072 
1255.680642  	77.187448 
1256.645066  	76.995458 
1257.609491  	76.749254 
1258.573915  	76.459780 
1259.538340  	76.131009 
1260.502764  	75.822002 
1261.467188  	75.629810 
1262.431613  	75.396661 
1263.396037  	75.107371 
1264.360462  	74.802354 
1265.324886  	74.503490 
1266.289311  	74.208708 
1267.253735  	73.949495 
1268.218160  	73.687014 
1269.182584  	73.395495 
1270.147009  	73.160743 
1271.111433  	72.975071 
1272.075857  	72.796085 
1273.040282  	72.762848 
1274.004706  	72.785601 
1274.969131  	72.884761 
1275.933555  	73.108736 
1276.897980  	73.464455 
1277.862404  	73.949787 
1278.826829  	74.525373 
1279.791253  	75.128097 
1280.755678  	75.794886 
1281.720102  	76.489969 
1282.684526  	77.154401 
1283.648951  	77.744222 
1284.613375  	78.276075 
1285.577800  	78.791029 
1286.542224  	79.198163 
1287.506649  	79.434928 
1288.471073  	79.715188 
1289.435498  	80.092185 
1290.399922  	80.333069 
1291.364347  	80.552068 
1292.328771  	80.773855 
1293.293195  	80.909771 
1294.257620  	81.000908 
1295.222044  	81.055394 
1296.186469  	81.045698 
1297.150893  	81.080545 
1298.115318  	81.210132 
1299.079742  	81.209886 
1300.044167  	81.185120 
1301.008591  	81.186454 
1301.973016  	81.206350 
1302.937440  	81.217850 
1303.901865  	81.276836 
1304.866289  	81.417252 
1305.830713  	81.541481 
1306.795138  	81.608375 
1307.759562  	81.682034 
1308.723987  	81.830522 
1309.688411  	82.036226 
1310.652836  	82.156959 
1311.617260  	82.163234 
1312.581685  	81.992974 
1313.546109  	82.116630 
1314.510534  	82.309580 
1315.474958  	82.495852 
1316.439382  	82.445860 
1317.403807  	82.367870 
1318.368231  	82.339566 
1319.332656  	82.228466 
1320.297080  	82.428341 
1321.261505  	82.554659 
1322.225929  	82.601826 
1323.190354  	82.538936 
1324.154778  	82.474414 
1325.119203  	82.386502 
1326.083627  	82.311793 
1327.048051  	82.200696 
1328.012476  	82.146821 
1328.976900  	82.110295 
1329.941325  	82.085305 
1330.905749  	82.134225 
1331.870174  	82.169384 
1332.834598  	82.129803 
1333.799023  	82.088620 
1334.763447  	82.013556 
1335.727872  	81.727868 
1336.692296  	81.270064 
1337.656720  	81.081464 
1338.621145  	80.492567 
1339.585569  	79.882347 
1340.549994  	80.018400 
1341.514418  	80.832213 
1342.478843  	81.145679 
1343.443267  	81.055177 
1344.407692  	80.918398 
1345.372116  	80.805598 
1346.336541  	80.680320 
1347.300965  	80.521401 
1348.265389  	80.313689 
1349.229814  	80.032295 
1350.194238  	79.869772 
1351.158663  	79.768018 
1352.123087  	79.564070 
1353.087512  	79.329126 
1354.051936  	78.998867 
1355.016361  	78.608918 
1355.980785  	78.576772 
1356.945210  	78.443793 
1357.909634  	78.136640 
1358.874059  	77.997067 
1359.838483  	77.758239 
1360.802907  	77.078627 
1361.767332  	76.538152 
1362.731756  	75.720368 
1363.696181  	75.680601 
1364.660605  	76.448182 
1365.625030  	76.468920 
1366.589454  	76.255440 
1367.553879  	75.881211 
1368.518303  	75.334503 
1369.482728  	75.302124 
1370.447152  	75.561846 
1371.411576  	75.607129 
1372.376001  	75.584884 
1373.340425  	75.247279 
1374.304850  	75.182375 
1375.269274  	75.954147 
1376.233699  	76.904990 
1377.198123  	77.297676 
1378.162548  	77.488049 
1379.126972  	77.914243 
1380.091397  	78.364770 
1381.055821  	78.800887 
1382.020245  	79.059582 
1382.984670  	79.286010 
1383.949094  	79.505627 
1384.913519  	79.688324 
1385.877943  	79.506818 
1386.842368  	78.838653 
1387.806792  	78.979228 
1388.771217  	80.073047 
1389.735641  	80.556872 
1390.700066  	80.736357 
1391.664490  	81.004113 
1392.628914  	81.246275 
1393.593339  	80.913282 
1394.557763  	80.197991 
1395.522188  	80.376367 
1396.486612  	81.101920 
1397.451037  	81.134167 
1398.415461  	80.655801 
1399.379886  	80.665448 
1400.344310  	81.415613 
1401.308735  	81.719195 
1402.273159  	81.602489 
1403.237583  	81.319111 
1404.202008  	80.603308 
1405.166432  	79.797910 
1406.130857  	79.981178 
1407.095281  	79.881289 
1408.059706  	79.269504 
1409.024130  	78.456344 
1409.988555  	77.390527 
1410.952979  	76.162047 
1411.917404  	74.781280 
1412.881828  	73.514180 
1413.846252  	72.145603 
1414.810677  	70.835406 
1415.775101  	69.759792 
1416.739526  	69.339959 
1417.703950  	69.820395 
1418.668375  	70.275916 
1419.632799  	71.932228 
1420.597224  	74.621719 
1421.561648  	75.625779 
1422.526073  	76.230932 
1423.490497  	75.989089 
1424.454922  	76.387898 
1425.419346  	77.524385 
1426.383770  	77.982977 
1427.348195  	78.070696 
1428.312619  	77.907370 
1429.277044  	77.429673 
1430.241468  	77.137064 
1431.205893  	77.385780 
1432.170317  	77.176828 
1433.134742  	76.832551 
1434.099166  	76.825414 
1435.063591  	76.485669 
1436.028015  	75.240118 
1436.992439  	74.856553 
1437.956864  	76.110261 
1438.921288  	76.498733 
1439.885713  	76.602036 
1440.850137  	76.727516 
1441.814562  	76.845678 
1442.778986  	76.936187 
1443.743411  	76.984578 
1444.707835  	76.983453 
1445.672260  	76.968816 
1446.636684  	76.765825 
1447.601108  	76.059670 
1448.565533  	76.088937 
1449.529957  	76.588330 
1450.494382  	76.471677 
1451.458806  	75.859548 
1452.423231  	75.310637 
1453.387655  	75.234086 
1454.352080  	74.564244 
1455.316504  	73.313819 
1456.280929  	72.121406 
1457.245353  	71.291474 
1458.209777  	70.975083 
1459.174202  	71.137104 
1460.138626  	71.466588 
1461.103051  	71.230855 
1462.067475  	70.435437 
1463.031900  	69.681658 
1463.996324  	68.703505 
1464.960749  	68.131190 
1465.925173  	69.410053 
1466.889598  	70.625024 
1467.854022  	71.704788 
1468.818446  	72.626413 
1469.782871  	72.990129 
1470.747295  	72.370680 
1471.711720  	70.702382 
1472.676144  	69.044183 
1473.640569  	68.913021 
1474.604993  	69.655874 
1475.569418  	69.574206 
1476.533842  	70.036972 
1477.498267  	71.943933 
1478.462691  	73.340440 
1479.427116  	74.564699 
1480.391540  	75.590528 
1481.355964  	76.442835 
1482.320389  	77.935316 
1483.284813  	79.013580 
1484.249238  	79.679192 
1485.213662  	79.888739 
1486.178087  	79.598200 
1487.142511  	79.180387 
1488.106936  	79.301956 
1489.071360  	78.389013 
1490.035785  	77.127033 
1491.000209  	77.983348 
1491.964633  	79.073512 
1492.929058  	79.236341 
1493.893482  	78.965509 
1494.857907  	78.350314 
1495.822331  	77.146100 
1496.786756  	76.616930 
1497.751180  	76.722601 
1498.715605  	75.966392 
1499.680029  	75.930909 
1500.644454  	75.879608 
1501.608878  	75.212318 
1502.573302  	74.870491 
1503.537727  	74.613762 
1504.502151  	73.646143 
1505.466576  	71.850168 
1506.431000  	68.697828 
1507.395425  	67.429627 
1508.359849  	68.172803 
1509.324274  	68.555631 
1510.288698  	68.729467 
1511.253123  	68.723520 
1512.217547  	67.840953 
1513.181971  	67.557702 
1514.146396  	67.030930 
1515.110820  	65.593034 
1516.075245  	64.048314 
1517.039669  	62.442579 
1518.004094  	62.710721 
1518.968518  	62.657978 
1519.932943  	61.134842 
1520.897367  	58.650452 
1521.861792  	58.045802 
1522.826216  	58.082641 
1523.790640  	57.910548 
1524.755065  	56.840805 
1525.719489  	55.751552 
1526.683914  	55.241858 
1527.648338  	54.363486 
1528.612763  	53.871302 
1529.577187  	54.011713 
1530.541612  	53.638535 
1531.506036  	52.938914 
1532.470461  	52.380037 
1533.434885  	51.736605 
1534.399309  	52.556493 
1535.363734  	53.293481 
1536.328158  	53.856498 
1537.292583  	54.254342 
1538.257007  	53.808954 
1539.221432  	52.476128 
1540.185856  	54.114490 
1541.150281  	55.424978 
1542.114705  	55.926128 
1543.079130  	57.285528 
1544.043554  	57.704687 
1545.007979  	58.071122 
1545.972403  	59.937117 
1546.936827  	61.333068 
1547.901252  	62.040812 
1548.865676  	62.195520 
1549.830101  	61.785387 
1550.794525  	63.146520 
1551.758950  	64.481184 
1552.723374  	64.915318 
1553.687799  	64.590603 
1554.652223  	64.985890 
1555.616648  	66.405984 
1556.581072  	66.571926 
1557.545496  	65.635372 
1558.509921  	64.024209 
1559.474345  	64.130732 
1560.438770  	67.586774 
1561.403194  	69.834721 
1562.367619  	70.734719 
1563.332043  	71.355708 
1564.296468  	71.547360 
1565.260892  	72.110802 
1566.225317  	73.190155 
1567.189741  	73.791488 
1568.154165  	73.873981 
1569.118590  	73.190981 
1570.083014  	74.168534 
1571.047439  	75.812775 
1572.011863  	76.468804 
1572.976288  	76.906547 
1573.940712  	77.366929 
1574.905137  	77.304261 
1575.869561  	76.668523 
1576.833986  	77.260680 
1577.798410  	78.336895 
1578.762834  	79.019170 
1579.727259  	79.500807 
1580.691683  	79.824564 
1581.656108  	80.048803 
1582.620532  	80.181499 
1583.584957  	80.301735 
1584.549381  	80.384306 
1585.513806  	80.459097 
1586.478230  	80.448025 
1587.442655  	80.439473 
1588.407079  	80.337748 
1589.371503  	80.138057 
1590.335928  	79.915582 
1591.300352  	79.730663 
1592.264777  	79.463265 
1593.229201  	79.192680 
1594.193626  	78.610680 
1595.158050  	78.197450 
1596.122475  	77.811973 
1597.086899  	77.391386 
1598.051324  	76.881004 
1599.015748  	76.279639 
1599.980173  	75.566029 
1600.944597  	74.711028 
1601.909021  	73.761191 
1602.873446  	72.782776 
1603.837870  	71.858076 
1604.802295  	71.103970 
1605.766719  	70.100714 
1606.731144  	68.989106 
1607.695568  	68.017703 
1608.659993  	67.202659 
1609.624417  	66.121674 
1610.588842  	65.417023 
1611.553266  	64.513848 
1612.517690  	63.444884 
1613.482115  	62.279802 
1614.446539  	61.182856 
1615.410964  	59.684091 
1616.375388  	57.839921 
1617.339813  	56.561617 
1618.304237  	56.323377 
1619.268662  	55.553372 
1620.233086  	54.664853 
1621.197511  	53.799415 
1622.161935  	52.799678 
1623.126359  	51.411873 
1624.090784  	51.082138 
1625.055208  	50.934324 
1626.019633  	50.475839 
1626.984057  	49.576755 
1627.948482  	48.895158 
1628.912906  	48.685697 
1629.877331  	48.542388 
1630.841755  	48.263302 
1631.806180  	48.205929 
1632.770604  	48.360713 
1633.735028  	48.492625 
1634.699453  	47.883062 
1635.663877  	48.460942 
1636.628302  	50.230378 
1637.592726  	51.211138 
1638.557151  	52.822195 
1639.521575  	54.054810 
1640.486000  	55.170711 
1641.450424  	56.423272 
1642.414849  	57.635697 
1643.379273  	58.982552 
1644.343697  	60.016412 
1645.308122  	60.313404 
1646.272546  	60.930438 
1647.236971  	62.156635 
1648.201395  	63.780145 
1649.165820  	66.040866 
1650.130244  	67.338061 
1651.094669  	67.943433 
1652.059093  	67.544452 
1653.023518  	66.283787 
1653.987942  	68.536818 
1654.952366  	71.474772 
1655.916791  	73.277814 
1656.881215  	74.348905 
1657.845640  	75.494472 
1658.810064  	76.604238 
1659.774489  	77.508468 
1660.738913  	78.190438 
1661.703338  	78.527508 
1662.667762  	78.885644 
1663.632187  	80.490267 
1664.596611  	81.695446 
1665.561036  	82.560459 
1666.525460  	83.403020 
1667.489884  	83.759778 
1668.454309  	83.259758 
1669.418733  	83.564931 
1670.383158  	85.119866 
1671.347582  	85.432304 
1672.312007  	86.401337 
1673.276431  	87.385811 
1674.240856  	87.378454 
1675.205280  	86.800438 
1676.169705  	88.040272 
1677.134129  	89.092473 
1678.098553  	89.569816 
1679.062978  	89.584758 
1680.027402  	88.871213 
1680.991827  	89.495484 
1681.956251  	90.402910 
1682.920676  	89.685101 
1683.885100  	86.944174 
1684.849525  	87.512933 
1685.813949  	90.823525 
1686.778374  	91.690474 
1687.742798  	91.483586 
1688.707222  	91.299424 
1689.671647  	91.733978 
1690.636071  	92.065765 
1691.600496  	92.702652 
1692.564920  	92.904725 
1693.529345  	92.859629 
1694.493769  	92.386310 
1695.458194  	91.293191 
1696.422618  	90.728090 
1697.387043  	91.543097 
1698.351467  	91.817907 
1699.315891  	91.330431 
1700.280316  	89.167389 
1701.244740  	91.022599 
1702.209165  	92.112751 
1703.173589  	92.352023 
1704.138014  	91.919599 
1705.102438  	91.834027 
1706.066863  	91.864517 
1707.031287  	91.942944 
1707.995712  	92.694283 
1708.960136  	92.965165 
1709.924560  	92.564256 
1710.888985  	92.605467 
1711.853409  	93.013675 
1712.817834  	92.758485 
1713.782258  	91.944179 
1714.746683  	91.008294 
1715.711107  	91.216657 
1716.675532  	91.290243 
1717.639956  	89.965600 
1718.604381  	90.011845 
1719.568805  	91.902441 
1720.533230  	92.596178 
1721.497654  	92.692216 
1722.462078  	92.614249 
1723.426503  	92.280134 
1724.390927  	92.430067 
1725.355352  	92.776466 
1726.319776  	92.791987 
1727.284201  	92.744582 
1728.248625  	92.672921 
1729.213050  	92.004182 
1730.177474  	91.016901 
1731.141899  	91.811041 
1732.106323  	91.929851 
1733.070747  	90.723434 
1734.035172  	88.808076 
1734.999596  	90.424183 
1735.964021  	92.073260 
1736.928445  	92.420747 
1737.892870  	92.392139 
1738.857294  	92.191244 
1739.821719  	91.666319 
1740.786143  	92.435012 
1741.750568  	92.908736 
1742.714992  	92.277012 
1743.679416  	91.597011 
1744.643841  	92.342436 
1745.608265  	92.752335 
1746.572690  	92.561979 
1747.537114  	92.199059 
1748.501539  	91.916910 
1749.465963  	92.097312 
1750.430388  	92.285121 
1751.394812  	91.636209 
1752.359237  	92.817850 
1753.323661  	93.728364 
1754.288085  	94.078859 
1755.252510  	94.080932 
1756.216934  	93.499852 
1757.181359  	93.014827 
1758.145783  	93.596980 
1759.110208  	93.924611 
1760.074632  	94.119422 
1761.039057  	93.579333 
1762.003481  	92.834138 
1762.967906  	93.691744 
1763.932330  	94.285487 
1764.896754  	94.388770 
1765.861179  	94.451442 
1766.825603  	94.227557 
1767.790028  	93.391493 
1768.754452  	93.305030 
1769.718877  	94.109328 
1770.683301  	93.724617 
1771.647726  	92.770626 
1772.612150  	92.420534 
1773.576575  	93.508893 
1774.540999  	93.989842 
1775.505423  	93.693009 
1776.469848  	93.997849 
1777.434272  	94.535588 
1778.398697  	94.361997 
1779.363121  	94.087753 
1780.327546  	93.663474 
1781.291970  	93.665909 
1782.256395  	94.271253 
1783.220819  	94.566988 
1784.185244  	94.231062 
1785.149668  	93.805542 
1786.114093  	94.300560 
1787.078517  	94.620519 
1788.042941  	94.583184 
1789.007366  	94.513220 
1789.971790  	94.243146 
1790.936215  	93.482351 
1791.900639  	93.043722 
1792.865064  	93.042809 
1793.829488  	93.873317 
1794.793913  	94.145955 
1795.758337  	93.608734 
1796.722762  	93.755980 
1797.687186  	94.412718 
1798.651610  	94.369354 
1799.616035  	93.855016 
1800.580459  	93.885763 
1801.544884  	93.668621 
1802.509308  	93.555353 
1803.473733  	94.241447 
1804.438157  	94.638231 
1805.402582  	94.611066 
1806.367006  	94.601123 
1807.331431  	94.364539 
1808.295855  	94.341044 
1809.260279  	94.559141 
1810.224704  	94.095626 
1811.189128  	93.777913 
1812.153553  	94.136496 
1813.117977  	94.441352 
1814.082402  	94.693335 
1815.046826  	94.723735 
1816.011251  	94.795312 
1816.975675  	94.533497 
1817.940100  	94.410536 
1818.904524  	94.685958 
1819.868948  	94.798430 
1820.833373  	94.688289 
1821.797797  	94.593645 
1822.762222  	94.424093 
1823.726646  	94.460408 
1824.691071  	93.911387 
1825.655495  	93.444183 
1826.619920  	94.282802 
1827.584344  	94.543383 
1828.548769  	94.106111 
1829.513193  	93.126431 
1830.477617  	93.290322 
1831.442042  	94.301582 
1832.406466  	94.484377 
1833.370891  	94.394609 
1834.335315  	94.627118 
1835.299740  	94.785170 
1836.264164  	94.550225 
1837.228589  	94.131984 
1838.193013  	94.321234 
1839.157438  	94.593356 
1840.121862  	94.634431 
1841.086287  	94.618371 
1842.050711  	94.302980 
1843.015135  	93.960016 
1843.979560  	93.281865 
1844.943984  	93.367044 
1845.908409  	94.011564 
1846.872833  	94.134546 
1847.837258  	93.758476 
1848.801682  	94.040441 
1849.766107  	94.517553 
1850.730531  	94.690126 
1851.694956  	94.659327 
1852.659380  	94.648433 
1853.623804  	94.693059 
1854.588229  	94.675057 
1855.552653  	94.614482 
1856.517078  	94.560215 
1857.481502  	94.521953 
1858.445927  	94.427886 
1859.410351  	94.377729 
1860.374776  	94.454506 
1861.339200  	94.411860 
1862.303625  	94.444529 
1863.268049  	94.557766 
1864.232473  	94.616097 
1865.196898  	94.574650 
1866.161322  	94.286821 
1867.125747  	93.878693 
1868.090171  	93.460154 
1869.054596  	93.115668 
1870.019020  	93.593708 
1870.983445  	94.153825 
1871.947869  	94.470469 
1872.912294  	94.674296 
1873.876718  	94.746526 
1874.841142  	94.728788 
1875.805567  	94.711312 
1876.769991  	94.722387 
1877.734416  	94.729516 
1878.698840  	94.612163 
1879.663265  	94.530038 
1880.627689  	94.583703 
1881.592114  	94.607287 
1882.556538  	94.588761 
1883.520963  	94.633607 
1884.485387  	94.522761 
1885.449811  	94.462933 
1886.414236  	94.626100 
1887.378660  	94.704188 
1888.343085  	94.469926 
1889.307509  	93.767354 
1890.271934  	93.718894 
1891.236358  	94.323221 
1892.200783  	94.492452 
1893.165207  	94.574758 
1894.129632  	94.465661 
1895.094056  	94.072561 
1896.058480  	94.199439 
1897.022905  	94.580384 
1897.987329  	94.546838 
1898.951754  	94.523975 
1899.916178  	94.569684 
1900.880603  	94.614748 
1901.845027  	94.517869 
1902.809452  	94.611764 
1903.773876  	94.673601 
1904.738301  	94.673407 
1905.702725  	94.523794 
1906.667150  	94.531192 
1907.631574  	94.405224 
1908.595998  	94.357014 
1909.560423  	94.164591 
1910.524847  	94.178481 
1911.489272  	94.594116 
1912.453696  	94.642213 
1913.418121  	94.533496 
1914.382545  	94.460294 
1915.346970  	94.546096 
1916.311394  	94.626891 
1917.275819  	94.180488 
1918.240243  	93.652696 
1919.204667  	94.165985 
1920.169092  	94.492514 
1921.133516  	94.355257 
1922.097941  	93.916311 
1923.062365  	93.492465 
1924.026790  	94.294138 
1924.991214  	94.789681 
1925.955639  	94.676276 
1926.920063  	94.681839 
1927.884488  	94.754911 
1928.848912  	94.711986 
1929.813336  	94.654556 
1930.777761  	94.743496 
1931.742185  	94.732934 
1932.706610  	94.673899 
1933.671034  	94.768576 
1934.635459  	94.733065 
1935.599883  	94.692630 
1936.564308  	94.732343 
1937.528732  	94.685670 
1938.493157  	94.787974 
1939.457581  	94.963545 
1940.422005  	94.806792 
1941.386430  	94.275431 
1942.350854  	93.467490 
1943.315279  	93.905070 
1944.279703  	94.597417 
1945.244128  	94.453989 
1946.208552  	94.328531 
1947.172977  	94.530063 
1948.137401  	94.655540 
1949.101826  	94.644286 
1950.066250  	94.888800 
1951.030674  	95.015689 
1951.995099  	94.918875 
1952.959523  	94.918041 
1953.923948  	94.734193 
1954.888372  	94.616399 
1955.852797  	94.568753 
1956.817221  	94.883321 
1957.781646  	95.163863 
1958.746070  	95.092644 
1959.710495  	95.054355 
1960.674919  	94.863500 
1961.639344  	94.764059 
1962.603768  	94.666189 
1963.568192  	94.647812 
1964.532617  	95.029567 
1965.497041  	95.114133 
1966.461466  	94.800722 
1967.425890  	94.489431 
1968.390315  	94.901219 
1969.354739  	94.970099 
1970.319164  	94.982749 
1971.283588  	95.048641 
1972.248013  	95.042642 
1973.212437  	95.091732 
1974.176861  	94.963385 
1975.141286  	94.836187 
1976.105710  	95.269306 
1977.070135  	95.537532 
1978.034559  	95.137511 
1978.998984  	94.387575 
1979.963408  	94.344440 
1980.927833  	94.597129 
1981.892257  	94.639024 
1982.856682  	94.489205 
1983.821106  	94.514853 
1984.785530  	94.527694 
1985.749955  	94.514260 
1986.714379  	94.655746 
1987.678804  	94.656493 
1988.643228  	94.437737 
1989.607653  	94.773854 
1990.572077  	94.694482 
1991.536502  	94.212055 
1992.500926  	93.983669 
1993.465351  	94.288656 
1994.429775  	94.528041 
1995.394199  	94.557101 
1996.358624  	94.536862 
1997.323048  	94.583090 
1998.287473  	94.628626 
1999.251897  	94.960988 
2000.216322  	95.071976 
2001.180746  	95.306034 
2002.145171  	95.224617 
2003.109595  	95.130221 
2004.074020  	95.211396 
2005.038444  	95.407478 
2006.002868  	95.208940 
2006.967293  	95.006824 
2007.931717  	94.508546 
2008.896142  	94.612617 
2009.860566  	95.032334 
2010.824991  	95.082374 
2011.789415  	94.931874 
2012.753840  	95.045475 
2013.718264  	95.017540 
2014.682689  	94.966786 
2015.647113  	94.944360 
2016.611537  	94.695428 
2017.575962  	94.431199 
2018.540386  	94.386305 
2019.504811  	94.702781 
2020.469235  	95.138728 
2021.433660  	95.102069 
2022.398084  	95.153829 
2023.362509  	95.174870 
2024.326933  	95.091855 
2025.291358  	94.676031 
2026.255782  	94.431424 
2027.220207  	94.511061 
2028.184631  	94.709001 
2029.149055  	94.549597 
2030.113480  	94.642743 
2031.077904  	94.946506 
2032.042329  	94.833626 
2033.006753  	94.751233 
2033.971178  	94.691981 
2034.935602  	94.695070 
2035.900027  	95.087723 
2036.864451  	94.832335 
2037.828876  	94.781049 
2038.793300  	94.795688 
2039.757724  	94.578743 
2040.722149  	94.447740 
2041.686573  	94.217023 
2042.650998  	94.466508 
2043.615422  	94.697541 
2044.579847  	94.501811 
2045.544271  	94.766222 
2046.508696  	94.851389 
2047.473120  	94.659676 
2048.437545  	94.793094 
2049.401969  	94.862983 
2050.366393  	94.513847 
2051.330818  	94.493670 
2052.295242  	94.741481 
2053.259667  	94.865983 
2054.224091  	94.633609 
2055.188516  	94.352363 
2056.152940  	94.342328 
2057.117365  	94.261598 
2058.081789  	94.267463 
2059.046214  	94.579235 
2060.010638  	94.478560 
2060.975062  	94.290340 
2061.939487  	94.491556 
2062.903911  	94.509088 
2063.868336  	94.380181 
2064.832760  	94.192650 
2065.797185  	94.213825 
2066.761609  	94.537032 
2067.726034  	94.505606 
2068.690458  	94.413305 
2069.654883  	94.539069 
2070.619307  	94.454671 
2071.583731  	94.322792 
2072.548156  	94.479596 
2073.512580  	94.510496 
2074.477005  	94.491288 
2075.441429  	94.426739 
2076.405854  	94.389281 
2077.370278  	94.376118 
2078.334703  	94.365933 
2079.299127  	94.373626 
2080.263552  	94.305965 
2081.227976  	94.230122 
2082.192401  	94.362558 
2083.156825  	94.349106 
2084.121249  	94.308445 
2085.085674  	94.471678 
2086.050098  	94.557802 
2087.014523  	94.504849 
2087.978947  	94.509709 
2088.943372  	94.394852 
2089.907796  	94.284361 
2090.872221  	94.305703 
2091.836645  	94.574915 
2092.801070  	94.672836 
2093.765494  	94.626410 
2094.729918  	94.490339 
2095.694343  	94.399305 
2096.658767  	94.334791 
2097.623192  	94.482802 
2098.587616  	94.507466 
2099.552041  	94.576865 
2100.516465  	94.619168 
2101.480890  	94.481931 
2102.445314  	94.316895 
2103.409739  	94.346344 
2104.374163  	94.354282 
2105.338587  	94.328299 
2106.303012  	94.301162 
2107.267436  	94.319709 
2108.231861  	94.325318 
2109.196285  	94.327499 
2110.160710  	94.398138 
2111.125134  	94.509481 
2112.089559  	94.381697 
2113.053983  	94.377611 
2114.018408  	94.387028 
2114.982832  	94.348925 
2115.947256  	94.385526 
2116.911681  	94.412165 
2117.876105  	94.585358 
2118.840530  	94.643240 
2119.804954  	94.531164 
2120.769379  	94.554485 
2121.733803  	94.594419 
2122.698228  	94.630066 
2123.662652  	94.610437 
2124.627077  	94.575632 
2125.591501  	94.734835 
2126.555925  	94.896793 
2127.520350  	94.784797 
2128.484774  	94.774850 
2129.449199  	94.897979 
2130.413623  	94.931580 
2131.378048  	94.952323 
2132.342472  	95.071666 
2133.306897  	95.131235 
2134.271321  	94.956911 
2135.235746  	94.658179 
2136.200170  	94.564174 
2137.164594  	94.692456 
2138.129019  	94.791367 
2139.093443  	94.970250 
2140.057868  	95.190876 
2141.022292  	95.236875 
2141.986717  	94.988452 
2142.951141  	94.747668 
2143.915566  	94.941152 
2144.879990  	94.790822 
2145.844415  	94.880744 
2146.808839  	94.904030 
2147.773264  	94.947988 
2148.737688  	94.923599 
2149.702112  	94.878693 
2150.666537  	94.900480 
2151.630961  	94.863475 
2152.595386  	94.824060 
2153.559810  	94.924380 
2154.524235  	95.268045 
2155.488659  	95.528538 
2156.453084  	95.798299 
2157.417508  	95.784470 
2158.381933  	94.949726 
2159.346357  	94.268537 
2160.310781  	94.229772 
2161.275206  	94.212879 
2162.239630  	94.399502 
2163.204055  	94.902032 
2164.168479  	94.679240 
2165.132904  	94.532180 
2166.097328  	94.349268 
2167.061753  	94.721274 
2168.026177  	94.780247 
2168.990602  	94.443699 
2169.955026  	94.448929 
2170.919450  	94.757130 
2171.883875  	94.799072 
2172.848299  	94.710933 
2173.812724  	94.704827 
2174.777148  	94.888527 
2175.741573  	94.743441 
2176.705997  	94.336148 
2177.670422  	94.233667 
2178.634846  	94.569891 
2179.599271  	94.559757 
2180.563695  	94.731692 
2181.528119  	94.711366 
2182.492544  	94.410916 
2183.456968  	93.991886 
2184.421393  	94.140295 
2185.385817  	94.628047 
2186.350242  	94.683066 
2187.314666  	94.165532 
2188.279091  	94.123532 
2189.243515  	94.166473 
2190.207940  	94.312030 
2191.172364  	94.458799 
2192.136788  	94.507845 
2193.101213  	94.594129 
2194.065637  	94.694345 
2195.030062  	94.441761 
2195.994486  	94.227455 
2196.958911  	94.110821 
2197.923335  	94.269939 
2198.887760  	94.303338 
2199.852184  	94.430248 
2200.816609  	94.561996 
2201.781033  	94.574300 
2202.745458  	94.543468 
2203.709882  	94.601060 
2204.674306  	94.461229 
2205.638731  	94.389039 
2206.603155  	94.489449 
2207.567580  	94.498344 
2208.532004  	94.420663 
2209.496429  	94.316266 
2210.460853  	94.317837 
2211.425278  	94.423352 
2212.389702  	94.260524 
2213.354127  	94.051544 
2214.318551  	94.135552 
2215.282975  	94.358907 
2216.247400  	94.348846 
2217.211824  	94.481676 
2218.176249  	94.555671 
2219.140673  	94.571455 
2220.105098  	94.454734 
2221.069522  	94.489246 
2222.033947  	94.468912 
2222.998371  	94.380166 
2223.962796  	94.304773 
2224.927220  	94.489412 
2225.891644  	94.336531 
2226.856069  	94.074227 
2227.820493  	94.164326 
2228.784918  	94.484296 
2229.749342  	94.524640 
2230.713767  	94.451027 
2231.678191  	94.351544 
2232.642616  	94.344169 
2233.607040  	94.495234 
2234.571465  	94.549390 
2235.535889  	94.429050 
2236.500313  	94.335543 
2237.464738  	94.363862 
2238.429162  	94.403688 
2239.393587  	94.249933 
2240.358011  	94.309972 
2241.322436  	94.611843 
2242.286860  	94.553976 
2243.251285  	94.414545 
2244.215709  	94.404276 
2245.180134  	94.181866 
2246.144558  	94.149494 
2247.108982  	94.418787 
2248.073407  	94.495851 
2249.037831  	94.336098 
2250.002256  	94.222681 
2250.966680  	94.304910 
2251.931105  	94.435761 
2252.895529  	94.378847 
2253.859954  	94.397626 
2254.824378  	94.355532 
2255.788803  	94.389036 
2256.753227  	94.393615 
2257.717651  	94.369137 
2258.682076  	94.280897 
2259.646500  	94.309123 
2260.610925  	94.281145 
2261.575349  	94.252136 
2262.539774  	94.255239 
2263.504198  	94.376151 
2264.468623  	94.361483 
2265.433047  	94.287615 
2266.397472  	94.362676 
2267.361896  	94.369648 
2268.326321  	94.306858 
2269.290745  	94.256032 
2270.255169  	94.248379 
2271.219594  	94.363461 
2272.184018  	94.330957 
2273.148443  	94.226191 
2274.112867  	94.200965 
2275.077292  	94.176063 
2276.041716  	94.113948 
2277.006141  	94.213413 
2277.970565  	94.187460 
2278.934990  	94.223003 
2279.899414  	94.250264 
2280.863838  	94.211654 
2281.828263  	94.155832 
2282.792687  	94.100783 
2283.757112  	94.092256 
2284.721536  	94.122199 
2285.685961  	93.992134 
2286.650385  	94.001248 
2287.614810  	94.070461 
2288.579234  	94.041583 
2289.543659  	94.038120 
2290.508083  	94.101054 
2291.472507  	94.084490 
2292.436932  	94.125838 
2293.401356  	94.053129 
2294.365781  	94.063111 
2295.330205  	94.091012 
2296.294630  	94.083063 
2297.259054  	94.106741 
2298.223479  	94.015638 
2299.187903  	93.971091 
2300.152328  	94.055143 
2301.116752  	94.037569 
2302.081176  	94.052987 
2303.045601  	94.038885 
2304.010025  	94.034277 
2304.974450  	93.955918 
2305.938874  	93.991529 
2306.903299  	93.961964 
2307.867723  	94.073959 
2308.832148  	93.932201 
2309.796572  	93.988526 
2310.760997  	93.957450 
2311.725421  	94.015536 
2312.689845  	94.072087 
2313.654270  	94.172543 
2314.618694  	94.182000 
2315.583119  	94.367677 
2316.547543  	94.278107 
2317.511968  	94.365624 
2318.476392  	94.384864 
2319.440817  	94.326163 
2320.405241  	94.309176 
2321.369666  	94.511766 
2322.334090  	94.505272 
2323.298515  	94.555359 
2324.262939  	94.527050 
2325.227363  	94.809410 
2326.191788  	95.125385 
2327.156212  	95.338112 
2328.120637  	95.419346 
2329.085061  	95.467892 
2330.049486  	95.496342 
2331.013910  	95.575264 
2331.978335  	95.645392 
2332.942759  	95.774007 
2333.907184  	95.910706 
2334.871608  	95.971625 
2335.836032  	96.142563 
2336.800457  	96.235389 
2337.764881  	96.156827 
2338.729306  	96.202055 
2339.693730  	96.132835 
2340.658155  	96.242138 
2341.622579  	96.427258 
2342.587004  	96.258186 
2343.551428  	96.042521 
2344.515853  	95.884140 
2345.480277  	95.712132 
2346.444701  	95.519694 
2347.409126  	95.196184 
2348.373550  	94.875014 
2349.337975  	94.757076 
2350.302399  	95.006103 
2351.266824  	95.478109 
2352.231248  	95.882490 
2353.195673  	95.999057 
2354.160097  	96.149814 
2355.124522  	96.176347 
2356.088946  	96.466494 
2357.053370  	96.843345 
2358.017795  	96.922237 
2358.982219  	96.854764 
2359.946644  	97.069794 
2360.911068  	97.123509 
2361.875493  	97.119020 
2362.839917  	96.900768 
2363.804342  	96.860438 
2364.768766  	96.927289 
2365.733191  	96.768163 
2366.697615  	96.613232 
2367.662039  	96.467182 
2368.626464  	96.204443 
2369.590888  	96.022690 
2370.555313  	95.673404 
2371.519737  	95.389717 
2372.484162  	95.252247 
2373.448586  	95.085809 
2374.413011  	94.985883 
2375.377435  	94.790359 
2376.341860  	94.509337 
2377.306284  	94.440057 
2378.270708  	94.290977 
2379.235133  	94.142594 
2380.199557  	94.177837 
2381.163982  	94.178234 
2382.128406  	94.225384 
2383.092831  	94.259624 
2384.057255  	94.168670 
2385.021680  	94.246207 
2385.986104  	94.291461 
2386.950529  	94.291409 
2387.914953  	94.349403 
2388.879378  	94.352709 
2389.843802  	94.378186 
2390.808226  	94.381959 
2391.772651  	94.361752 
2392.737075  	94.401801 
2393.701500  	94.415473 
2394.665924  	94.416217 
2395.630349  	94.405983 
2396.594773  	94.349023 
2397.559198  	94.354169 
2398.523622  	94.436234 
2399.488047  	94.466113 
2400.452471  	94.409486 
2401.416895  	94.340833 
2402.381320  	94.324302 
2403.345744  	94.430194 
2404.310169  	94.464326 
2405.274593  	94.396998 
2406.239018  	94.388233 
2407.203442  	94.406017 
2408.167867  	94.427112 
2409.132291  	94.408662 
2410.096716  	94.380488 
2411.061140  	94.334407 
2412.025564  	94.324011 
2412.989989  	94.339864 
2413.954413  	94.354653 
2414.918838  	94.378539 
2415.883262  	94.355980 
2416.847687  	94.294494 
2417.812111  	94.318274 
2418.776536  	94.329869 
2419.740960  	94.342921 
2420.705385  	94.375416 
2421.669809  	94.338505 
2422.634233  	94.281138 
2423.598658  	94.303254 
2424.563082  	94.305503 
2425.527507  	94.314416 
2426.491931  	94.314665 
2427.456356  	94.278944 
2428.420780  	94.348060 
2429.385205  	94.357272 
2430.349629  	94.254366 
2431.314054  	94.241451 
2432.278478  	94.284590 
2433.242902  	94.287696 
2434.207327  	94.272857 
2435.171751  	94.264786 
2436.136176  	94.347990 
2437.100600  	94.386879 
2438.065025  	94.270025 
2439.029449  	94.309735 
2439.993874  	94.366225 
2440.958298  	94.322057 
2441.922723  	94.272081 
2442.887147  	94.223905 
2443.851572  	94.310377 
2444.815996  	94.373960 
2445.780420  	94.277628 
2446.744845  	94.236286 
2447.709269  	94.221505 
2448.673694  	94.237884 
2449.638118  	94.248090 
2450.602543  	94.167136 
2451.566967  	94.141243 
2452.531392  	94.225892 
2453.495816  	94.223700 
2454.460241  	94.216428 
2455.424665  	94.218525 
2456.389089  	94.165269 
2457.353514  	94.220942 
2458.317938  	94.245721 
2459.282363  	94.211472 
2460.246787  	94.241734 
2461.211212  	94.238738 
2462.175636  	94.252475 
2463.140061  	94.249274 
2464.104485  	94.227318 
2465.068910  	94.224583 
2466.033334  	94.154209 
2466.997758  	94.108954 
2467.962183  	94.179510 
2468.926607  	94.174511 
2469.891032  	94.167459 
2470.855456  	94.162980 
2471.819881  	94.203703 
2472.784305  	94.275149 
2473.748730  	94.251117 
2474.713154  	94.217065 
2475.677579  	94.179946 
2476.642003  	94.143921 
2477.606427  	94.210151 
2478.570852  	94.264804 
2479.535276  	94.255577 
2480.499701  	94.218213 
2481.464125  	94.185491 
2482.428550  	94.214042 
2483.392974  	94.211809 
2484.357399  	94.223106 
2485.321823  	94.217785 
2486.286248  	94.134694 
2487.250672  	94.127442 
2488.215096  	94.175301 
2489.179521  	94.180584 
2490.143945  	94.124301 
2491.108370  	94.051025 
2492.072794  	94.102700 
2493.037219  	94.205252 
2494.001643  	94.189589 
2494.966068  	94.201684 
2495.930492  	94.276630 
2496.894917  	94.251931 
2497.859341  	94.227313 
2498.823765  	94.240331 
2499.788190  	94.201446 
2500.752614  	94.178944 
2501.717039  	94.141069 
2502.681463  	94.160620 
2503.645888  	94.209565 
2504.610312  	94.189645 
2505.574737  	94.159679 
2506.539161  	94.186572 
2507.503586  	94.202207 
2508.468010  	94.194162 
2509.432435  	94.131821 
2510.396859  	94.142420 
2511.361283  	94.204385 
2512.325708  	94.200658 
2513.290132  	94.123449 
2514.254557  	94.135062 
2515.218981  	94.129833 
2516.183406  	94.128956 
2517.147830  	94.149940 
2518.112255  	94.133980 
2519.076679  	94.176154 
2520.041104  	94.223388 
2521.005528  	94.210664 
2521.969952  	94.133373 
2522.934377  	94.063267 
2523.898801  	94.129217 
2524.863226  	94.160659 
2525.827650  	94.135926 
2526.792075  	94.139740 
2527.756499  	94.112689 
2528.720924  	94.123163 
2529.685348  	94.128214 
2530.649773  	94.110236 
2531.614197  	94.091703 
2532.578621  	94.084026 
2533.543046  	94.113840 
2534.507470  	94.118516 
2535.471895  	94.118506 
2536.436319  	94.132438 
2537.400744  	94.140881 
2538.365168  	94.119569 
2539.329593  	94.122191 
2540.294017  	94.068606 
2541.258442  	94.055166 
2542.222866  	94.077343 
2543.187290  	94.086445 
2544.151715  	94.101330 
2545.116139  	94.106786 
2546.080564  	94.100262 
2547.044988  	94.065385 
2548.009413  	93.998466 
2548.973837  	94.012381 
2549.938262  	94.028322 
2550.902686  	94.038077 
2551.867111  	94.065882 
2552.831535  	93.978604 
2553.795959  	93.958809 
2554.760384  	94.017856 
2555.724808  	93.973882 
2556.689233  	93.918547 
2557.653657  	93.929339 
2558.618082  	93.910166 
2559.582506  	93.992133 
2560.546931  	93.989312 
2561.511355  	93.940564 
2562.475780  	94.015340 
2563.440204  	93.966576 
2564.404629  	93.977527 
2565.369053  	93.990407 
2566.333477  	93.956042 
2567.297902  	94.018656 
2568.262326  	93.974559 
2569.226751  	93.845519 
2570.191175  	93.855843 
2571.155600  	93.900847 
2572.120024  	93.916602 
2573.084449  	93.935821 
2574.048873  	93.863866 
2575.013298  	93.807068 
2575.977722  	93.808920 
2576.942146  	93.834058 
2577.906571  	93.858723 
2578.870995  	93.840671 
2579.835420  	93.847217 
2580.799844  	93.852543 
2581.764269  	93.834695 
2582.728693  	93.862228 
2583.693118  	93.825692 
2584.657542  	93.825300 
2585.621967  	93.863836 
2586.586391  	93.815362 
2587.550815  	93.863354 
2588.515240  	93.857721 
2589.479664  	93.781071 
2590.444089  	93.767763 
2591.408513  	93.781540 
2592.372938  	93.790040 
2593.337362  	93.796066 
2594.301787  	93.787819 
2595.266211  	93.784520 
2596.230636  	93.790403 
2597.195060  	93.780715 
2598.159484  	93.785464 
2599.123909  	93.788426 
2600.088333  	93.776029 
2601.052758  	93.755841 
2602.017182  	93.710262 
2602.981607  	93.730962 
2603.946031  	93.739909 
2604.910456  	93.744584 
2605.874880  	93.795748 
2606.839305  	93.775553 
2607.803729  	93.714492 
2608.768153  	93.711766 
2609.732578  	93.696562 
2610.697002  	93.701047 
2611.661427  	93.700117 
2612.625851  	93.712146 
2613.590276  	93.793118 
2614.554700  	93.794905 
2615.519125  	93.741324 
2616.483549  	93.755622 
2617.447974  	93.726098 
2618.412398  	93.752578 
2619.376822  	93.759367 
2620.341247  	93.726429 
2621.305671  	93.688820 
2622.270096  	93.680877 
2623.234520  	93.707126 
2624.198945  	93.728257 
2625.163369  	93.739644 
2626.127794  	93.713714 
2627.092218  	93.695180 
2628.056643  	93.726137 
2629.021067  	93.737985 
2629.985492  	93.718404 
2630.949916  	93.744706 
2631.914340  	93.742734 
2632.878765  	93.712683 
2633.843189  	93.708249 
2634.807614  	93.675537 
2635.772038  	93.660926 
2636.736463  	93.660830 
2637.700887  	93.682946 
2638.665312  	93.711022 
2639.629736  	93.711536 
2640.594161  	93.684201 
2641.558585  	93.673490 
2642.523009  	93.648348 
2643.487434  	93.667187 
2644.451858  	93.710060 
2645.416283  	93.669213 
2646.380707  	93.640034 
2647.345132  	93.649026 
2648.309556  	93.678022 
2649.273981  	93.679882 
2650.238405  	93.660187 
2651.202830  	93.653715 
2652.167254  	93.643317 
2653.131678  	93.626157 
2654.096103  	93.601474 
2655.060527  	93.601222 
2656.024952  	93.610333 
2656.989376  	93.592160 
2657.953801  	93.591076 
2658.918225  	93.632400 
2659.882650  	93.656368 
2660.847074  	93.656353 
2661.811499  	93.644918 
2662.775923  	93.629773 
2663.740347  	93.646288 
2664.704772  	93.657326 
2665.669196  	93.679859 
2666.633621  	93.665794 
2667.598045  	93.648564 
2668.562470  	93.636416 
2669.526894  	93.642951 
2670.491319  	93.636888 
2671.455743  	93.647347 
2672.420168  	93.668958 
2673.384592  	93.650613 
2674.349016  	93.642991 
2675.313441  	93.645662 
2676.277865  	93.633800 
2677.242290  	93.614514 
2678.206714  	93.617652 
2679.171139  	93.615822 
2680.135563  	93.587064 
2681.099988  	93.595211 
2682.064412  	93.622987 
2683.028837  	93.615743 
2683.993261  	93.593940 
2684.957686  	93.594253 
2685.922110  	93.605514 
2686.886534  	93.560725 
2687.850959  	93.544870 
2688.815383  	93.577823 
2689.779808  	93.585617 
2690.744232  	93.562668 
2691.708657  	93.547700 
2692.673081  	93.536089 
2693.637506  	93.537160 
2694.601930  	93.558045 
2695.566355  	93.557708 
2696.530779  	93.529688 
2697.495203  	93.527841 
2698.459628  	93.533687 
2699.424052  	93.520213 
2700.388477  	93.494279 
2701.352901  	93.469922 
2702.317326  	93.484298 
2703.281750  	93.522914 
2704.246175  	93.510854 
2705.210599  	93.476755 
2706.175024  	93.481953 
2707.139448  	93.496780 
2708.103872  	93.477992 
2709.068297  	93.481383 
2710.032721  	93.488254 
2710.997146  	93.487987 
2711.961570  	93.475025 
2712.925995  	93.465082 
2713.890419  	93.458983 
2714.854844  	93.439254 
2715.819268  	93.450119 
2716.783693  	93.460870 
2717.748117  	93.441798 
2718.712541  	93.414670 
2719.676966  	93.389748 
2720.641390  	93.392776 
2721.605815  	93.399548 
2722.570239  	93.395087 
2723.534664  	93.372903 
2724.499088  	93.325478 
2725.463513  	93.323562 
2726.427937  	93.318438 
2727.392362  	93.286819 
2728.356786  	93.250742 
2729.321210  	93.220338 
2730.285635  	93.244565 
2731.250059  	93.213388 
2732.214484  	93.161585 
2733.178908  	93.141972 
2734.143333  	93.148022 
2735.107757  	93.145522 
2736.072182  	93.146185 
2737.036606  	93.144429 
2738.001031  	93.097285 
2738.965455  	93.049346 
2739.929879  	93.047654 
2740.894304  	93.062227 
2741.858728  	93.056954 
2742.823153  	93.041668 
2743.787577  	93.029900 
2744.752002  	93.006849 
2745.716426  	92.985422 
2746.680851  	92.973245 
2747.645275  	92.977290 
2748.609700  	92.955553 
2749.574124  	92.958280 
2750.538549  	92.955722 
2751.502973  	92.918302 
2752.467397  	92.912349 
2753.431822  	92.930478 
2754.396246  	92.929553 
2755.360671  	92.931464 
2756.325095  	92.923270 
2757.289520  	92.888730 
2758.253944  	92.903525 
2759.218369  	92.899423 
2760.182793  	92.848726 
2761.147218  	92.819597 
2762.111642  	92.820615 
2763.076066  	92.848828 
2764.040491  	92.869311 
2765.004915  	92.853933 
2765.969340  	92.836189 
2766.933764  	92.837811 
2767.898189  	92.803248 
2768.862613  	92.768168 
2769.827038  	92.751846 
2770.791462  	92.748925 
2771.755887  	92.724084 
2772.720311  	92.712487 
2773.684735  	92.719013 
2774.649160  	92.697790 
2775.613584  	92.682721 
2776.578009  	92.679715 
2777.542433  	92.668204 
2778.506858  	92.659981 
2779.471282  	92.673043 
2780.435707  	92.669269 
2781.400131  	92.641736 
2782.364556  	92.620793 
2783.328980  	92.589214 
2784.293404  	92.573745 
2785.257829  	92.587283 
2786.222253  	92.588576 
2787.186678  	92.560597 
2788.151102  	92.527407 
2789.115527  	92.540237 
2790.079951  	92.524166 
2791.044376  	92.482922 
2792.008800  	92.443878 
2792.973225  	92.409678 
2793.937649  	92.378125 
2794.902073  	92.332984 
2795.866498  	92.313372 
2796.830922  	92.311346 
2797.795347  	92.276004 
2798.759771  	92.235003 
2799.724196  	92.185083 
2800.688620  	92.109860 
2801.653045  	92.076304 
2802.617469  	92.091567 
2803.581894  	92.112044 
2804.546318  	92.084856 
2805.510743  	92.046964 
2806.475167  	91.982211 
2807.439591  	91.915652 
2808.404016  	91.877242 
2809.368440  	91.871090 
2810.332865  	91.849226 
2811.297289  	91.781201 
2812.261714  	91.694100 
2813.226138  	91.665656 
2814.190563  	91.611062 
2815.154987  	91.590720 
2816.119412  	91.563225 
2817.083836  	91.475281 
2818.048260  	91.391548 
2819.012685  	91.323819 
2819.977109  	91.278280 
2820.941534  	91.233157 
2821.905958  	91.166503 
2822.870383  	91.074567 
2823.834807  	91.028628 
2824.799232  	90.973615 
2825.763656  	90.920750 
2826.728081  	90.870642 
2827.692505  	90.827042 
2828.656929  	90.791051 
2829.621354  	90.734732 
2830.585778  	90.667865 
2831.550203  	90.608364 
2832.514627  	90.505875 
2833.479052  	90.389931 
2834.443476  	90.307650 
2835.407901  	90.196264 
2836.372325  	90.056317 
2837.336750  	89.887890 
2838.301174  	89.664952 
2839.265598  	89.399793 
2840.230023  	89.121993 
2841.194447  	88.823418 
2842.158872  	88.467789 
2843.123296  	88.011018 
2844.087721  	87.459952 
2845.052145  	86.817988 
2846.016570  	86.091646 
2846.980994  	85.274432 
2847.945419  	84.358554 
2848.909843  	83.432143 
2849.874267  	82.645437 
2850.838692  	82.088166 
2851.803116  	81.677123 
2852.767541  	81.319089 
2853.731965  	81.000663 
2854.696390  	80.720143 
2855.660814  	80.499811 
2856.625239  	80.294606 
2857.589663  	80.113002 
2858.554088  	80.030810 
2859.518512  	80.046546 
2860.482936  	80.091365 
2861.447361  	80.192460 
2862.411785  	80.395170 
2863.376210  	80.662792 
2864.340634  	80.913821 
2865.305059  	81.128336 
2866.269483  	81.363705 
2867.233908  	81.564146 
2868.198332  	81.724043 
2869.162757  	81.872225 
2870.127181  	81.998680 
2871.091606  	82.095781 
2872.056030  	82.186616 
2873.020454  	82.351538 
2873.984879  	82.562200 
2874.949303  	82.754313 
2875.913728  	83.011319 
2876.878152  	83.334021 
2877.842577  	83.652659 
2878.807001  	84.001951 
2879.771426  	84.393659 
2880.735850  	84.750523 
2881.700275  	85.054452 
2882.664699  	85.343598 
2883.629123  	85.615513 
2884.593548  	85.846860 
2885.557972  	86.032683 
2886.522397  	86.129270 
2887.486821  	86.178392 
2888.451246  	86.202333 
2889.415670  	86.207585 
2890.380095  	86.188808 
2891.344519  	86.105021 
2892.308944  	85.980032 
2893.273368  	85.802405 
2894.237792  	85.595867 
2895.202217  	85.357985 
2896.166641  	85.166390 
2897.131066  	84.940497 
2898.095490  	84.640259 
2899.059915  	84.333322 
2900.024339  	84.012466 
2900.988764  	83.693548 
2901.953188  	83.390891 
2902.917613  	83.019700 
2903.882037  	82.652148 
2904.846461  	82.320769 
2905.810886  	81.974891 
2906.775310  	81.616988 
2907.739735  	81.289336 
2908.704159  	80.924151 
2909.668584  	80.569149 
2910.633008  	80.208426 
2911.597433  	79.841764 
2912.561857  	79.411593 
2913.526282  	78.907562 
2914.490706  	78.347297 
2915.455130  	77.773049 
2916.419555  	77.288331 
2917.383979  	76.864501 
2918.348404  	76.504257 
2919.312828  	76.242559 
2920.277253  	75.977283 
2921.241677  	75.713111 
2922.206102  	75.524559 
2923.170526  	75.323416 
2924.134951  	75.099944 
2925.099375  	74.918034 
2926.063800  	74.693364 
2927.028224  	74.460300 
2927.992648  	74.226205 
2928.957073  	73.994877 
2929.921497  	73.790749 
2930.885922  	73.624696 
2931.850346  	73.504507 
2932.814771  	73.500999 
2933.779195  	73.572147 
2934.743620  	73.748510 
2935.708044  	74.004671 
2936.672469  	74.310269 
2937.636893  	74.707357 
2938.601317  	75.183167 
2939.565742  	75.714195 
2940.530166  	76.258247 
2941.494591  	76.752526 
2942.459015  	77.268987 
2943.423440  	77.786450 
2944.387864  	78.226474 
2945.352289  	78.670883 
2946.316713  	79.236636 
2947.281138  	79.850258 
2948.245562  	80.505023 
2949.209986  	81.159733 
2950.174411  	81.809976 
2951.138835  	82.512091 
2952.103260  	83.155540 
2953.067684  	83.735091 
2954.032109  	84.316944 
2954.996533  	84.855810 
2955.960958  	85.339380 
2956.925382  	85.807055 
2957.889807  	86.240307 
2958.854231  	86.635053 
2959.818655  	87.004576 
2960.783080  	87.336630 
2961.747504  	87.658251 
2962.711929  	87.959733 
2963.676353  	88.221378 
2964.640778  	88.436589 
2965.605202  	88.647293 
2966.569627  	88.891815 
2967.534051  	89.202435 
2968.498476  	89.540120 
2969.462900  	89.778579 
2970.427324  	89.958979 
2971.391749  	90.179215 
2972.356173  	90.423117 
2973.320598  	90.646241 
2974.285022  	90.847671 
2975.249447  	91.015459 
2976.213871  	91.189354 
2977.178296  	91.362358 
2978.142720  	91.506230 
2979.107145  	91.653741 
2980.071569  	91.802855 
2981.035993  	91.896932 
2982.000418  	92.022017 
2982.964842  	92.137214 
2983.929267  	92.200598 
2984.893691  	92.293639 
2985.858116  	92.352827 
2986.822540  	92.436212 
2987.786965  	92.494837 
2988.751389  	92.532011 
2989.715814  	92.595965 
2990.680238  	92.667613 
2991.644663  	92.706889 
2992.609087  	92.745016 
2993.573511  	92.755094 
2994.537936  	92.759081 
2995.502360  	92.827026 
2996.466785  	92.846330 
2997.431209  	92.838075 
2998.395634  	92.895391 
2999.360058  	92.908148 
3000.324483  	92.911983 
3001.288907  	92.896304 
3002.253332  	92.887353 
3003.217756  	92.880668 
3004.182180  	92.820711 
3005.146605  	92.792593 
3006.111029  	92.828736 
3007.075454  	92.856052 
3008.039878  	92.898619 
3009.004303  	92.922328 
3009.968727  	92.889916 
3010.933152  	92.829462 
3011.897576  	92.787458 
3012.862001  	92.724295 
3013.826425  	92.775149 
3014.790849  	92.815419 
3015.755274  	92.746308 
3016.719698  	92.724821 
3017.684123  	92.758700 
3018.648547  	92.729470 
3019.612972  	92.688327 
3020.577396  	92.669605 
3021.541821  	92.628706 
3022.506245  	92.563689 
3023.470670  	92.525565 
3024.435094  	92.533635 
3025.399518  	92.519188 
3026.363943  	92.438314 
3027.328367  	92.420231 
3028.292792  	92.409079 
3029.257216  	92.375970 
3030.221641  	92.280109 
3031.186065  	92.142998 
3032.150490  	92.049809 
3033.114914  	92.080108 
3034.079339  	92.011137 
3035.043763  	91.954352 
3036.008187  	91.935464 
3036.972612  	91.894139 
3037.937036  	91.814090 
3038.901461  	91.756663 
3039.865885  	91.701772 
3040.830310  	91.642889 
3041.794734  	91.545887 
3042.759159  	91.426128 
3043.723583  	91.362661 
3044.688008  	91.307009 
3045.652432  	91.224411 
3046.616857  	91.071605 
3047.581281  	90.935350 
3048.545705  	90.808927 
3049.510130  	90.721738 
3050.474554  	90.688528 
3051.438979  	90.602400 
3052.403403  	90.456901 
3053.367828  	90.317913 
3054.332252  	90.235607 
3055.296677  	90.128787 
3056.261101  	89.965946 
3057.225526  	89.939542 
3058.189950  	89.970747 
3059.154374  	89.929715 
3060.118799  	89.855731 
3061.083223  	89.805892 
3062.047648  	89.813943 
3063.012072  	89.787117 
3063.976497  	89.655086 
3064.940921  	89.578302 
3065.905346  	89.640598 
3066.869770  	89.655409 
3067.834195  	89.678394 
3068.798619  	89.671859 
3069.763043  	89.627536 
3070.727468  	89.637953 
3071.691892  	89.702639 
3072.656317  	89.677036 
3073.620741  	89.634832 
3074.585166  	89.656044 
3075.549590  	89.685562 
3076.514015  	89.692291 
3077.478439  	89.662541 
3078.442864  	89.643492 
3079.407288  	89.647077 
3080.371712  	89.689935 
3081.336137  	89.727153 
3082.300561  	89.684109 
3083.264986  	89.744014 
3084.229410  	89.864171 
3085.193835  	89.906792 
3086.158259  	89.902592 
3087.122684  	89.896708 
3088.087108  	89.885261 
3089.051533  	89.931599 
3090.015957  	89.969289 
3090.980381  	90.020417 
3091.944806  	90.114152 
3092.909230  	90.167221 
3093.873655  	90.177362 
3094.838079  	90.210281 
3095.802504  	90.266419 
3096.766928  	90.380519 
3097.731353  	90.457006 
3098.695777  	90.530416 
3099.660202  	90.582385 
3100.624626  	90.577047 
3101.589050  	90.568900 
3102.553475  	90.606744 
3103.517899  	90.663041 
3104.482324  	90.762011 
3105.446748  	90.817233 
3106.411173  	90.849819 
3107.375597  	90.922277 
3108.340022  	91.062595 
3109.304446  	91.170625 
3110.268871  	91.173788 
3111.233295  	91.173354 
3112.197720  	91.171970 
3113.162144  	91.208219 
3114.126568  	91.293355 
3115.090993  	91.355511 
3116.055417  	91.370982 
3117.019842  	91.415945 
3117.984266  	91.437430 
3118.948691  	91.407126 
3119.913115  	91.517583 
3120.877540  	91.599342 
3121.841964  	91.537734 
3122.806389  	91.459940 
3123.770813  	91.519115 
3124.735237  	91.572062 
3125.699662  	91.602895 
3126.664086  	91.596101 
3127.628511  	91.654700 
3128.592935  	91.692216 
3129.557360  	91.669365 
3130.521784  	91.693478 
3131.486209  	91.715694 
3132.450633  	91.615996 
3133.415058  	91.532432 
3134.379482  	91.639412 
3135.343906  	91.685168 
3136.308331  	91.655563 
3137.272755  	91.628470 
3138.237180  	91.653874 
3139.201604  	91.689985 
3140.166029  	91.647519 
3141.130453  	91.640688 
3142.094878  	91.592326 
3143.059302  	91.533829 
3144.023727  	91.538609 
3144.988151  	91.556036 
3145.952575  	91.510021 
3146.917000  	91.469918 
3147.881424  	91.483797 
3148.845849  	91.519726 
3149.810273  	91.480777 
3150.774698  	91.434496 
3151.739122  	91.384493 
3152.703547  	91.295679 
3153.667971  	91.255848 
3154.632396  	91.297318 
3155.596820  	91.228096 
3156.561244  	91.123516 
3157.525669  	91.121055 
3158.490093  	91.058241 
3159.454518  	91.055730 
3160.418942  	91.044590 
3161.383367  	90.930323 
3162.347791  	90.842199 
3163.312216  	90.803772 
3164.276640  	90.809456 
3165.241065  	90.806766 
3166.205489  	90.737121 
3167.169914  	90.646382 
3168.134338  	90.542808 
3169.098762  	90.439955 
3170.063187  	90.325292 
3171.027611  	90.257559 
3171.992036  	90.267797 
3172.956460  	90.236159 
3173.920885  	90.141628 
3174.885309  	90.024092 
3175.849734  	89.960983 
3176.814158  	89.919918 
3177.778583  	89.795903 
3178.743007  	89.738057 
3179.707431  	89.728218 
3180.671856  	89.646718 
3181.636280  	89.625695 
3182.600705  	89.576690 
3183.565129  	89.459787 
3184.529554  	89.365920 
3185.493978  	89.373569 
3186.458403  	89.338272 
3187.422827  	89.209198 
3188.387252  	89.149074 
3189.351676  	89.143796 
3190.316100  	89.096703 
3191.280525  	89.059383 
3192.244949  	89.032353 
3193.209374  	89.062737 
3194.173798  	89.010273 
3195.138223  	88.950199 
3196.102647  	88.873369 
3197.067072  	88.722507 
3198.031496  	88.629468 
3198.995921  	88.693756 
3199.960345  	88.680567 
3200.924769  	88.671557 
3201.889194  	88.633972 
3202.853618  	88.563645 
3203.818043  	88.493244 
3204.782467  	88.470060 
3205.746892  	88.476362 
3206.711316  	88.409490 
3207.675741  	88.324808 
3208.640165  	88.278886 
3209.604590  	88.204733 
3210.569014  	88.157463 
3211.533438  	88.137782 
3212.497863  	88.103606 
3213.462287  	88.032838 
3214.426712  	87.929500 
3215.391136  	87.875030 
3216.355561  	87.864022 
3217.319985  	87.814280 
3218.284410  	87.759079 
3219.248834  	87.674864 
3220.213259  	87.628379 
3221.177683  	87.585259 
3222.142107  	87.494573 
3223.106532  	87.423105 
3224.070956  	87.390921 
3225.035381  	87.268016 
3225.999805  	87.122043 
3226.964230  	86.963957 
3227.928654  	86.879611 
3228.893079  	86.870177 
3229.857503  	86.735095 
3230.821928  	86.535772 
3231.786352  	86.460477 
3232.750777  	86.386851 
3233.715201  	86.278417 
3234.679625  	86.130565 
3235.644050  	85.976349 
3236.608474  	85.803098 
3237.572899  	85.674240 
3238.537323  	85.524420 
3239.501748  	85.346999 
3240.466172  	85.187412 
3241.430597  	85.048260 
3242.395021  	84.872183 
3243.359446  	84.673581 
3244.323870  	84.454664 
3245.288294  	84.240166 
3246.252719  	84.088106 
3247.217143  	83.945918 
3248.181568  	83.763097 
3249.145992  	83.523589 
3250.110417  	83.333864 
3251.074841  	83.165055 
3252.039266  	82.952029 
3253.003690  	82.694827 
3253.968115  	82.409418 
3254.932539  	82.253023 
3255.896963  	82.034247 
3256.861388  	81.741964 
3257.825812  	81.493777 
3258.790237  	81.233145 
3259.754661  	80.998593 
3260.719086  	80.780849 
3261.683510  	80.535071 
3262.647935  	80.311590 
3263.612359  	80.069680 
3264.576784  	79.781056 
3265.541208  	79.482374 
3266.505632  	79.229246 
3267.470057  	78.944806 
3268.434481  	78.702306 
3269.398906  	78.456020 
3270.363330  	78.169831 
3271.327755  	77.867174 
3272.292179  	77.605544 
3273.256604  	77.277812 
3274.221028  	77.012670 
3275.185453  	76.767670 
3276.149877  	76.404118 
3277.114301  	76.097347 
3278.078726  	75.737406 
3279.043150  	75.328510 
3280.007575  	74.985447 
3280.971999  	74.622019 
3281.936424  	74.288306 
3282.900848  	73.908806 
3283.865273  	73.548168 
3284.829697  	73.237942 
3285.794122  	72.900719 
3286.758546  	72.569107 
3287.722971  	72.264370 
3288.687395  	71.910502 
3289.651819  	71.629687 
3290.616244  	71.364664 
3291.580668  	71.142973 
3292.545093  	70.986057 
3293.509517  	70.891368 
3294.473942  	70.782246 
3295.438366  	70.648703 
3296.402791  	70.592706 
3297.367215  	70.619391 
3298.331640  	70.720878 
3299.296064  	70.896193 
3300.260488  	71.104755 
3301.224913  	71.365330 
3302.189337  	71.641709 
3303.153762  	71.950221 
3304.118186  	72.316614 
3305.082611  	72.731875 
3306.047035  	73.180216 
3307.011460  	73.733364 
3307.975884  	74.226275 
3308.940309  	74.698519 
3309.904733  	75.264874 
3310.869157  	75.861266 
3311.833582  	76.452738 
3312.798006  	77.060676 
3313.762431  	77.628470 
3314.726855  	78.253865 
3315.691280  	78.850580 
3316.655704  	79.402438 
3317.620129  	79.916864 
3318.584553  	80.413176 
3319.548978  	80.878667 
3320.513402  	81.402485 
3321.477826  	81.936813 
3322.442251  	82.404451 
3323.406675  	82.779541 
3324.371100  	83.121248 
3325.335524  	83.487589 
3326.299949  	83.869679 
3327.264373  	84.138300 
3328.228798  	84.444309 
3329.193222  	84.764440 
3330.157647  	85.063508 
3331.122071  	85.357527 
3332.086495  	85.668465 
3333.050920  	85.925922 
3334.015344  	86.105013 
3334.979769  	86.270642 
3335.944193  	86.516567 
3336.908618  	86.693859 
3337.873042  	86.945089 
3338.837467  	87.160987 
3339.801891  	87.319412 
3340.766316  	87.492209 
3341.730740  	87.637341 
3342.695164  	87.798524 
3343.659589  	87.999234 
3344.624013  	88.231785 
3345.588438  	88.465306 
3346.552862  	88.523239 
3347.517287  	88.578918 
3348.481711  	88.687785 
3349.446136  	88.842472 
3350.410560  	89.007493 
3351.374985  	89.127845 
3352.339409  	89.223899 
3353.303834  	89.326087 
3354.268258  	89.390783 
3355.232682  	89.449307 
3356.197107  	89.450084 
3357.161531  	89.539598 
3358.125956  	89.712200 
3359.090380  	89.807564 
3360.054805  	89.763683 
3361.019229  	89.769567 
3361.983654  	89.855109 
3362.948078  	90.031394 
3363.912503  	90.146917 
3364.876927  	90.113241 
3365.841351  	90.153243 
3366.805776  	90.266221 
3367.770200  	90.280932 
3368.734625  	90.286398 
3369.699049  	90.394287 
3370.663474  	90.530723 
3371.627898  	90.579777 
3372.592323  	90.574606 
3373.556747  	90.594253 
3374.521172  	90.685902 
3375.485596  	90.756357 
3376.450020  	90.735842 
3377.414445  	90.758437 
3378.378869  	90.822022 
3379.343294  	90.870254 
3380.307718  	90.898102 
3381.272143  	90.999395 
3382.236567  	91.054234 
3383.200992  	90.975740 
3384.165416  	90.923691 
3385.129841  	90.953912 
3386.094265  	91.041881 
3387.058689  	91.149628 
3388.023114  	91.196957 
3388.987538  	91.199731 
3389.951963  	91.196536 
3390.916387  	91.146801 
3391.880812  	91.092254 
3392.845236  	90.985075 
3393.809661  	91.030605 
3394.774085  	91.236959 
3395.738510  	91.275681 
3396.702934  	91.265112 
3397.667358  	91.196380 
3398.631783  	91.312752 
3399.596207  	91.412416 
3400.560632  	91.316960 
3401.525056  	91.299909 
3402.489481  	91.385780 
3403.453905  	91.399795 
3404.418330  	91.406448 
3405.382754  	91.514111 
3406.347179  	91.575100 
3407.311603  	91.520548 
3408.276028  	91.495767 
3409.240452  	91.441125 
3410.204876  	91.394110 
3411.169301  	91.508825 
3412.133725  	91.644255 
3413.098150  	91.712469 
3414.062574  	91.663017 
3415.026999  	91.647033 
3415.991423  	91.655000 
3416.955848  	91.714695 
3417.920272  	91.697109 
3418.884697  	91.625298 
3419.849121  	91.451290 
3420.813545  	91.221961 
3421.777970  	91.263933 
3422.742394  	91.395592 
3423.706819  	91.535625 
3424.671243  	91.708049 
3425.635668  	91.744720 
3426.600092  	91.707757 
3427.564517  	91.727871 
3428.528941  	91.708208 
3429.493366  	91.707748 
3430.457790  	91.674854 
3431.422214  	91.679000 
3432.386639  	91.745409 
3433.351063  	91.774680 
3434.315488  	91.855463 
3435.279912  	91.832171 
3436.244337  	91.789509 
3437.208761  	91.830937 
3438.173186  	91.915845 
3439.137610  	91.903403 
3440.102035  	91.933924 
3441.066459  	91.904199 
3442.030883  	91.746980 
3442.995308  	91.604739 
3443.959732  	91.769627 
3444.924157  	91.860973 
3445.888581  	91.789749 
3446.853006  	91.415809 
3447.817430  	91.253477 
3448.781855  	91.730832 
3449.746279  	91.907105 
3450.710704  	91.866099 
3451.675128  	91.891002 
3452.639552  	92.004856 
3453.603977  	92.031225 
3454.568401  	91.969946 
3455.532826  	91.924441 
3456.497250  	91.953745 
3457.461675  	91.970602 
3458.426099  	91.959261 
3459.390524  	91.963965 
3460.354948  	91.972965 
3461.319373  	91.883608 
3462.283797  	91.866083 
3463.248221  	91.855299 
3464.212646  	91.979983 
3465.177070  	92.064983 
3466.141495  	91.967115 
3467.105919  	91.790312 
3468.070344  	91.996581 
3469.034768  	92.237318 
3469.999193  	92.166578 
3470.963617  	92.083622 
3471.928042  	92.095805 
3472.892466  	92.108317 
3473.856891  	92.096647 
3474.821315  	92.003164 
3475.785739  	92.056139 
3476.750164  	92.179030 
3477.714588  	92.184670 
3478.679013  	92.216511 
3479.643437  	92.176680 
3480.607862  	91.922624 
3481.572286  	91.802265 
3482.536711  	91.755517 
3483.501135  	91.996701 
3484.465560  	92.165088 
3485.429984  	92.151709 
3486.394408  	92.181844 
3487.358833  	92.189595 
3488.323257  	91.982939 
3489.287682  	92.062031 
3490.252106  	92.286396 
3491.216531  	92.282798 
3492.180955  	92.336192 
3493.145380  	92.374809 
3494.109804  	92.391403 
3495.074229  	92.281551 
3496.038653  	92.104386 
3497.003077  	92.057776 
3497.967502  	92.274383 
3498.931926  	92.399236 
3499.896351  	92.342643 
3500.860775  	92.268416 
3501.825200  	92.001410 
3502.789624  	91.644098 
3503.754049  	91.613472 
3504.718473  	91.937259 
3505.682898  	92.232719 
3506.647322  	92.480451 
3507.611746  	92.571559 
3508.576171  	92.294247 
3509.540595  	91.806274 
3510.505020  	92.035233 
3511.469444  	92.411364 
3512.433869  	92.428178 
3513.398293  	92.486490 
3514.362718  	92.684859 
3515.327142  	92.851892 
3516.291567  	92.845471 
3517.255991  	92.740962 
3518.220415  	92.647720 
3519.184840  	92.641639 
3520.149264  	92.744162 
3521.113689  	92.876316 
3522.078113  	92.702121 
3523.042538  	92.071400 
3524.006962  	91.863351 
3524.971387  	92.242412 
3525.935811  	92.359533 
3526.900236  	92.253162 
3527.864660  	92.139650 
3528.829085  	92.247512 
3529.793509  	92.537037 
3530.757933  	92.784823 
3531.722358  	92.758725 
3532.686782  	93.005523 
3533.651207  	93.183350 
3534.615631  	93.206546 
3535.580056  	92.984255 
3536.544480  	92.502923 
3537.508905  	92.712479 
3538.473329  	93.137623 
3539.437754  	93.157976 
3540.402178  	93.221093 
3541.366602  	93.228739 
3542.331027  	93.193108 
3543.295451  	93.017612 
3544.259876  	92.738845 
3545.224300  	92.081172 
3546.188725  	91.932200 
3547.153149  	92.021543 
3548.117574  	92.459220 
3549.081998  	93.089308 
3550.046423  	93.377243 
3551.010847  	93.333950 
3551.975271  	92.828064 
3552.939696  	92.645454 
3553.904120  	92.962698 
3554.868545  	93.280620 
3555.832969  	93.577208 
3556.797394  	93.525460 
3557.761818  	93.594131 
3558.726243  	93.750379 
3559.690667  	93.394585 
3560.655092  	92.971566 
3561.619516  	93.293608 
3562.583940  	93.318630 
3563.548365  	93.243543 
3564.512789  	93.282155 
3565.477214  	92.637120 
3566.441638  	90.817405 
3567.406063  	90.669950 
3568.370487  	90.992530 
3569.334912  	92.344889 
3570.299336  	93.324514 
3571.263761  	93.478410 
3572.228185  	93.764366 
3573.192609  	93.810919 
3574.157034  	93.743427 
3575.121458  	93.761656 
3576.085883  	93.833489 
3577.050307  	93.736797 
3578.014732  	93.840897 
3578.979156  	93.931818 
3579.943581  	93.550636 
3580.908005  	93.518955 
3581.872430  	93.873903 
3582.836854  	93.935744 
3583.801278  	93.914042 
3584.765703  	93.963195 
3585.730127  	93.586455 
3586.694552  	92.239974 
3587.658976  	91.479085 
3588.623401  	91.699449 
3589.587825  	92.629151 
3590.552250  	93.715309 
3591.516674  	93.951933 
3592.481099  	93.941089 
3593.445523  	93.527116 
3594.409948  	93.573998 
3595.374372  	93.122935 
3596.338796  	93.015736 
3597.303221  	93.715176 
3598.267645  	93.719860 
3599.232070  	93.550486 
3600.196494  	93.652989 
3601.160919  	93.481044 
3602.125343  	93.771369 
3603.089768  	93.943944 
3604.054192  	94.241130 
3605.018617  	94.479175 
3605.983041  	94.256555 
3606.947465  	93.258846 
3607.911890  	92.956465 
3608.876314  	93.151286 
3609.840739  	92.951645 
3610.805163  	93.825569 
3611.769588  	93.658724 
3612.734012  	92.623100 
3613.698437  	92.906556 
3614.662861  	93.012423 
3615.627286  	93.138887 
3616.591710  	93.975534 
3617.556134  	93.505153 
3618.520559  	92.837370 
3619.484983  	92.731315 
3620.449408  	92.788769 
3621.413832  	93.418688 
3622.378257  	93.947520 
3623.342681  	94.322937 
3624.307106  	94.552532 
3625.271530  	94.548136 
3626.235955  	94.153761 
3627.200379  	93.998560 
3628.164803  	93.145501 
3629.129228  	90.858165 
3630.093652  	91.430413 
3631.058077  	93.406140 
3632.022501  	94.179403 
3632.986926  	94.172380 
3633.951350  	93.611348 
3634.915775  	94.048468 
3635.880199  	94.626221 
3636.844624  	94.675535 
3637.809048  	94.510480 
3638.773472  	94.433626 
3639.737897  	94.599611 
3640.702321  	94.674377 
3641.666746  	94.440298 
3642.631170  	94.101108 
3643.595595  	94.324999 
3644.560019  	94.613773 
3645.524444  	94.361082 
3646.488868  	93.439896 
3647.453293  	91.995721 
3648.417717  	92.136474 
3649.382142  	91.745867 
3650.346566  	91.054687 
3651.310990  	91.344329 
3652.275415  	93.121668 
3653.239839  	94.263817 
3654.204264  	94.644321 
3655.168688  	94.543262 
3656.133113  	93.690855 
3657.097537  	93.572538 
3658.061962  	94.501826 
3659.026386  	94.644046 
3659.990811  	94.576486 
3660.955235  	94.728155 
3661.919659  	94.957681 
3662.884084  	94.941290 
3663.848508  	94.918011 
3664.812933  	94.879668 
3665.777357  	94.882344 
3666.741782  	94.915684 
3667.706206  	94.815272 
3668.670631  	93.931132 
3669.635055  	92.936811 
3670.599480  	92.333073 
3671.563904  	92.971941 
3672.528328  	94.294477 
3673.492753  	94.449636 
3674.457177  	93.389836 
3675.421602  	90.959559 
3676.386026  	91.665656 
3677.350451  	93.266585 
3678.314875  	93.762881 
3679.279300  	93.699036 
3680.243724  	93.909734 
3681.208149  	94.693455 
3682.172573  	95.008445 
3683.136997  	95.010984 
3684.101422  	94.861976 
3685.065846  	94.800394 
3686.030271  	94.942140 
3686.994695  	94.786133 
3687.959120  	93.937409 
3688.923544  	93.131414 
3689.887969  	93.723741 
3690.852393  	93.068140 
3691.816818  	93.031473 
3692.781242  	94.497519 
3693.745666  	94.803051 
3694.710091  	94.910541 
3695.674515  	95.021359 
3696.638940  	94.875798 
3697.603364  	94.987598 
3698.567789  	95.192075 
3699.532213  	95.117747 
3700.496638  	95.070572 
3701.461062  	94.338956 
3702.425487  	93.938647 
3703.389911  	94.825283 
3704.354335  	95.100533 
3705.318760  	94.967543 
3706.283184  	94.984185 
3707.247609  	95.106751 
3708.212033  	95.016291 
3709.176458  	94.417822 
3710.140882  	94.015880 
3711.105307  	93.679332 
3712.069731  	92.558637 
3713.034156  	92.916244 
3713.998580  	94.125871 
3714.963005  	94.128080 
3715.927429  	94.462840 
3716.891853  	95.057502 
3717.856278  	95.084055 
3718.820702  	94.443018 
3719.785127  	94.282963 
3720.749551  	94.849371 
3721.713976  	94.393235 
3722.678400  	93.332663 
3723.642825  	94.001398 
3724.607249  	94.204600 
3725.571674  	93.562221 
3726.536098  	93.379000 
3727.500522  	93.652476 
3728.464947  	94.464152 
3729.429371  	94.973055 
3730.393796  	94.934255 
3731.358220  	94.493626 
3732.322645  	93.834257 
3733.287069  	94.129781 
3734.251494  	93.411048 
3735.215918  	90.697620 
3736.180343  	91.121829 
3737.144767  	92.521167 
3738.109191  	93.291458 
3739.073616  	93.670325 
3740.038040  	94.144498 
3741.002465  	93.802466 
3741.966889  	94.011004 
3742.931314  	94.503575 
3743.895738  	93.367859 
3744.860163  	90.381026 
3745.824587  	92.921539 
3746.789012  	93.683282 
3747.753436  	93.648184 
3748.717860  	93.400027 
3749.682285  	92.922249 
3750.646709  	93.141435 
3751.611134  	92.632362 
3752.575558  	91.529986 
3753.539983  	93.246880 
3754.504407  	94.118208 
3755.468832  	94.458740 
3756.433256  	94.216953 
3757.397681  	94.325063 
3758.362105  	94.460814 
3759.326529  	93.476709 
3760.290954  	93.139894 
3761.255378  	94.499759 
3762.219803  	94.792871 
3763.184227  	94.847290 
3764.148652  	94.921396 
3765.113076  	94.514557 
3766.077501  	93.839881 
3767.041925  	94.542459 
3768.006350  	94.934461 
3768.970774  	94.540010 
3769.935199  	93.639591 
3770.899623  	93.965971 
3771.864047  	94.640748 
3772.828472  	94.902753 
3773.792896  	95.055811 
3774.757321  	95.151794 
3775.721745  	95.244566 
3776.686170  	95.356411 
3777.650594  	95.269823 
3778.615019  	94.793972 
3779.579443  	93.964806 
3780.543868  	94.234993 
3781.508292  	94.923123 
3782.472716  	94.943177 
3783.437141  	94.982976 
3784.401565  	94.653111 
3785.365990  	94.311491 
3786.330414  	94.651788 
3787.294839  	94.934842 
3788.259263  	95.089488 
3789.223688  	95.115602 
3790.188112  	95.115590 
3791.152537  	95.195794 
3792.116961  	95.214078 
3793.081385  	95.218993 
3794.045810  	95.255525 
3795.010234  	95.103028 
3795.974659  	94.541561 
3796.939083  	93.852850 
3797.903508  	94.223836 
3798.867932  	94.669480 
3799.832357  	94.700759 
3800.796781  	93.786752 
3801.761206  	92.509537 
3802.725630  	93.084021 
3803.690054  	93.989765 
3804.654479  	94.789776 
3805.618903  	94.884970 
3806.583328  	94.142577 
3807.547752  	93.645169 
3808.512177  	94.664653 
3809.476601  	94.923041 
3810.441026  	94.928357 
3811.405450  	95.059943 
3812.369875  	95.191423 
3813.334299  	95.242032 
3814.298723  	95.104248 
3815.263148  	94.401407 
3816.227572  	93.040481 
3817.191997  	93.773842 
3818.156421  	94.575857 
3819.120846  	94.452595 
3820.085270  	93.732749 
3821.049695  	92.227120 
3822.014119  	92.385171 
3822.978544  	93.917634 
3823.942968  	94.352579 
3824.907392  	94.561512 
3825.871817  	94.530739 
3826.836241  	94.026892 
3827.800666  	94.159082 
3828.765090  	94.735106 
3829.729515  	94.986995 
3830.693939  	94.827560 
3831.658364  	94.129257 
3832.622788  	94.269776 
3833.587213  	94.739162 
3834.551637  	94.248657 
3835.516062  	93.864654 
3836.480486  	94.442717 
3837.444910  	93.812059 
3838.409335  	92.845021 
3839.373759  	93.479513 
3840.338184  	92.903442 
3841.302608  	93.090748 
3842.267033  	94.339103 
3843.231457  	94.203778 
3844.195882  	93.535047 
3845.160306  	94.411703 
3846.124731  	94.843853 
3847.089155  	94.899902 
3848.053579  	94.934484 
3849.018004  	94.809775 
3849.982428  	94.478759 
3850.946853  	94.435416 
3851.911277  	93.671174 
3852.875702  	92.350992 
3853.840126  	91.502993 
3854.804551  	91.934719 
3855.768975  	93.823277 
3856.733400  	93.796075 
3857.697824  	93.505591 
3858.662248  	94.478094 
3859.626673  	94.998350 
3860.591097  	94.929624 
3861.555522  	94.356923 
3862.519946  	94.014228 
3863.484371  	94.291249 
3864.448795  	93.429338 
3865.413220  	92.516939 
3866.377644  	93.943261 
3867.342069  	94.796091 
3868.306493  	94.647185 
3869.270917  	93.442730 
3870.235342  	91.920273 
3871.199766  	93.311796 
3872.164191  	94.291587 
3873.128615  	94.361474 
3874.093040  	93.204165 
3875.057464  	93.410479 
3876.021889  	94.771188 
3876.986313  	95.047456 
3877.950738  	95.166227 
3878.915162  	95.101701 
3879.879586  	94.134909 
3880.844011  	92.629890 
3881.808435  	93.781817 
3882.772860  	94.512587 
3883.737284  	94.296318 
3884.701709  	94.210922 
3885.666133  	93.365309 
3886.630558  	93.258271 
3887.594982  	94.588959 
3888.559407  	94.950870 
3889.523831  	95.017781 
3890.488256  	94.597195 
3891.452680  	93.499871 
3892.417104  	93.639451 
3893.381529  	94.405055 
3894.345953  	94.295726 
3895.310378  	94.616118 
3896.274802  	95.066760 
3897.239227  	95.082703 
3898.203651  	94.456704 
3899.168076  	93.477932 
3900.132500  	93.532121 
3901.096925  	94.127043 
3902.061349  	92.983459 
3903.025773  	93.114724 
3903.990198  	93.366019 
3904.954622  	93.023434 
3905.919047  	93.430640 
3906.883471  	94.115542 
3907.847896  	94.934220 
3908.812320  	95.180813 
3909.776745  	95.196626 
3910.741169  	95.208816 
3911.705594  	95.177345 
3912.670018  	95.139917 
3913.634442  	95.152180 
3914.598867  	95.184154 
3915.563291  	95.048093 
3916.527716  	94.256019 
3917.492140  	93.639170 
3918.456565  	94.430041 
3919.420989  	94.567358 
3920.385414  	93.990473 
3921.349838  	94.555544 
3922.314263  	95.087067 
3923.278687  	94.779775 
3924.243111  	94.128588 
3925.207536  	93.737901 
3926.171960  	94.346791 
3927.136385  	95.020249 
3928.100809  	95.021567 
3929.065234  	94.841651 
3930.029658  	94.608160 
3930.994083  	94.461432 
3931.958507  	94.049667 
3932.922932  	93.743532 
3933.887356  	94.454525 
3934.851780  	94.775165 
3935.816205  	95.013578 
3936.780629  	95.151662 
3937.745054  	95.092973 
3938.709478  	94.942020 
3939.673903  	95.082006 
3940.638327  	95.148648 
3941.602752  	94.955137 
3942.567176  	94.189337 
3943.531601  	93.928155 
3944.496025  	94.628620 
3945.460449  	94.951787 
3946.424874  	95.034394 
3947.389298  	94.550966 
3948.353723  	94.232918 
3949.318147  	94.437229 
3950.282572  	94.216357 
3951.246996  	94.585384 
3952.211421  	95.067291 
3953.175845  	94.967209 
3954.140270  	95.028571 
3955.104694  	95.107582 
3956.069119  	95.046032 
3957.033543  	94.928840 
3957.997967  	94.948906 
3958.962392  	95.023158 
3959.926816  	95.055999 
3960.891241  	94.990941 
3961.855665  	94.647066 
3962.820090  	94.663759 
3963.784514  	95.049444 
3964.748939  	95.077883 
3965.713363  	95.130289 
3966.677788  	95.178164 
3967.642212  	95.158850 
3968.606636  	94.996969 
3969.571061  	94.849582 
3970.535485  	94.994746 
3971.499910  	95.065767 
3972.464334  	94.917645 
3973.428759  	95.022663 
3974.393183  	95.097586 
3975.357608  	94.960946 
3976.322032  	94.834061 
3977.286457  	94.998858 
3978.250881  	95.186743 
3979.215305  	95.185971 
3980.179730  	95.151355 
3981.144154  	95.096951 
3982.108579  	95.034038 
3983.073003  	95.063742 
3984.037428  	95.172840 
3985.001852  	95.172274 
3985.966277  	95.118696 
3986.930701  	95.143128 
3987.895126  	95.174149 
3988.859550  	95.147637 
3989.823974  	95.061634 
3990.788399  	94.920264 
3991.752823  	94.974203 
3992.717248  	95.084858 
3993.681672  	95.071068 
3994.646097  	94.996261 
3995.610521  	94.929172 
3996.574946  	95.032968 
3997.539370  	95.148233 
3998.503795  	95.226084 
3999.468219  	95.207838 
4000.432643  	95.203094 
4001.397068  	95.187500 
4002.361492  	95.169357 
4003.325917  	95.144113 
4004.290341  	95.132843 
4005.254766  	95.127310 
4006.219190  	95.104778 
4007.183615  	95.066160 
4008.148039  	95.010486 
4009.112464  	94.910606 
4010.076888  	94.986296 
4011.041313  	95.059534 
4012.005737  	95.108063 
4012.970161  	95.079779 
4013.934586  	95.085282 
4014.899010  	95.065530 
4015.863435  	95.030607 
4016.827859  	95.076668 
4017.792284  	95.167990 
4018.756708  	95.206535 
4019.721133  	95.113823 
4020.685557  	95.091863 
4021.649982  	95.130683 
4022.614406  	95.189905 
4023.578830  	95.217326 
4024.543255  	95.147161 
4025.507679  	95.044127 
4026.472104  	95.092427 
4027.436528  	95.174556 
4028.400953  	95.136884 
4029.365377  	95.100722 
4030.329802  	95.128882 
4031.294226  	95.166656 
4032.258651  	95.175625 
4033.223075  	95.231144 
4034.187499  	95.275467 
4035.151924  	95.171974 
4036.116348  	95.118649 
4037.080773  	95.162680 
4038.045197  	95.209997 
4039.009622  	95.234359 
4039.974046  	95.210525 
4040.938471  	95.184223 
4041.902895  	95.200771 
4042.867320  	95.220928 
4043.831744  	95.104684 
4044.796168  	94.993082 
4045.760593  	95.033277 
4046.725017  	95.142968 
4047.689442  	95.149142 
4048.653866  	95.148107 
4049.618291  	95.165912 
4050.582715  	95.167001 
4051.547140  	95.158713 
4052.511564  	95.189149 
4053.475989  	95.210181 
4054.440413  	95.181796 
4055.404837  	95.138099 
4056.369262  	95.158244 
4057.333686  	95.244567 
4058.298111  	95.238783 
4059.262535  	95.209662 
4060.226960  	95.222116 
4061.191384  	95.189344 
4062.155809  	95.173896 
4063.120233  	95.209822 
4064.084658  	95.202534 
4065.049082  	95.229298 
4066.013506  	95.288825 
4066.977931  	95.231246 
4067.942355  	95.165165 
4068.906780  	95.177418 
4069.871204  	95.215694 
4070.835629  	95.244480 
4071.800053  	95.210342 
4072.764478  	95.170331 
4073.728902  	95.187598 
4074.693327  	95.241282 
4075.657751  	95.286192 
4076.622176  	95.251500 
4077.586600  	95.237303 
4078.551024  	95.245518 
4079.515449  	95.219643 
4080.479873  	95.258416 
4081.444298  	95.282237 
4082.408722  	95.241671 
4083.373147  	95.183443 
4084.337571  	95.166170 
4085.301996  	95.196926 
4086.266420  	95.213602 
4087.230845  	95.205220 
4088.195269  	95.197596 
4089.159693  	95.200598 
4090.124118  	95.237017 
4091.088542  	95.269516 
4092.052967  	95.277308 
4093.017391  	95.221575 
4093.981816  	95.178464 
4094.946240  	95.180327 
4095.910665  	95.224414 
4096.875089  	95.269333 
4097.839514  	95.220510 
4098.803938  	95.133229 
4099.768362  	95.166117 
4100.732787  	95.212833 
4101.697211  	95.199426 
4102.661636  	95.218673 
4103.626060  	95.310169 
4104.590485  	95.310158 
4105.554909  	95.238720 
4106.519334  	95.195848 
4107.483758  	95.161013 
4108.448183  	95.198175 
4109.412607  	95.233288 
4110.377031  	95.217532 
4111.341456  	95.245120 
4112.305880  	95.243750 
4113.270305  	95.195823 
4114.234729  	95.165605 
4115.199154  	95.210238 
4116.163578  	95.217167 
4117.128003  	95.223279 
4118.092427  	95.202430 
4119.056852  	95.165033 
4120.021276  	95.116624 
4120.985700  	95.146915 
4121.950125  	95.234706 
4122.914549  	95.208432 
4123.878974  	95.166821 
4124.843398  	95.205161 
4125.807823  	95.241553 
4126.772247  	95.192047 
4127.736672  	95.165146 
4128.701096  	95.172718 
4129.665521  	95.169446 
4130.629945  	95.182429 
4131.594370  	95.229942 
4132.558794  	95.254694 
4133.523218  	95.206716 
4134.487643  	95.217045 
4135.452067  	95.229025 
4136.416492  	95.221445 
4137.380916  	95.217245 
4138.345341  	95.184049 
4139.309765  	95.168437 
4140.274190  	95.181120 
4141.238614  	95.191585 
4142.203039  	95.197228 
4143.167463  	95.244319 
4144.131887  	95.225749 
4145.096312  	95.188523 
4146.060736  	95.215440 
4147.025161  	95.255374 
4147.989585  	95.234929 
4148.954010  	95.191366 
4149.918434  	95.198633 
4150.882859  	95.247315 
4151.847283  	95.254668 
4152.811708  	95.187089 
4153.776132  	95.172483 
4154.740556  	95.194556 
4155.704981  	95.174173 
4156.669405  	95.144885 
4157.633830  	95.154825 
4158.598254  	95.150311 
4159.562679  	95.144496 
4160.527103  	95.152451 
4161.491528  	95.157746 
4162.455952  	95.173225 
4163.420377  	95.235414 
4164.384801  	95.270332 
4165.349225  	95.283286 
4166.313650  	95.245757 
4167.278074  	95.169543 
4168.242499  	95.188839 
4169.206923  	95.259836 
4170.171348  	95.266707 
4171.135772  	95.255736 
4172.100197  	95.210527 
4173.064621  	95.184249 
4174.029046  	95.178758 
4174.993470  	95.184803 
4175.957894  	95.239201 
4176.922319  	95.196373 
4177.886743  	95.178176 
4178.851168  	95.187494 
4179.815592  	95.150346 
4180.780017  	95.144562 
4181.744441  	95.194701 
4182.708866  	95.241599 
4183.673290  	95.220092 
4184.637715  	95.175081 
4185.602139  	95.195963 
4186.566563  	95.197379 
4187.530988  	95.185710 
4188.495412  	95.218643 
4189.459837  	95.277105 
4190.424261  	95.245780 
4191.388686  	95.179419 
4192.353110  	95.193017 
4193.317535  	95.193211 
4194.281959  	95.172175 
4195.246384  	95.216985 
4196.210808  	95.190302 
4197.175233  	95.126023 
4198.139657  	95.149741 
4199.104081  	95.180996 
4200.068506  	95.179262 
4201.032930  	95.170177 
4201.997355  	95.199789 
4202.961779  	95.229170 
4203.926204  	95.186213 
4204.890628  	95.151132 
4205.855053  	95.193717 
4206.819477  	95.174990 
4207.783902  	95.168063 
4208.748326  	95.182078 
4209.712750  	95.184087 
4210.677175  	95.184063 
4211.641599  	95.170240 
4212.606024  	95.142873 
4213.570448  	95.155777 
4214.534873  	95.239692 
4215.499297  	95.204997 
4216.463722  	95.195589 
4217.428146  	95.182278 
4218.392571  	95.196475 
4219.356995  	95.216867 
4220.321419  	95.234981 
4221.285844  	95.283066 
4222.250268  	95.307924 
4223.214693  	95.179706 
4224.179117  	95.128407 
4225.143542  	95.204986 
4226.107966  	95.240657 
4227.072391  	95.257489 
4228.036815  	95.181363 
4229.001240  	95.167921 
4229.965664  	95.147359 
4230.930088  	95.123925 
4231.894513  	95.174447 
4232.858937  	95.239325 
4233.823362  	95.261905 
4234.787786  	95.262241 
4235.752211  	95.266229 
4236.716635  	95.265877 
4237.681060  	95.280326 
4238.645484  	95.300788 
4239.609909  	95.237408 
4240.574333  	95.158528 
4241.538757  	95.212197 
4242.503182  	95.300502 
4243.467606  	95.313752 
4244.432031  	95.267280 
4245.396455  	95.268727 
4246.360880  	95.276733 
4247.325304  	95.240072 
4248.289729  	95.237796 
4249.254153  	95.271894 
4250.218578  	95.323523 
4251.183002  	95.321034 
4252.147427  	95.267603 
4253.111851  	95.226967 
4254.076275  	95.171060 
4255.040700  	95.157475 
4256.005124  	95.206494 
4256.969549  	95.261053 
4257.933973  	95.275838 
4258.898398  	95.194498 
4259.862822  	95.188294 
4260.827247  	95.216340 
4261.791671  	95.232887 
4262.756096  	95.280102 
4263.720520  	95.199330 
4264.684944  	95.125561 
4265.649369  	95.185467 
4266.613793  	95.235016 
4267.578218  	95.220278 
4268.542642  	95.274611 
4269.507067  	95.276052 
4270.471491  	95.248720 
4271.435916  	95.251376 
4272.400340  	95.223050 
4273.364765  	95.218621 
4274.329189  	95.232953 
4275.293613  	95.239807 
4276.258038  	95.268357 
4277.222462  	95.245994 
4278.186887  	95.190154 
4279.151311  	95.197022 
4280.115736  	95.211177 
4281.080160  	95.264766 
4282.044585  	95.297997 
4283.009009  	95.263749 
4283.973434  	95.231944 
4284.937858  	95.208676 
4285.902282  	95.200976 
4286.866707  	95.196443 
4287.831131  	95.222891 
4288.795556  	95.269336 
4289.759980  	95.254224 
4290.724405  	95.169595 
4291.688829  	95.174861 
4292.653254  	95.250965 
4293.617678  	95.279641 
4294.582103  	95.288165 
4295.546527  	95.293252 
4296.510951  	95.240955 
4297.475376  	95.250413 
4298.439800  	95.285208 
4299.404225  	95.257116 
4300.368649  	95.248425 
4301.333074  	95.254245 
4302.297498  	95.205403 
4303.261923  	95.170569 
4304.226347  	95.271154 
4305.190772  	95.363115 
4306.155196  	95.294688 
4307.119620  	95.242086 
4308.084045  	95.220996 
4309.048469  	95.279528 
4310.012894  	95.310635 
4310.977318  	95.340439 
4311.941743  	95.317480 
4312.906167  	95.247264 
4313.870592  	95.241042 
4314.835016  	95.310218 
4315.799441  	95.307442 
4316.763865  	95.282799 
4317.728290  	95.325594 
4318.692714  	95.340722 
4319.657138  	95.299183 
4320.621563  	95.291391 
4321.585987  	95.268673 
4322.550412  	95.232167 
4323.514836  	95.169631 
4324.479261  	95.168276 
4325.443685  	95.195985 
4326.408110  	95.246121 
4327.372534  	95.260995 
4328.336959  	95.249966 
4329.301383  	95.206326 
4330.265807  	95.196365 
4331.230232  	95.222552 
4332.194656  	95.213333 
4333.159081  	95.246162 
4334.123505  	95.231140 
4335.087930  	95.182904 
4336.052354  	95.180268 
4337.016779  	95.222524 
4337.981203  	95.255527 
4338.945628  	95.222441 
4339.910052  	95.170388 
4340.874476  	95.193745 
4341.838901  	95.244991 
4342.803325  	95.251482 
4343.767750  	95.205909 
4344.732174  	95.173406 
4345.696599  	95.157309 
4346.661023  	95.142017 
4347.625448  	95.100656 
4348.589872  	95.125156 
4349.554297  	95.176649 
4350.518721  	95.209025 
4351.483145  	95.230256 
4352.447570  	95.191314 
4353.411994  	95.142461 
4354.376419  	95.130318 
4355.340843  	95.100378 
4356.305268  	95.127130 
4357.269692  	95.217031 
4358.234117  	95.241741 
4359.198541  	95.186582 
4360.162966  	95.183557 
4361.127390  	95.212568 
4362.091814  	95.174884 
4363.056239  	95.134093 
4364.020663  	95.186714 
4364.985088  	95.163331 
4365.949512  	95.095727 
4366.913937  	95.108492 
4367.878361  	95.120407 
4368.842786  	95.167747 
4369.807210  	95.259299 
4370.771635  	95.226642 
4371.736059  	95.195217 
4372.700484  	95.194309 
4373.664908  	95.219675 
4374.629332  	95.209098 
4375.593757  	95.147832 
4376.558181  	95.131632 
4377.522606  	95.182680 
4378.487030  	95.187866 
4379.451455  	95.206147 
4380.415879  	95.254815 
4381.380304  	95.235550 
4382.344728  	95.248859 
4383.309153  	95.281668 
4384.273577  	95.328728 
4385.238001  	95.397060 
4386.202426  	95.312553 
4387.166850  	95.293276 
4388.131275  	95.318959 
4389.095699  	95.268802 
4390.060124  	95.282426 
4391.024548  	95.307761 
4391.988973  	95.351389 
4392.953397  	95.409692 
4393.917822  	95.399320 
4394.882246  	95.294247 
4395.846670  	95.243503 
4396.811095  	95.211581 
4397.775519  	95.257354 
4398.739944  	95.363649 
4399.704368  	95.363045 
4400.668793  	95.378422 
4401.633217  	95.295401 
4402.597642  	95.285375 
4403.562066  	95.392912 
4404.526491  	95.390325 
4405.490915  	95.379293 
4406.455339  	95.318051 
4407.419764  	95.265508 
4408.384188  	95.374010 
4409.348613  	95.487056 
4410.313037  	95.501374 
4411.277462  	95.466781 
4412.241886  	95.449548 
4413.206311  	95.447237 
4414.170735  	95.453650 
4415.135160  	95.418614 
4416.099584  	95.370346 
4417.064008  	95.306911 
4418.028433  	95.252977 
4418.992857  	95.320332 
4419.957282  	95.340742 
4420.921706  	95.325754 
4421.886131  	95.353465 
4422.850555  	95.351917 
4423.814980  	95.321931 
4424.779404  	95.310512 
4425.743829  	95.300218 
4426.708253  	95.360092 
4427.672677  	95.399574 
4428.637102  	95.416859 
4429.601526  	95.478679 
4430.565951  	95.423755 
4431.530375  	95.353765 
4432.494800  	95.348874 
4433.459224  	95.303824 
4434.423649  	95.299573 
4435.388073  	95.402072 
4436.352498  	95.545687 
4437.316922  	95.572502 
4438.281347  	95.539280 
4439.245771  	95.446792 
4440.210195  	95.486008 
4441.174620  	95.551648 
4442.139044  	95.468947 
4443.103469  	95.434943 
4444.067893  	95.398044 
4445.032318  	95.416820 
4445.996742  	95.456234 
4446.961167  	95.405166 
4447.925591  	95.379931 
4448.890016  	95.380657 
4449.854440  	95.367483 
4450.818864  	95.409762 
4451.783289  	95.399623 
4452.747713  	95.365290 
4453.712138  	95.388476 
4454.676562  	95.375182 
4455.640987  	95.387263 
4456.605411  	95.441092 
4457.569836  	95.442329 
4458.534260  	95.382910 
4459.498685  	95.380195 
4460.463109  	95.391453 
4461.427533  	95.384360 
4462.391958  	95.355854 
4463.356382  	95.326816 
4464.320807  	95.399056 
4465.285231  	95.413588 
4466.249656  	95.422587 
4467.214080  	95.475680 
4468.178505  	95.429382 
4469.142929  	95.373219 
4470.107354  	95.403589 
4471.071778  	95.445431 
4472.036202  	95.462523 
4473.000627  	95.481150 
4473.965051  	95.421390 
4474.929476  	95.335935 
4475.893900  	95.339976 
4476.858325  	95.428338 
4477.822749  	95.471219 
4478.787174  	95.437948 
4479.751598  	95.420078 
4480.716023  	95.442188 
4481.680447  	95.462474 
4482.644871  	95.412131 
4483.609296  	95.296240 
4484.573720  	95.299384 
4485.538145  	95.365687 
4486.502569  	95.402964 
4487.466994  	95.435524 
4488.431418  	95.496827 
4489.395843  	95.421667 
4490.360267  	95.388415 
4491.324692  	95.482934 
4492.289116  	95.482954 
4493.253541  	95.454898 
4494.217965  	95.453751 
4495.182389  	95.433502 
4496.146814  	95.384705 
4497.111238  	95.419268 
4498.075663  	95.389047 
4499.040087  	95.404220 
4500.004512  	95.401155 
4500.968936  	95.330951 
4501.933361  	95.324573 
4502.897785  	95.401191 
4503.862210  	95.405107 
4504.826634  	95.388531 
4505.791058  	95.425042 
4506.755483  	95.417714 
4507.719907  	95.420364 
4508.684332  	95.458799 
4509.648756  	95.425980 
4510.613181  	95.340974 
4511.577605  	95.420132 
4512.542030  	95.505241 
4513.506454  	95.498072 
4514.470879  	95.407909 
4515.435303  	95.338551 
4516.399727  	95.404777 
4517.364152  	95.361984 
4518.328576  	95.318879 
4519.293001  	95.374820 
4520.257425  	95.372428 
4521.221850  	95.332258 
4522.186274  	95.403265 
4523.150699  	95.416050 
4524.115123  	95.357898 
4525.079548  	95.315166 
4526.043972  	95.387733 
4527.008396  	95.416520 
4527.972821  	95.345813 
4528.937245  	95.350265 
4529.901670  	95.335268 
4530.866094  	95.357305 
4531.830519  	95.352709 
4532.794943  	95.287838 
4533.759368  	95.388411 
4534.723792  	95.472462 
4535.688217  	95.425171 
4536.652641  	95.448672 
4537.617065  	95.456346 
4538.581490  	95.442105 
4539.545914  	95.441303 
4540.510339  	95.412029 
4541.474763  	95.314846 
4542.439188  	95.302034 
4543.403612  	95.340603 
4544.368037  	95.356451 
4545.332461  	95.322675 
4546.296886  	95.330325 
4547.261310  	95.368046 
4548.225734  	95.397648 
4549.190159  	95.473478 
4550.154583  	95.478468 
4551.119008  	95.358665 
4552.083432  	95.294001 
4553.047857  	95.321408 
4554.012281  	95.364126 
4554.976706  	95.418784 
4555.941130  	95.463614 
4556.905555  	95.409884 
4557.869979  	95.403939 
4558.834404  	95.472330 
4559.798828  	95.382453 
4560.763252  	95.260298 
4561.727677  	95.244587 
4562.692101  	95.220971 
4563.656526  	95.273674 
4564.620950  	95.379401 
4565.585375  	95.342110 
4566.549799  	95.395586 
4567.514224  	95.501675 
4568.478648  	95.437094 
4569.443073  	95.383218 
4570.407497  	95.414337 
4571.371921  	95.406311 
4572.336346  	95.381362 
4573.300770  	95.388441 
4574.265195  	95.367748 
4575.229619  	95.371774 
4576.194044  	95.315925 
4577.158468  	95.346869 
4578.122893  	95.478113 
4579.087317  	95.514998 
4580.051742  	95.444717 
4581.016166  	95.432559 
4581.980590  	95.468148 
4582.945015  	95.488353 
4583.909439  	95.499589 
4584.873864  	95.433441 
4585.838288  	95.331143 
4586.802713  	95.347437 
4587.767137  	95.358137 
4588.731562  	95.370439 
4589.695986  	95.392747 
4590.660411  	95.413681 
4591.624835  	95.416088 
4592.589259  	95.378996 
4593.553684  	95.425191 
4594.518108  	95.396291 
4595.482533  	95.362235 
4596.446957  	95.378432 
4597.411382  	95.285817 
4598.375806  	95.239874 
4599.340231  	95.343004 
4600.304655  	95.419933 
4601.269080  	95.404848 
4602.233504  	95.399345 
4603.197928  	95.382422 
4604.162353  	95.355362 
4605.126777  	95.369157 
4606.091202  	95.458316 
4607.055626  	95.534037 
4608.020051  	95.493760 
4608.984475  	95.375881 
4609.948900  	95.371842 
4610.913324  	95.464880 
4611.877749  	95.481293 
4612.842173  	95.467306 
4613.806598  	95.551824 
4614.771022  	95.531950 
4615.735446  	95.491080 
4616.699871  	95.468590 
4617.664295  	95.383269 
4618.628720  	95.419620 
4619.593144  	95.435129 
4620.557569  	95.458093 
4621.521993  	95.495948 
4622.486418  	95.482469 
4623.450842  	95.427503 
4624.415267  	95.385299 
4625.379691  	95.412028 
4626.344115  	95.424345 
4627.308540  	95.415316 
4628.272964  	95.405905 
4629.237389  	95.456319 
4630.201813  	95.446519 
4631.166238  	95.426218 
4632.130662  	95.408678 
4633.095087  	95.372693 
4634.059511  	95.375867 
4635.023936  	95.489047 
4635.988360  	95.596549 
4636.952784  	95.582720 
4637.917209  	95.502120 
4638.881633  	95.380580 
4639.846058  	95.341895 
4640.810482  	95.377374 
4641.774907  	95.417394 
4642.739331  	95.379302 
4643.703756  	95.296688 
4644.668180  	95.319398 
4645.632605  	95.338746 
4646.597029  	95.417924 
4647.561453  	95.407276 
4648.525878  	95.383410 
4649.490302  	95.425803 
4650.454727  	95.466900 
4651.419151  	95.385739 
4652.383576  	95.325621 
4653.348000  	95.425640 
4654.312425  	95.488593 
4655.276849  	95.480193 
4656.241274  	95.501211 
4657.205698  	95.469864 
4658.170122  	95.457176 
4659.134547  	95.461788 
4660.098971  	95.417781 
4661.063396  	95.370680 
4662.027820  	95.408065 
4662.992245  	95.420744 
4663.956669  	95.423280 
4664.921094  	95.478871 
4665.885518  	95.497535 
4666.849943  	95.431335 
4667.814367  	95.370120 
4668.778791  	95.429922 
4669.743216  	95.422757 
4670.707640  	95.406340 
4671.672065  	95.472184 
4672.636489  	95.474954 
4673.600914  	95.438176 
4674.565338  	95.444057 
4675.529763  	95.448554 
4676.494187  	95.547181 
4677.458612  	95.633426 
4678.423036  	95.647639 
4679.387461  	95.590618 
4680.351885  	95.538877 
4681.316309  	95.493319 
4682.280734  	95.431480 
4683.245158  	95.391050 
4684.209583  	95.381551 
4685.174007  	95.354926 
4686.138432  	95.416000 
4687.102856  	95.513381 
4688.067281  	95.526622 
4689.031705  	95.418740 
4689.996130  	95.386751 
4690.960554  	95.443441 
4691.924978  	95.420196 
4692.889403  	95.361378 
4693.853827  	95.354450 
4694.818252  	95.364603 
4695.782676  	95.392599 
4696.747101  	95.388701 
4697.711525  	95.397820 
4698.675950  	95.394171 
4699.640374  	95.373426 