##TITLE=No Description
##DATA TYPE=INFRARED SPECTRUM
##XUNITS=1/CM
##YUNITS=%T
400.236149  	131.748337 
401.200574  	101.279971 
402.164998  	71.412159 
403.129423  	74.311435 
404.093847  	80.395635 
405.058272  	84.107968 
406.022696  	79.669665 
406.987120  	79.254088 
407.951545  	91.359572 
408.915969  	92.485961 
409.880394  	86.978542 
410.844818  	89.900851 
411.809243  	91.377225 
412.773667  	89.327712 
413.738092  	84.077653 
414.702516  	77.387404 
415.666941  	79.296532 
416.631365  	84.769626 
417.595789  	85.235570 
418.560214  	81.724992 
419.524638  	84.109978 
420.489063  	82.084070 
421.453487  	80.789064 
422.417912  	83.062345 
423.382336  	83.876553 
424.346761  	82.692187 
425.311185  	80.557323 
426.275610  	81.653415 
427.240034  	82.974281 
428.204458  	82.771352 
429.168883  	83.146844 
430.133307  	85.226971 
431.097732  	82.818468 
432.062156  	78.287306 
433.026581  	76.934382 
433.991005  	77.620590 
434.955430  	78.380730 
435.919854  	78.740528 
436.884279  	78.273352 
437.848703  	79.753271 
438.813127  	80.203939 
439.777552  	79.119441 
440.741976  	78.264225 
441.706401  	78.800377 
442.670825  	79.280154 
443.635250  	77.812689 
444.599674  	77.810098 
445.564099  	77.815018 
446.528523  	77.763415 
447.492948  	78.325333 
448.457372  	78.997006 
449.421796  	78.482357 
450.386221  	77.553411 
451.350645  	77.331853 
452.315070  	76.847238 
453.279494  	76.534489 
454.243919  	77.699548 
455.208343  	78.129833 
456.172768  	77.012502 
457.137192  	76.247154 
458.101617  	76.278593 
459.066041  	77.132188 
460.030466  	77.385540 
460.994890  	76.414194 
461.959314  	76.010121 
462.923739  	76.319650 
463.888163  	76.020654 
464.852588  	75.260952 
465.817012  	76.063171 
466.781437  	76.488382 
467.745861  	75.420354 
468.710286  	74.839796 
469.674710  	74.704986 
470.639135  	74.208696 
471.603559  	73.830819 
472.567983  	74.152727 
473.532408  	74.782058 
474.496832  	74.519111 
475.461257  	73.955304 
476.425681  	73.522460 
477.390106  	74.533776 
478.354530  	75.082378 
479.318955  	74.399538 
480.283379  	74.023222 
481.247804  	74.007252 
482.212228  	73.692693 
483.176652  	74.315002 
484.141077  	74.037797 
485.105501  	72.961459 
486.069926  	72.652826 
487.034350  	73.423123 
487.998775  	73.525770 
488.963199  	73.739971 
489.927624  	74.286400 
490.892048  	73.712521 
491.856473  	72.798075 
492.820897  	72.739504 
493.785321  	72.701956 
494.749746  	72.229754 
495.714170  	72.507523 
496.678595  	72.577613 
497.643019  	72.377678 
498.607444  	72.199400 
499.571868  	72.047890 
500.536293  	71.811568 
501.500717  	71.164235 
502.465142  	70.714618 
503.429566  	71.335527 
504.393990  	71.147201 
505.358415  	71.128763 
506.322839  	70.528759 
507.287264  	70.230893 
508.251688  	71.177612 
509.216113  	71.560334 
510.180537  	70.953355 
511.144962  	70.606246 
512.109386  	70.866584 
513.073811  	71.017172 
514.038235  	70.920085 
515.002660  	70.146807 
515.967084  	69.469285 
516.931508  	69.261015 
517.895933  	69.648291 
518.860357  	69.643917 
519.824782  	68.839147 
520.789206  	68.975327 
521.753631  	69.576101 
522.718055  	69.630808 
523.682480  	69.302055 
524.646904  	68.943481 
525.611329  	68.331963 
526.575753  	68.071962 
527.540177  	68.539579 
528.504602  	68.306686 
529.469026  	68.026333 
530.433451  	67.805695 
531.397875  	67.582100 
532.362300  	67.497163 
533.326724  	67.603033 
534.291149  	67.156101 
535.255573  	66.900568 
536.219998  	67.421284 
537.184422  	68.518316 
538.148846  	68.636490 
539.113271  	68.790851 
540.077695  	68.978060 
541.042120  	69.572726 
542.006544  	69.934642 
542.970969  	69.964825 
543.935393  	69.554792 
544.899818  	69.491933 
545.864242  	69.425102 
546.828667  	69.278332 
547.793091  	69.104842 
548.757515  	69.185631 
549.721940  	69.121489 
550.686364  	68.885883 
551.650789  	69.017216 
552.615213  	68.652742 
553.579638  	68.465971 
554.544062  	68.363079 
555.508487  	68.313837 
556.472911  	67.958859 
557.437336  	67.393630 
558.401760  	67.163279 
559.366184  	67.046611 
560.330609  	66.491010 
561.295033  	65.800749 
562.259458  	65.690806 
563.223882  	65.235891 
564.188307  	64.447055 
565.152731  	64.037782 
566.117156  	63.682050 
567.081580  	62.975535 
568.046005  	62.363757 
569.010429  	61.701666 
569.974853  	61.168235 
570.939278  	60.629479 
571.903702  	60.346844 
572.868127  	59.945664 
573.832551  	59.364785 
574.796976  	58.868333 
575.761400  	58.130762 
576.725825  	58.049338 
577.690249  	58.156003 
578.654674  	58.429429 
579.619098  	58.879232 
580.583523  	59.560819 
581.547947  	60.722994 
582.512371  	61.885549 
583.476796  	62.724888 
584.441220  	63.459552 
585.405645  	64.335592 
586.370069  	65.579111 
587.334494  	66.323080 
588.298918  	66.825399 
589.263343  	67.325525 
590.227767  	67.897970 
591.192192  	67.971291 
592.156616  	68.122756 
593.121040  	68.980286 
594.085465  	69.588222 
595.049889  	69.724365 
596.014314  	69.845622 
596.978738  	70.020591 
597.943163  	70.240643 
598.907587  	70.206847 
599.872012  	70.049759 
600.836436  	70.409537 
601.800861  	70.795660 
602.765285  	71.020349 
603.729709  	71.237633 
604.694134  	71.296476 
605.658558  	71.377768 
606.622983  	71.624303 
607.587407  	71.512833 
608.551832  	71.392679 
609.516256  	71.527426 
610.480681  	71.504216 
611.445105  	71.511173 
612.409530  	71.723819 
613.373954  	71.879932 
614.338378  	71.697954 
615.302803  	71.398471 
616.267227  	71.333406 
617.231652  	71.515647 
618.196076  	71.626488 
619.160501  	71.565174 
620.124925  	71.456048 
621.089350  	71.683908 
622.053774  	71.788137 
623.018199  	71.948404 
623.982623  	71.707494 
624.947047  	71.591056 
625.911472  	71.559413 
626.875896  	71.638382 
627.840321  	71.584546 
628.804745  	71.774925 
629.769170  	71.647006 
630.733594  	71.473016 
631.698019  	71.455296 
632.662443  	71.363033 
633.626868  	71.178630 
634.591292  	71.152936 
635.555717  	71.020655 
636.520141  	71.080793 
637.484565  	70.957697 
638.448990  	70.931962 
639.413414  	70.886471 
640.377839  	70.848825 
641.342263  	70.781973 
642.306688  	70.569729 
643.271112  	70.482894 
644.235537  	70.367970 
645.199961  	70.251641 
646.164386  	70.292516 
647.128810  	70.140570 
648.093234  	69.856027 
649.057659  	69.577798 
650.022083  	69.471227 
650.986508  	69.327743 
651.950932  	69.045209 
652.915357  	68.674613 
653.879781  	68.417924 
654.844206  	68.198251 
655.808630  	67.959708 
656.773055  	67.595912 
657.737479  	67.348332 
658.701903  	67.050315 
659.666328  	66.732359 
660.630752  	66.516522 
661.595177  	66.361225 
662.559601  	66.029614 
663.524026  	65.684375 
664.488450  	65.366639 
665.452875  	65.026728 
666.417299  	64.731542 
667.381724  	64.786707 
668.346148  	64.669979 
669.310572  	63.846657 
670.274997  	63.515857 
671.239421  	63.278939 
672.203846  	63.065266 
673.168270  	62.899120 
674.132695  	62.587600 
675.097119  	62.342804 
676.061544  	62.066529 
677.025968  	61.948504 
677.990393  	61.721475 
678.954817  	61.405604 
679.919241  	61.321779 
680.883666  	61.341326 
681.848090  	61.281457 
682.812515  	61.190701 
683.776939  	61.009509 
684.741364  	61.080297 
685.705788  	61.187406 
686.670213  	61.371513 
687.634637  	61.549706 
688.599062  	61.788667 
689.563486  	62.041565 
690.527910  	62.419060 
691.492335  	62.909859 
692.456759  	63.492966 
693.421184  	63.893796 
694.385608  	64.391190 
695.350033  	64.935474 
696.314457  	65.377719 
697.278882  	65.754158 
698.243306  	66.224655 
699.207731  	66.633105 
700.172155  	67.149835 
701.136580  	67.486087 
702.101004  	67.792639 
703.065428  	68.150721 
704.029853  	68.446947 
704.994277  	68.692732 
705.958702  	68.971271 
706.923126  	69.229855 
707.887551  	69.569343 
708.851975  	69.911219 
709.816400  	70.013160 
710.780824  	70.133876 
711.745249  	70.249084 
712.709673  	70.377475 
713.674097  	70.477656 
714.638522  	70.636146 
715.602946  	70.756997 
716.567371  	70.686093 
717.531795  	70.623601 
718.496220  	70.533043 
719.460644  	70.448197 
720.425069  	70.548135 
721.389493  	70.659028 
722.353918  	70.637629 
723.318342  	70.582147 
724.282766  	70.588499 
725.247191  	70.594522 
726.211615  	70.500205 
727.176040  	70.432223 
728.140464  	70.404801 
729.104889  	70.554154 
730.069313  	70.791816 
731.033738  	71.284902 
731.998162  	72.077102 
732.962587  	72.945626 
733.927011  	73.732789 
734.891435  	74.509010 
735.855860  	75.290883 
736.820284  	76.044281 
737.784709  	76.747201 
738.749133  	77.458186 
739.713558  	78.040730 
740.677982  	78.532543 
741.642407  	78.936391 
742.606831  	79.246158 
743.571256  	79.482564 
744.535680  	79.620968 
745.500104  	79.793609 
746.464529  	79.943102 
747.428953  	80.047102 
748.393378  	80.184643 
749.357802  	80.203738 
750.322227  	80.343839 
751.286651  	80.409313 
752.251076  	80.440598 
753.215500  	80.631567 
754.179925  	80.822402 
755.144349  	80.915624 
756.108774  	81.041854 
757.073198  	81.187358 
758.037622  	81.270305 
759.002047  	81.279949 
759.966471  	81.415146 
760.930896  	81.506003 
761.895320  	81.625975 
762.859745  	81.874268 
763.824169  	82.075108 
764.788594  	82.157464 
765.753018  	82.236146 
766.717443  	82.289159 
767.681867  	82.332895 
768.646291  	82.433439 
769.610716  	82.661254 
770.575140  	82.888681 
771.539565  	83.023192 
772.503989  	82.990507 
773.468414  	83.098678 
774.432838  	83.323077 
775.397263  	83.460729 
776.361687  	83.503339 
777.326112  	83.610887 
778.290536  	83.640496 
779.254960  	83.768744 
780.219385  	83.926084 
781.183809  	84.201904 
782.148234  	84.110487 
783.112658  	84.327248 
784.077083  	84.328506 
785.041507  	84.278484 
786.005932  	84.407335 
786.970356  	84.415626 
787.934781  	84.379669 
788.899205  	84.432644 
789.863629  	84.581942 
790.828054  	84.667238 
791.792478  	84.591818 
792.756903  	84.540988 
793.721327  	84.590681 
794.685752  	84.590881 
795.650176  	84.646249 
796.614601  	84.766828 
797.579025  	84.910140 
798.543450  	84.872059 
799.507874  	84.939281 
800.472298  	85.233772 
801.436723  	85.457037 
802.401147  	85.578743 
803.365572  	85.707666 
804.329996  	85.823632 
805.294421  	85.935630 
806.258845  	86.030090 
807.223270  	86.146976 
808.187694  	86.183517 
809.152119  	86.194645 
810.116543  	86.238111 
811.080967  	86.343584 
812.045392  	86.407926 
813.009816  	86.475394 
813.974241  	86.587085 
814.938665  	86.697873 
815.903090  	86.739356 
816.867514  	86.748174 
817.831939  	86.866431 
818.796363  	87.056759 
819.760788  	87.175528 
820.725212  	87.278953 
821.689637  	87.326198 
822.654061  	87.400264 
823.618485  	87.495835 
824.582910  	87.511036 
825.547334  	87.494331 
826.511759  	87.520068 
827.476183  	87.597470 
828.440608  	87.721363 
829.405032  	87.760918 
830.369457  	87.797274 
831.333881  	87.951184 
832.298306  	88.031394 
833.262730  	88.057133 
834.227154  	88.151589 
835.191579  	88.195649 
836.156003  	88.165784 
837.120428  	88.135980 
838.084852  	88.059473 
839.049277  	88.087900 
840.013701  	88.143432 
840.978126  	88.156870 
841.942550  	88.266182 
842.906975  	88.291368 
843.871399  	88.244512 
844.835823  	88.235788 
845.800248  	88.292271 
846.764672  	88.344798 
847.729097  	88.418993 
848.693521  	88.389926 
849.657946  	88.424992 
850.622370  	88.531024 
851.586795  	88.583282 
852.551219  	88.414730 
853.515644  	88.385931 
854.480068  	88.532274 
855.444492  	88.566033 
856.408917  	88.585464 
857.373341  	88.621538 
858.337766  	88.605868 
859.302190  	88.638961 
860.266615  	88.692464 
861.231039  	88.776527 
862.195464  	88.800694 
863.159888  	88.786849 
864.124313  	88.756407 
865.088737  	88.731660 
866.053161  	88.740624 
867.017586  	88.717437 
867.982010  	88.735887 
868.946435  	88.765764 
869.910859  	88.731836 
870.875284  	88.636821 
871.839708  	88.571304 
872.804133  	88.543349 
873.768557  	88.550460 
874.732982  	88.516660 
875.697406  	88.484545 
876.661831  	88.489525 
877.626255  	88.493565 
878.590679  	88.480566 
879.555104  	88.450638 
880.519528  	88.463715 
881.483953  	88.432850 
882.448377  	88.458906 
883.412802  	88.541573 
884.377226  	88.545596 
885.341651  	88.508630 
886.306075  	88.458796 
887.270500  	88.459527 
888.234924  	88.507232 
889.199348  	88.424060 
890.163773  	88.306768 
891.128197  	88.272569 
892.092622  	88.245082 
893.057046  	88.180545 
894.021471  	88.120773 
894.985895  	88.070764 
895.950320  	87.889671 
896.914744  	87.719683 
897.879169  	87.615680 
898.843593  	87.477686 
899.808017  	87.248278 
900.772442  	86.981101 
901.736866  	86.643083 
902.701291  	86.306394 
903.665715  	86.009488 
904.630140  	85.711770 
905.594564  	85.494646 
906.558989  	85.493224 
907.523413  	85.695932 
908.487838  	86.002687 
909.452262  	86.335861 
910.416686  	86.657468 
911.381111  	86.853565 
912.345535  	86.886973 
913.309960  	86.841257 
914.274384  	86.764045 
915.238809  	86.702314 
916.203233  	86.552325 
917.167658  	86.414321 
918.132082  	86.280516 
919.096507  	86.125314 
920.060931  	85.999421 
921.025355  	85.813763 
921.989780  	85.561296 
922.954204  	85.265338 
923.918629  	84.962516 
924.883053  	84.684065 
925.847478  	84.346610 
926.811902  	83.854048 
927.776327  	83.320755 
928.740751  	82.724040 
929.705176  	82.045020 
930.669600  	81.260494 
931.634024  	80.448730 
932.598449  	79.760179 
933.562873  	79.280455 
934.527298  	79.100195 
935.491722  	79.320255 
936.456147  	80.009265 
937.420571  	80.965401 
938.384996  	81.969706 
939.349420  	82.938250 
940.313845  	83.836754 
941.278269  	84.609259 
942.242694  	85.204813 
943.207118  	85.639567 
944.171542  	85.987304 
945.135967  	86.301936 
946.100391  	86.529031 
947.064816  	86.700316 
948.029240  	86.881468 
948.993665  	87.008644 
949.958089  	87.103321 
950.922514  	87.214484 
951.886938  	87.373010 
952.851363  	87.427973 
953.815787  	87.423517 
954.780211  	87.530078 
955.744636  	87.665155 
956.709060  	87.731011 
957.673485  	87.754126 
958.637909  	87.761989 
959.602334  	87.767291 
960.566758  	87.803353 
961.531183  	87.816279 
962.495607  	87.826958 
963.460032  	87.881705 
964.424456  	87.927297 
965.388880  	87.906963 
966.353305  	87.914485 
967.317729  	87.977227 
968.282154  	88.000161 
969.246578  	88.006255 
970.211003  	88.000092 
971.175427  	87.988500 
972.139852  	87.936461 
973.104276  	87.877253 
974.068701  	87.881579 
975.033125  	87.936157 
975.997549  	87.952134 
976.961974  	87.900559 
977.926398  	87.832463 
978.890823  	87.786172 
979.855247  	87.760897 
980.819672  	87.696984 
981.784096  	87.642123 
982.748521  	87.584360 
983.712945  	87.471007 
984.677370  	87.313767 
985.641794  	87.220241 
986.606218  	87.179259 
987.570643  	87.133847 
988.535067  	87.085419 
989.499492  	87.081711 
990.463916  	87.099556 
991.428341  	87.046239 
992.392765  	86.947834 
993.357190  	86.852296 
994.321614  	86.818746 
995.286039  	86.775203 
996.250463  	86.714312 
997.214888  	86.665567 
998.179312  	86.607810 
999.143736  	86.526224 
1000.108161  	86.464563 
1001.072585  	86.450723 
1002.037010  	86.449121 
1003.001434  	86.377289 
1003.965859  	86.279626 
1004.930283  	86.209294 
1005.894708  	86.105431 
1006.859132  	85.981699 
1007.823557  	85.872782 
1008.787981  	85.763048 
1009.752405  	85.621974 
1010.716830  	85.477530 
1011.681254  	85.388525 
1012.645679  	85.353767 
1013.610103  	85.311648 
1014.574528  	85.200885 
1015.538952  	85.175503 
1016.503377  	85.189075 
1017.467801  	85.154234 
1018.432226  	85.143564 
1019.396650  	85.144880 
1020.361074  	85.147641 
1021.325499  	85.189225 
1022.289923  	85.205993 
1023.254348  	85.168824 
1024.218772  	85.096956 
1025.183197  	85.039762 
1026.147621  	84.987189 
1027.112046  	84.929380 
1028.076470  	84.865497 
1029.040895  	84.727564 
1030.005319  	84.604930 
1030.969743  	84.580838 
1031.934168  	84.550876 
1032.898592  	84.498419 
1033.863017  	84.414312 
1034.827441  	84.288000 
1035.791866  	84.212754 
1036.756290  	84.171965 
1037.720715  	84.098797 
1038.685139  	84.011661 
1039.649564  	83.987776 
1040.613988  	83.979746 
1041.578412  	83.965910 
1042.542837  	84.000876 
1043.507261  	84.102242 
1044.471686  	84.179200 
1045.436110  	84.212741 
1046.400535  	84.303926 
1047.364959  	84.399511 
1048.329384  	84.421634 
1049.293808  	84.499294 
1050.258233  	84.594012 
1051.222657  	84.620600 
1052.187081  	84.626974 
1053.151506  	84.632611 
1054.115930  	84.625128 
1055.080355  	84.573457 
1056.044779  	84.508524 
1057.009204  	84.467640 
1057.973628  	84.447884 
1058.938053  	84.392343 
1059.902477  	84.260028 
1060.866902  	84.127758 
1061.831326  	84.116381 
1062.795751  	84.115139 
1063.760175  	84.020530 
1064.724599  	83.976923 
1065.689024  	84.023158 
1066.653448  	84.132194 
1067.617873  	84.284560 
1068.582297  	84.394619 
1069.546722  	84.536594 
1070.511146  	84.676859 
1071.475571  	84.819228 
1072.439995  	84.935174 
1073.404420  	84.998844 
1074.368844  	85.008964 
1075.333268  	85.006907 
1076.297693  	85.006987 
1077.262117  	84.975619 
1078.226542  	84.983551 
1079.190966  	84.952237 
1080.155391  	84.846263 
1081.119815  	84.801117 
1082.084240  	84.765293 
1083.048664  	84.706261 
1084.013089  	84.699052 
1084.977513  	84.655426 
1085.941937  	84.487323 
1086.906362  	84.340488 
1087.870786  	84.306006 
1088.835211  	84.236562 
1089.799635  	84.113360 
1090.764060  	84.043518 
1091.728484  	83.993855 
1092.692909  	83.940082 
1093.657333  	83.869544 
1094.621758  	83.767603 
1095.586182  	83.730703 
1096.550606  	83.733818 
1097.515031  	83.765118 
1098.479455  	83.749582 
1099.443880  	83.711743 
1100.408304  	83.753642 
1101.372729  	83.786815 
1102.337153  	83.792236 
1103.301578  	83.833682 
1104.266002  	83.894148 
1105.230427  	83.907036 
1106.194851  	83.924319 
1107.159275  	83.959694 
1108.123700  	83.980426 
1109.088124  	83.968544 
1110.052549  	83.943328 
1111.016973  	83.994755 
1111.981398  	84.033713 
1112.945822  	84.020803 
1113.910247  	84.027132 
1114.874671  	84.025100 
1115.839096  	83.984740 
1116.803520  	83.968119 
1117.767945  	83.919733 
1118.732369  	83.872118 
1119.696793  	83.878936 
1120.661218  	83.838749 
1121.625642  	83.712720 
1122.590067  	83.642064 
1123.554491  	83.596886 
1124.518916  	83.494931 
1125.483340  	83.398808 
1126.447765  	83.319465 
1127.412189  	83.211750 
1128.376614  	83.053851 
1129.341038  	82.875927 
1130.305462  	82.727949 
1131.269887  	82.506561 
1132.234311  	82.137154 
1133.198736  	81.702518 
1134.163160  	81.277621 
1135.127585  	80.782594 
1136.092009  	80.242218 
1137.056434  	79.781191 
1138.020858  	79.492606 
1138.985283  	79.315498 
1139.949707  	79.262399 
1140.914131  	79.370699 
1141.878556  	79.498501 
1142.842980  	79.531101 
1143.807405  	79.569336 
1144.771829  	79.610237 
1145.736254  	79.602735 
1146.700678  	79.618460 
1147.665103  	79.648496 
1148.629527  	79.723600 
1149.593952  	79.864590 
1150.558376  	80.060436 
1151.522800  	80.271179 
1152.487225  	80.490784 
1153.451649  	80.724667 
1154.416074  	80.944688 
1155.380498  	81.113305 
1156.344923  	81.290005 
1157.309347  	81.418412 
1158.273772  	81.490301 
1159.238196  	81.497464 
1160.202621  	81.490810 
1161.167045  	81.462403 
1162.131469  	81.368791 
1163.095894  	81.242457 
1164.060318  	81.094790 
1165.024743  	80.901859 
1165.989167  	80.672458 
1166.953592  	80.446408 
1167.918016  	80.194606 
1168.882441  	79.880147 
1169.846865  	79.483015 
1170.811290  	79.019665 
1171.775714  	78.530471 
1172.740138  	77.998393 
1173.704563  	77.379187 
1174.668987  	76.703470 
1175.633412  	76.132416 
1176.597836  	75.615276 
1177.562261  	75.145040 
1178.526685  	74.827341 
1179.491110  	74.706430 
1180.455534  	74.764287 
1181.419959  	74.927511 
1182.384383  	75.141223 
1183.348808  	75.395453 
1184.313232  	75.612429 
1185.277656  	75.748449 
1186.242081  	75.826069 
1187.206505  	75.813344 
1188.170930  	75.670563 
1189.135354  	75.355278 
1190.099779  	74.909484 
1191.064203  	74.350336 
1192.028628  	73.653057 
1192.993052  	72.783153 
1193.957477  	71.835666 
1194.921901  	70.949585 
1195.886325  	70.234400 
1196.850750  	69.814597 
1197.815174  	69.850066 
1198.779599  	70.391721 
1199.744023  	71.326478 
1200.708448  	72.445785 
1201.672872  	73.627770 
1202.637297  	74.794680 
1203.601721  	75.834566 
1204.566146  	76.674902 
1205.530570  	77.394070 
1206.494994  	78.022529 
1207.459419  	78.507927 
1208.423843  	78.859686 
1209.388268  	79.096337 
1210.352692  	79.279488 
1211.317117  	79.368137 
1212.281541  	79.346807 
1213.245966  	79.369277 
1214.210390  	79.378005 
1215.174815  	79.327845 
1216.139239  	79.248794 
1217.103663  	79.152377 
1218.068088  	79.023157 
1219.032512  	78.807771 
1219.996937  	78.523629 
1220.961361  	78.148950 
1221.925786  	77.688657 
1222.890210  	77.219968 
1223.854635  	76.856531 
1224.819059  	76.728948 
1225.783484  	76.917116 
1226.747908  	77.194479 
1227.712332  	77.356967 
1228.676757  	77.416215 
1229.641181  	77.358106 
1230.605606  	77.207006 
1231.570030  	76.997025 
1232.534455  	76.775612 
1233.498879  	76.597597 
1234.463304  	76.421507 
1235.427728  	76.212311 
1236.392153  	76.050030 
1237.356577  	75.946346 
1238.321002  	75.827317 
1239.285426  	75.699426 
1240.249850  	75.595716 
1241.214275  	75.500690 
1242.178699  	75.347164 
1243.143124  	75.172609 
1244.107548  	75.030991 
1245.071973  	74.966500 
1246.036397  	74.861410 
1247.000822  	74.708497 
1247.965246  	74.588910 
1248.929671  	74.473368 
1249.894095  	74.310305 
1250.858519  	74.145308 
1251.822944  	73.982092 
1252.787368  	73.816216 
1253.751793  	73.616726 
1254.716217  	73.389718 
1255.680642  	73.180816 
1256.645066  	72.987953 
1257.609491  	72.730386 
1258.573915  	72.399996 
1259.538340  	72.025059 
1260.502764  	71.657887 
1261.467188  	71.454616 
1262.431613  	71.189507 
1263.396037  	70.854805 
1264.360462  	70.542134 
1265.324886  	70.233118 
1266.289311  	69.909170 
1267.253735  	69.660835 
1268.218160  	69.412654 
1269.182584  	69.093029 
1270.147009  	68.794028 
1271.111433  	68.603759 
1272.075857  	68.435215 
1273.040282  	68.454401 
1274.004706  	68.520431 
1274.969131  	68.640520 
1275.933555  	68.879895 
1276.897980  	69.300538 
1277.862404  	69.873907 
1278.826829  	70.563682 
1279.791253  	71.278063 
1280.755678  	72.027886 
1281.720102  	72.808180 
1282.684526  	73.541434 
1283.648951  	74.197886 
1284.613375  	74.775417 
1285.577800  	75.338347 
1286.542224  	75.770369 
1287.506649  	75.986320 
1288.471073  	76.300518 
1289.435498  	76.757843 
1290.399922  	77.048797 
1291.364347  	77.280474 
1292.328771  	77.521266 
1293.293195  	77.693802 
1294.257620  	77.815264 
1295.222044  	77.897046 
1296.186469  	77.888817 
1297.150893  	77.923517 
1298.115318  	78.075980 
1299.079742  	78.088667 
1300.044167  	78.066662 
1301.008591  	78.065138 
1301.973016  	78.095486 
1302.937440  	78.146293 
1303.901865  	78.240678 
1304.866289  	78.343312 
1305.830713  	78.449508 
1306.795138  	78.575016 
1307.759562  	78.649444 
1308.723987  	78.802511 
1309.688411  	79.071952 
1310.652836  	79.209974 
1311.617260  	79.206602 
1312.581685  	78.921416 
1313.546109  	79.028580 
1314.510534  	79.258669 
1315.474958  	79.489654 
1316.439382  	79.427240 
1317.403807  	79.298059 
1318.368231  	79.269174 
1319.332656  	79.129173 
1320.297080  	79.389667 
1321.261505  	79.554399 
1322.225929  	79.641433 
1323.190354  	79.526513 
1324.154778  	79.468336 
1325.119203  	79.416543 
1326.083627  	79.318423 
1327.048051  	79.204984 
1328.012476  	79.133230 
1328.976900  	79.048137 
1329.941325  	78.994349 
1330.905749  	79.025640 
1331.870174  	79.061517 
1332.834598  	78.997637 
1333.799023  	78.940876 
1334.763447  	78.863765 
1335.727872  	78.477798 
1336.692296  	77.820447 
1337.656720  	77.627350 
1338.621145  	76.870170 
1339.585569  	76.050904 
1340.549994  	76.258327 
1341.514418  	77.432497 
1342.478843  	77.907012 
1343.443267  	77.800755 
1344.407692  	77.691426 
1345.372116  	77.573473 
1346.336541  	77.431611 
1347.300965  	77.276782 
1348.265389  	77.048694 
1349.229814  	76.709117 
1350.194238  	76.582864 
1351.158663  	76.504374 
1352.123087  	76.285027 
1353.087512  	76.053977 
1354.051936  	75.682476 
1355.016361  	75.223928 
1355.980785  	75.230317 
1356.945210  	75.106778 
1357.909634  	74.757010 
1358.874059  	74.573622 
1359.838483  	74.347273 
1360.802907  	73.531624 
1361.767332  	72.864966 
1362.731756  	71.883618 
1363.696181  	71.828000 
1364.660605  	72.858231 
1365.625030  	72.936067 
1366.589454  	72.733331 
1367.553879  	72.268413 
1368.518303  	71.579635 
1369.482728  	71.537878 
1370.447152  	71.905830 
1371.411576  	71.968724 
1372.376001  	71.903543 
1373.340425  	71.426348 
1374.304850  	71.301773 
1375.269274  	72.171824 
1376.233699  	73.338905 
1377.198123  	73.832732 
1378.162548  	73.988881 
1379.126972  	74.458825 
1380.091397  	74.970642 
1381.055821  	75.492606 
1382.020245  	75.785391 
1382.984670  	76.019642 
1383.949094  	76.273794 
1384.913519  	76.468856 
1385.877943  	76.198978 
1386.842368  	75.356382 
1387.806792  	75.465439 
1388.771217  	76.806172 
1389.735641  	77.388541 
1390.700066  	77.559284 
1391.664490  	77.849936 
1392.628914  	78.136580 
1393.593339  	77.715757 
1394.557763  	76.694659 
1395.522188  	76.826535 
1396.486612  	77.741749 
1397.451037  	77.780343 
1398.415461  	77.194665 
1399.379886  	77.205970 
1400.344310  	78.142382 
1401.308735  	78.537890 
1402.273159  	78.393936 
1403.237583  	78.092399 
1404.202008  	77.237769 
1405.166432  	76.217543 
1406.130857  	76.481299 
1407.095281  	76.445548 
1408.059706  	75.799862 
1409.024130  	74.924704 
1409.988555  	73.731820 
1410.952979  	72.428687 
1411.917404  	70.896481 
1412.881828  	69.614968 
1413.846252  	68.242865 
1414.810677  	66.831401 
1415.775101  	65.623016 
1416.739526  	65.122378 
1417.703950  	65.568643 
1418.668375  	66.135774 
1419.632799  	67.805706 
1420.597224  	71.023789 
1421.561648  	72.247677 
1422.526073  	72.922531 
1423.490497  	72.518473 
1424.454922  	72.850252 
1425.419346  	74.277269 
1426.383770  	74.840751 
1427.348195  	74.903067 
1428.312619  	74.679631 
1429.277044  	74.145369 
1430.241468  	73.710688 
1431.205893  	74.020248 
1432.170317  	73.780882 
1433.134742  	73.349797 
1434.099166  	73.380979 
1435.063591  	73.028705 
1436.028015  	71.561968 
1436.992439  	70.904834 
1437.956864  	72.488946 
1438.921288  	73.053973 
1439.885713  	73.194787 
1440.850137  	73.298063 
1441.814562  	73.379219 
1442.778986  	73.462267 
1443.743411  	73.497152 
1444.707835  	73.488828 
1445.672260  	73.421933 
1446.636684  	73.190113 
1447.601108  	72.306737 
1448.565533  	72.256903 
1449.529957  	72.906830 
1450.494382  	72.791140 
1451.458806  	72.072371 
1452.423231  	71.367142 
1453.387655  	71.350682 
1454.352080  	70.547239 
1455.316504  	69.082843 
1456.280929  	67.768694 
1457.245353  	66.768491 
1458.209777  	66.506321 
1459.174202  	66.733749 
1460.138626  	67.246774 
1461.103051  	67.067543 
1462.067475  	66.203241 
1463.031900  	65.367860 
1463.996324  	64.381384 
1464.960749  	63.788488 
1465.925173  	65.209886 
1466.889598  	66.591677 
1467.854022  	67.763372 
1468.818446  	68.761228 
1469.782871  	69.129460 
1470.747295  	68.459562 
1471.711720  	66.376683 
1472.676144  	64.422418 
1473.640569  	64.316996 
1474.604993  	65.293617 
1475.569418  	65.326795 
1476.533842  	65.774993 
1477.498267  	68.044369 
1478.462691  	69.683459 
1479.427116  	71.061696 
1480.391540  	72.138837 
1481.355964  	72.983221 
1482.320389  	74.690957 
1483.284813  	75.929606 
1484.249238  	76.643174 
1485.213662  	76.811083 
1486.178087  	76.379440 
1487.142511  	75.806160 
1488.106936  	75.908171 
1489.071360  	74.778341 
1490.035785  	73.216710 
1491.000209  	74.324352 
1491.964633  	75.702208 
1492.929058  	75.997494 
1493.893482  	75.673437 
1494.857907  	74.961880 
1495.822331  	73.626505 
1496.786756  	72.954466 
1497.751180  	73.155970 
1498.715605  	72.340796 
1499.680029  	72.268992 
1500.644454  	72.247247 
1501.608878  	71.491914 
1502.573302  	71.121337 
1503.537727  	70.875244 
1504.502151  	69.884835 
1505.466576  	67.873710 
1506.431000  	64.103939 
1507.395425  	62.278631 
1508.359849  	63.272911 
1509.324274  	63.934222 
1510.288698  	64.135409 
1511.253123  	64.352379 
1512.217547  	63.391952 
1513.181971  	63.062880 
1514.146396  	62.543286 
1515.110820  	60.874289 
1516.075245  	59.132507 
1517.039669  	57.214350 
1518.004094  	57.573558 
1518.968518  	57.655682 
1519.932943  	55.987368 
1520.897367  	53.079592 
1521.861792  	52.422349 
1522.826216  	52.425078 
1523.790640  	52.227229 
1524.755065  	51.027435 
1525.719489  	49.794449 
1526.683914  	49.260454 
1527.648338  	48.260693 
1528.612763  	47.837352 
1529.577187  	47.954651 
1530.541612  	47.633964 
1531.506036  	46.809477 
1532.470461  	46.239229 
1533.434885  	45.706562 
1534.399309  	46.644690 
1535.363734  	47.487017 
1536.328158  	48.204743 
1537.292583  	48.730289 
1538.257007  	48.256513 
1539.221432  	47.135549 
1540.185856  	48.772070 
1541.150281  	50.178189 
1542.114705  	50.818540 
1543.079130  	52.211446 
1544.043554  	52.756303 
1545.007979  	53.192550 
1545.972403  	55.270949 
1546.936827  	56.971624 
1547.901252  	57.786124 
1548.865676  	57.958200 
1549.830101  	57.277734 
1550.794525  	58.827661 
1551.758950  	60.477670 
1552.723374  	60.955411 
1553.687799  	60.565158 
1554.652223  	60.808815 
1555.616648  	62.427111 
1556.581072  	62.716995 
1557.545496  	61.739146 
1558.509921  	59.471287 
1559.474345  	59.616208 
1560.438770  	63.501046 
1561.403194  	66.154633 
1562.367619  	67.204937 
1563.332043  	67.904617 
1564.296468  	68.073574 
1565.260892  	68.575990 
1566.225317  	69.799234 
1567.189741  	70.504393 
1568.154165  	70.625040 
1569.118590  	69.784093 
1570.083014  	70.666274 
1571.047439  	72.538275 
1572.011863  	73.276576 
1572.976288  	73.773561 
1573.940712  	74.247783 
1574.905137  	74.184434 
1575.869561  	73.412914 
1576.833986  	73.814205 
1577.798410  	75.131004 
1578.762834  	75.977029 
1579.727259  	76.514806 
1580.691683  	76.823248 
1581.656108  	77.051507 
1582.620532  	77.158352 
1583.584957  	77.302894 
1584.549381  	77.424470 
1585.513806  	77.473560 
1586.478230  	77.461165 
1587.442655  	77.478565 
1588.407079  	77.380576 
1589.371503  	77.123037 
1590.335928  	76.820065 
1591.300352  	76.664771 
1592.264777  	76.412798 
1593.229201  	76.135527 
1594.193626  	75.484072 
1595.158050  	75.032781 
1596.122475  	74.634731 
1597.086899  	74.211279 
1598.051324  	73.726106 
1599.015748  	73.106939 
1599.980173  	72.369317 
1600.944597  	71.453846 
1601.909021  	70.432634 
1602.873446  	69.341096 
1603.837870  	68.363869 
1604.802295  	67.637266 
1605.766719  	66.616512 
1606.731144  	65.419706 
1607.695568  	64.352515 
1608.659993  	63.533824 
1609.624417  	62.352147 
1610.588842  	61.679575 
1611.553266  	60.758561 
1612.517690  	59.615654 
1613.482115  	58.406593 
1614.446539  	57.168689 
1615.410964  	55.573079 
1616.375388  	53.656195 
1617.339813  	52.151526 
1618.304237  	51.869559 
1619.268662  	50.964276 
1620.233086  	49.972364 
1621.197511  	48.955598 
1622.161935  	47.842109 
1623.126359  	46.266452 
1624.090784  	45.793091 
1625.055208  	45.633431 
1626.019633  	45.080578 
1626.984057  	44.154021 
1627.948482  	43.308378 
1628.912906  	42.990476 
1629.877331  	42.751268 
1630.841755  	42.388879 
1631.806180  	42.324999 
1632.770604  	42.439439 
1633.735028  	42.567069 
1634.699453  	42.050292 
1635.663877  	42.633416 
1636.628302  	44.553241 
1637.592726  	45.497756 
1638.557151  	47.334665 
1639.521575  	48.744630 
1640.486000  	49.975817 
1641.450424  	51.393474 
1642.414849  	52.708071 
1643.379273  	54.231822 
1644.343697  	55.410858 
1645.308122  	55.793891 
1646.272546  	56.283761 
1647.236971  	57.556044 
1648.201395  	59.311933 
1649.165820  	61.943152 
1650.130244  	63.414544 
1651.094669  	64.164010 
1652.059093  	63.835571 
1653.023518  	62.304390 
1653.987942  	64.563797 
1654.952366  	67.765010 
1655.916791  	69.864397 
1656.881215  	71.078133 
1657.845640  	72.341984 
1658.810064  	73.572292 
1659.774489  	74.569513 
1660.738913  	75.235615 
1661.703338  	75.558572 
1662.667762  	75.916493 
1663.632187  	77.587911 
1664.596611  	78.985188 
1665.561036  	79.972209 
1666.525460  	80.897599 
1667.489884  	81.239073 
1668.454309  	80.575271 
1669.418733  	80.734123 
1670.383158  	82.556508 
1671.347582  	82.869782 
1672.312007  	83.913384 
1673.276431  	85.082898 
1674.240856  	85.144087 
1675.205280  	84.344690 
1676.169705  	85.525349 
1677.134129  	86.891450 
1678.098553  	87.457860 
1679.062978  	87.422856 
1680.027402  	86.401122 
1680.991827  	87.003383 
1681.956251  	88.217336 
1682.920676  	87.383617 
1683.885100  	84.019782 
1684.849525  	84.560655 
1685.813949  	88.526021 
1686.778374  	89.636082 
1687.742798  	89.343759 
1688.707222  	88.984690 
1689.671647  	89.510128 
1690.636071  	89.931835 
1691.600496  	90.756357 
1692.564920  	91.000105 
1693.529345  	90.924715 
1694.493769  	90.380329 
1695.458194  	88.958708 
1696.422618  	87.961116 
1697.387043  	89.099514 
1698.351467  	89.564763 
1699.315891  	89.118909 
1700.280316  	86.388403 
1701.244740  	88.337830 
1702.209165  	89.768837 
1703.173589  	90.124756 
1704.138014  	89.601904 
1705.102438  	89.366237 
1706.066863  	89.389466 
1707.031287  	89.444932 
1707.995712  	90.388846 
1708.960136  	90.769360 
1709.924560  	90.214092 
1710.888985  	90.169133 
1711.853409  	90.639146 
1712.817834  	90.277398 
1713.782258  	89.296539 
1714.746683  	88.139095 
1715.711107  	88.218021 
1716.675532  	88.341822 
1717.639956  	86.770730 
1718.604381  	86.607566 
1719.568805  	88.955205 
1720.533230  	89.919361 
1721.497654  	90.002865 
1722.462078  	89.849408 
1723.426503  	89.341765 
1724.390927  	89.483079 
1725.355352  	89.877670 
1726.319776  	89.846084 
1727.284201  	89.812881 
1728.248625  	89.724933 
1729.213050  	88.911606 
1730.177474  	87.561131 
1731.141899  	88.483806 
1732.106323  	88.777162 
1733.070747  	87.401484 
1734.035172  	85.098690 
1734.999596  	87.096647 
1735.964021  	89.192907 
1736.928445  	89.707835 
1737.892870  	89.746427 
1738.857294  	89.640546 
1739.821719  	89.059707 
1740.786143  	90.025407 
1741.750568  	90.713812 
1742.714992  	89.952685 
1743.679416  	88.995973 
1744.643841  	89.998699 
1745.608265  	90.656371 
1746.572690  	90.427999 
1747.537114  	89.974632 
1748.501539  	89.653434 
1749.465963  	89.831092 
1750.430388  	90.198682 
1751.394812  	89.394934 
1752.359237  	90.754137 
1753.323661  	91.964598 
1754.288085  	92.464145 
1755.252510  	92.493814 
1756.216934  	91.774167 
1757.181359  	91.029186 
1758.145783  	91.769644 
1759.110208  	92.268453 
1760.074632  	92.535000 
1761.039057  	91.866006 
1762.003481  	90.866685 
1762.967906  	91.902782 
1763.932330  	92.655386 
1764.896754  	92.819183 
1765.861179  	92.909752 
1766.825603  	92.671069 
1767.790028  	91.583808 
1768.754452  	91.327807 
1769.718877  	92.439065 
1770.683301  	92.076111 
1771.647726  	90.918932 
1772.612150  	90.509429 
1773.576575  	91.762663 
1774.540999  	92.400552 
1775.505423  	91.977725 
1776.469848  	92.271816 
1777.434272  	92.999962 
1778.398697  	92.745406 
1779.363121  	92.385656 
1780.327546  	91.892230 
1781.291970  	91.850304 
1782.256395  	92.612384 
1783.220819  	92.982225 
1784.185244  	92.605370 
1785.149668  	92.024385 
1786.114093  	92.640132 
1787.078517  	93.083089 
1788.042941  	93.031107 
1789.007366  	92.982532 
1789.971790  	92.602828 
1790.936215  	91.539597 
1791.900639  	91.047764 
1792.865064  	91.078866 
1793.829488  	92.119037 
1794.793913  	92.512499 
1795.758337  	91.769939 
1796.722762  	91.859330 
1797.687186  	92.735790 
1798.651610  	92.772640 
1799.616035  	92.129714 
1800.580459  	92.124719 
1801.544884  	91.846750 
1802.509308  	91.661484 
1803.473733  	92.563667 
1804.438157  	93.135671 
1805.402582  	93.104098 
1806.367006  	93.052037 
1807.331431  	92.754473 
1808.295855  	92.640393 
1809.260279  	92.929203 
1810.224704  	92.439521 
1811.189128  	92.029831 
1812.153553  	92.383605 
1813.117977  	92.763605 
1814.082402  	93.215196 
1815.046826  	93.255648 
1816.011251  	93.263462 
1816.975675  	92.930095 
1817.940100  	92.743453 
1818.904524  	93.106608 
1819.868948  	93.220376 
1820.833373  	93.076914 
1821.797797  	93.025640 
1822.762222  	92.807071 
1823.726646  	92.789864 
1824.691071  	92.099864 
1825.655495  	91.429043 
1826.619920  	92.543758 
1827.584344  	93.020320 
1828.548769  	92.493522 
1829.513193  	91.207394 
1830.477617  	91.303857 
1831.442042  	92.593900 
1832.406466  	92.882308 
1833.370891  	92.722492 
1834.335315  	92.973855 
1835.299740  	93.194953 
1836.264164  	92.939347 
1837.228589  	92.417644 
1838.193013  	92.655293 
1839.157438  	93.040280 
1840.121862  	93.093680 
1841.086287  	93.065498 
1842.050711  	92.636399 
1843.015135  	92.265743 
1843.979560  	91.420447 
1844.943984  	91.237760 
1845.908409  	92.193336 
1846.872833  	92.466164 
1847.837258  	91.995372 
1848.801682  	92.375198 
1849.766107  	93.003025 
1850.730531  	93.211261 
1851.694956  	93.199230 
1852.659380  	93.186597 
1853.623804  	93.202865 
1854.588229  	93.207834 
1855.552653  	93.164343 
1856.517078  	93.086972 
1857.481502  	93.030094 
1858.445927  	92.865397 
1859.410351  	92.825339 
1860.374776  	92.980746 
1861.339200  	92.895064 
1862.303625  	92.930340 
1863.268049  	93.026687 
1864.232473  	93.017313 
1865.196898  	92.979493 
1866.161322  	92.599742 
1867.125747  	92.157358 
1868.090171  	91.551557 
1869.054596  	91.028686 
1870.019020  	91.586727 
1870.983445  	92.360871 
1871.947869  	92.883797 
1872.912294  	93.108517 
1873.876718  	93.167103 
1874.841142  	93.125930 
1875.805567  	93.159406 
1876.769991  	93.165533 
1877.734416  	93.143769 
1878.698840  	93.032704 
1879.663265  	92.898493 
1880.627689  	92.934524 
1881.592114  	92.987244 
1882.556538  	92.990350 
1883.520963  	93.066938 
1884.485387  	92.986831 
1885.449811  	92.942874 
1886.414236  	93.102508 
1887.378660  	93.149965 
1888.343085  	92.868158 
1889.307509  	91.983562 
1890.271934  	91.878688 
1891.236358  	92.717702 
1892.200783  	92.978444 
1893.165207  	93.003897 
1894.129632  	92.847632 
1895.094056  	92.369448 
1896.058480  	92.515861 
1897.022905  	92.959782 
1897.987329  	92.962276 
1898.951754  	92.907876 
1899.916178  	92.932055 
1900.880603  	93.048077 
1901.845027  	92.900455 
1902.809452  	92.925934 
1903.773876  	92.924362 
1904.738301  	92.925920 
1905.702725  	92.943860 
1906.667150  	93.028989 
1907.631574  	92.713897 
1908.595998  	92.605829 
1909.560423  	92.490839 
1910.524847  	92.470030 
1911.489272  	92.974971 
1912.453696  	93.053175 
1913.418121  	92.958405 
1914.382545  	92.907593 
1915.346970  	92.913618 
1916.311394  	92.926410 
1917.275819  	92.443080 
1918.240243  	91.798983 
1919.204667  	92.481792 
1920.169092  	92.943227 
1921.133516  	92.782426 
1922.097941  	92.051408 
1923.062365  	91.429116 
1924.026790  	92.364347 
1924.991214  	92.922537 
1925.955639  	92.826058 
1926.920063  	92.896095 
1927.884488  	93.050641 
1928.848912  	93.142214 
1929.813336  	93.205774 
1930.777761  	93.097794 
1931.742185  	93.012673 
1932.706610  	93.070293 
1933.671034  	93.250462 
1934.635459  	93.213160 
1935.599883  	93.144233 
1936.564308  	93.259480 
1937.528732  	93.260966 
1938.493157  	93.269325 
1939.457581  	93.414768 
1940.422005  	93.219376 
1941.386430  	92.762355 
1942.350854  	91.794436 
1943.315279  	91.984423 
1944.279703  	92.848355 
1945.244128  	92.893017 
1946.208552  	92.868046 
1947.172977  	92.928559 
1948.137401  	93.013515 
1949.101826  	93.009955 
1950.066250  	93.184254 
1951.030674  	93.326836 
1951.995099  	93.062498 
1952.959523  	93.032223 
1953.923948  	93.107925 
1954.888372  	93.123369 
1955.852797  	93.139347 
1956.817221  	93.299321 
1957.781646  	93.421101 
1958.746070  	93.523991 
1959.710495  	93.560183 
1960.674919  	93.375941 
1961.639344  	93.108056 
1962.603768  	93.064864 
1963.568192  	93.088100 
1964.532617  	93.466222 
1965.497041  	93.478285 
1966.461466  	93.173900 
1967.425890  	92.803249 
1968.390315  	93.185780 
1969.354739  	93.445524 
1970.319164  	93.539613 
1971.283588  	93.337452 
1972.248013  	93.035580 
1973.212437  	93.006929 
1974.176861  	93.107137 
1975.141286  	92.998982 
1976.105710  	93.251427 
1977.070135  	93.654165 
1978.034559  	93.568214 
1978.998984  	93.182045 
1979.963408  	93.224422 
1980.927833  	93.188622 
1981.892257  	93.076072 
1982.856682  	92.979671 
1983.821106  	92.952557 
1984.785530  	93.094794 
1985.749955  	93.106549 
1986.714379  	93.081461 
1987.678804  	92.939589 
1988.643228  	92.534875 
1989.607653  	92.944701 
1990.572077  	92.973288 
1991.536502  	92.348910 
1992.500926  	92.113178 
1993.465351  	92.597010 
1994.429775  	92.944918 
1995.394199  	93.008863 
1996.358624  	92.970097 
1997.323048  	92.905600 
1998.287473  	92.859026 
1999.251897  	92.905259 
2000.216322  	93.157310 
2001.180746  	93.422325 
2002.145171  	93.307469 
2003.109595  	93.503954 
2004.074020  	93.427863 
2005.038444  	93.604365 
2006.002868  	93.676696 
2006.967293  	93.548375 
2007.931717  	93.213486 
2008.896142  	93.137300 
2009.860566  	93.479975 
2010.824991  	93.719530 
2011.789415  	93.472221 
2012.753840  	93.541203 
2013.718264  	93.291164 
2014.682689  	92.925369 
2015.647113  	93.081943 
2016.611537  	92.880820 
2017.575962  	92.501367 
2018.540386  	92.677030 
2019.504811  	92.830395 
2020.469235  	93.369093 
2021.433660  	93.833618 
2022.398084  	93.792414 
2023.362509  	93.285627 
2024.326933  	92.966351 
2025.291358  	93.086338 
2026.255782  	93.362569 
2027.220207  	93.272394 
2028.184631  	93.298772 
2029.149055  	93.638736 
2030.113480  	93.883205 
2031.077904  	93.920628 
2032.042329  	93.531411 
2033.006753  	93.258515 
2033.971178  	93.263673 
2034.935602  	93.087526 
2035.900027  	93.292749 
2036.864451  	93.328755 
2037.828876  	93.288746 
2038.793300  	93.282851 
2039.757724  	92.992569 
2040.722149  	92.621554 
2041.686573  	92.489962 
2042.650998  	92.546183 
2043.615422  	92.609186 
2044.579847  	92.699061 
2045.544271  	93.042135 
2046.508696  	93.284956 
2047.473120  	93.211197 
2048.437545  	93.097405 
2049.401969  	93.068345 
2050.366393  	92.593359 
2051.330818  	92.585931 
2052.295242  	93.000335 
2053.259667  	93.254108 
2054.224091  	92.921827 
2055.188516  	92.610188 
2056.152940  	92.636583 
2057.117365  	92.810187 
2058.081789  	92.986999 
2059.046214  	93.047146 
2060.010638  	92.890269 
2060.975062  	92.743896 
2061.939487  	92.774961 
2062.903911  	92.794528 
2063.868336  	92.695393 
2064.832760  	92.581567 
2065.797185  	92.666345 
2066.761609  	92.851700 
2067.726034  	92.910305 
2068.690458  	92.999367 
2069.654883  	93.074321 
2070.619307  	93.038119 
2071.583731  	93.059156 
2072.548156  	93.005304 
2073.512580  	92.684688 
2074.477005  	92.557108 
2075.441429  	92.718107 
2076.405854  	92.799444 
2077.370278  	92.727064 
2078.334703  	92.734322 
2079.299127  	92.814465 
2080.263552  	92.760104 
2081.227976  	92.599041 
2082.192401  	92.572205 
2083.156825  	92.544485 
2084.121249  	92.646086 
2085.085674  	92.852390 
2086.050098  	92.871240 
2087.014523  	92.742372 
2087.978947  	92.729476 
2088.943372  	92.704005 
2089.907796  	92.629453 
2090.872221  	92.634352 
2091.836645  	92.923357 
2092.801070  	93.018989 
2093.765494  	93.059104 
2094.729918  	92.980853 
2095.694343  	92.840989 
2096.658767  	92.704012 
2097.623192  	92.747831 
2098.587616  	92.773306 
2099.552041  	92.888312 
2100.516465  	92.951636 
2101.480890  	92.933583 
2102.445314  	92.803227 
2103.409739  	92.722338 
2104.374163  	92.732330 
2105.338587  	92.738768 
2106.303012  	92.703498 
2107.267436  	92.717710 
2108.231861  	92.654426 
2109.196285  	92.577559 
2110.160710  	92.633514 
2111.125134  	92.773973 
2112.089559  	92.665424 
2113.053983  	92.704500 
2114.018408  	92.803026 
2114.982832  	92.799832 
2115.947256  	92.690094 
2116.911681  	92.751205 
2117.876105  	92.875481 
2118.840530  	92.929215 
2119.804954  	92.957247 
2120.769379  	93.002435 
2121.733803  	92.966418 
2122.698228  	93.015694 
2123.662652  	92.835577 
2124.627077  	92.790776 
2125.591501  	92.916986 
2126.555925  	93.090968 
2127.520350  	93.046427 
2128.484774  	93.016426 
2129.449199  	93.201616 
2130.413623  	93.310600 
2131.378048  	93.183067 
2132.342472  	93.336739 
2133.306897  	93.504922 
2134.271321  	93.405860 
2135.235746  	93.157756 
2136.200170  	93.081096 
2137.164594  	93.357378 
2138.129019  	93.405263 
2139.093443  	93.280356 
2140.057868  	93.323072 
2141.022292  	93.183029 
2141.986717  	93.119924 
2142.951141  	93.156740 
2143.915566  	93.399376 
2144.879990  	93.373702 
2145.844415  	93.383064 
2146.808839  	93.389157 
2147.773264  	93.393749 
2148.737688  	93.678764 
2149.702112  	93.795919 
2150.666537  	93.623065 
2151.630961  	93.661969 
2152.595386  	93.724998 
2153.559810  	93.646694 
2154.524235  	93.910458 
2155.488659  	94.499372 
2156.453084  	94.373553 
2157.417508  	94.247199 
2158.381933  	94.143893 
2159.346357  	93.327336 
2160.310781  	92.795524 
2161.275206  	92.611991 
2162.239630  	92.711758 
2163.204055  	93.108939 
2164.168479  	93.066653 
2165.132904  	92.917732 
2166.097328  	93.148759 
2167.061753  	93.481017 
2168.026177  	93.334156 
2168.990602  	92.978990 
2169.955026  	92.895964 
2170.919450  	93.395329 
2171.883875  	93.143056 
2172.848299  	92.944407 
2173.812724  	92.973955 
2174.777148  	93.302010 
2175.741573  	93.193407 
2176.705997  	92.755922 
2177.670422  	92.903490 
2178.634846  	93.449072 
2179.599271  	93.388718 
2180.563695  	93.166313 
2181.528119  	93.260553 
2182.492544  	93.215048 
2183.456968  	92.747057 
2184.421393  	92.809864 
2185.385817  	93.084081 
2186.350242  	93.132372 
2187.314666  	92.886332 
2188.279091  	93.047256 
2189.243515  	93.083997 
2190.207940  	93.002663 
2191.172364  	93.091940 
2192.136788  	92.982034 
2193.101213  	92.745107 
2194.065637  	92.762481 
2195.030062  	92.761068 
2195.994486  	92.688871 
2196.958911  	92.758139 
2197.923335  	92.881280 
2198.887760  	92.827921 
2199.852184  	93.061193 
2200.816609  	93.055030 
2201.781033  	92.840691 
2202.745458  	92.889820 
2203.709882  	92.920916 
2204.674306  	92.889364 
2205.638731  	92.841978 
2206.603155  	92.723915 
2207.567580  	92.883765 
2208.532004  	92.941620 
2209.496429  	92.938684 
2210.460853  	92.880523 
2211.425278  	92.860107 
2212.389702  	92.674590 
2213.354127  	92.655384 
2214.318551  	92.655987 
2215.282975  	92.672098 
2216.247400  	92.783064 
2217.211824  	92.959913 
2218.176249  	92.981581 
2219.140673  	92.920018 
2220.105098  	92.652686 
2221.069522  	92.697620 
2222.033947  	92.827563 
2222.998371  	92.803270 
2223.962796  	92.740878 
2224.927220  	92.900183 
2225.891644  	92.900728 
2226.856069  	92.819110 
2227.820493  	92.813515 
2228.784918  	92.978067 
2229.749342  	92.909202 
2230.713767  	92.823655 
2231.678191  	92.703178 
2232.642616  	92.769157 
2233.607040  	92.956230 
2234.571465  	92.947244 
2235.535889  	92.765522 
2236.500313  	92.643762 
2237.464738  	92.692497 
2238.429162  	92.860939 
2239.393587  	92.722607 
2240.358011  	92.680737 
2241.322436  	92.970520 
2242.286860  	92.907174 
2243.251285  	92.686981 
2244.215709  	92.692616 
2245.180134  	92.635680 
2246.144558  	92.656726 
2247.108982  	92.753418 
2248.073407  	92.826599 
2249.037831  	92.821291 
2250.002256  	92.703685 
2250.966680  	92.686350 
2251.931105  	92.791676 
2252.895529  	92.706029 
2253.859954  	92.690054 
2254.824378  	92.772419 
2255.788803  	92.789102 
2256.753227  	92.716343 
2257.717651  	92.760799 
2258.682076  	92.626695 
2259.646500  	92.579724 
2260.610925  	92.568814 
2261.575349  	92.709091 
2262.539774  	92.805140 
2263.504198  	92.832393 
2264.468623  	92.744569 
2265.433047  	92.742556 
2266.397472  	92.691668 
2267.361896  	92.617179 
2268.326321  	92.549248 
2269.290745  	92.555715 
2270.255169  	92.672504 
2271.219594  	92.801565 
2272.184018  	92.692629 
2273.148443  	92.666768 
2274.112867  	92.719123 
2275.077292  	92.691856 
2276.041716  	92.613109 
2277.006141  	92.628468 
2277.970565  	92.571758 
2278.934990  	92.548822 
2279.899414  	92.489458 
2280.863838  	92.525058 
2281.828263  	92.509545 
2282.792687  	92.440492 
2283.757112  	92.409309 
2284.721536  	92.377900 
2285.685961  	92.375627 
2286.650385  	92.428499 
2287.614810  	92.398889 
2288.579234  	92.337525 
2289.543659  	92.291726 
2290.508083  	92.417810 
2291.472507  	92.416028 
2292.436932  	92.443503 
2293.401356  	92.406304 
2294.365781  	92.329607 
2295.330205  	92.331776 
2296.294630  	92.254210 
2297.259054  	92.237908 
2298.223479  	92.163990 
2299.187903  	92.170975 
2300.152328  	92.188459 
2301.116752  	92.141243 
2302.081176  	92.166996 
2303.045601  	92.045206 
2304.010025  	92.152570 
2304.974450  	92.014043 
2305.938874  	92.046082 
2306.903299  	91.957462 
2307.867723  	91.966525 
2308.832148  	91.886247 
2309.796572  	91.976832 
2310.760997  	91.961092 
2311.725421  	92.017610 
2312.689845  	92.074818 
2313.654270  	92.092994 
2314.618694  	92.154191 
2315.583119  	92.290890 
2316.547543  	92.390304 
2317.511968  	92.472966 
2318.476392  	92.433562 
2319.440817  	92.459175 
2320.405241  	92.422148 
2321.369666  	92.516479 
2322.334090  	92.593219 
2323.298515  	92.627312 
2324.262939  	92.679808 
2325.227363  	92.989137 
2326.191788  	93.274764 
2327.156212  	93.511594 
2328.120637  	93.569547 
2329.085061  	93.637689 
2330.049486  	93.789279 
2331.013910  	93.836024 
2331.978335  	93.917972 
2332.942759  	94.118124 
2333.907184  	94.239217 
2334.871608  	94.334725 
2335.836032  	94.491589 
2336.800457  	94.626604 
2337.764881  	94.696677 
2338.729306  	94.748138 
2339.693730  	94.639290 
2340.658155  	94.655171 
2341.622579  	94.683354 
2342.587004  	94.685981 
2343.551428  	94.556890 
2344.515853  	94.245933 
2345.480277  	93.957613 
2346.444701  	93.684013 
2347.409126  	93.409670 
2348.373550  	92.990714 
2349.337975  	92.784717 
2350.302399  	93.104268 
2351.266824  	93.639007 
2352.231248  	94.186912 
2353.195673  	94.406425 
2354.160097  	94.482571 
2355.124522  	94.662290 
2356.088946  	95.068229 
2357.053370  	95.186128 
2358.017795  	95.276937 
2358.982219  	95.341329 
2359.946644  	95.535613 
2360.911068  	95.515662 
2361.875493  	95.460166 
2362.839917  	95.468371 
2363.804342  	95.363716 
2364.768766  	95.164156 
2365.733191  	95.210159 
2366.697615  	95.053457 
2367.662039  	94.799398 
2368.626464  	94.458046 
2369.590888  	94.125755 
2370.555313  	93.872628 
2371.519737  	93.643776 
2372.484162  	93.436485 
2373.448586  	93.279351 
2374.413011  	92.996793 
2375.377435  	92.751401 
2376.341860  	92.609696 
2377.306284  	92.526281 
2378.270708  	92.393152 
2379.235133  	92.254277 
2380.199557  	92.246520 
2381.163982  	92.291511 
2382.128406  	92.308908 
2383.092831  	92.353529 
2384.057255  	92.380090 
2385.021680  	92.450486 
2385.986104  	92.522868 
2386.950529  	92.579487 
2387.914953  	92.616422 
2388.879378  	92.635015 
2389.843802  	92.682388 
2390.808226  	92.705404 
2391.772651  	92.688391 
2392.737075  	92.714151 
2393.701500  	92.772777 
2394.665924  	92.756109 
2395.630349  	92.729320 
2396.594773  	92.733853 
2397.559198  	92.717513 
2398.523622  	92.751410 
2399.488047  	92.794958 
2400.452471  	92.791039 
2401.416895  	92.730570 
2402.381320  	92.677847 
2403.345744  	92.706294 
2404.310169  	92.748909 
2405.274593  	92.710870 
2406.239018  	92.684597 
2407.203442  	92.677812 
2408.167867  	92.667165 
2409.132291  	92.633277 
2410.096716  	92.611633 
2411.061140  	92.614335 
2412.025564  	92.623105 
2412.989989  	92.623336 
2413.954413  	92.641818 
2414.918838  	92.656034 
2415.883262  	92.640771 
2416.847687  	92.603134 
2417.812111  	92.618886 
2418.776536  	92.625287 
2419.740960  	92.650814 
2420.705385  	92.673980 
2421.669809  	92.639973 
2422.634233  	92.639692 
2423.598658  	92.633054 
2424.563082  	92.621399 
2425.527507  	92.654815 
2426.491931  	92.645556 
2427.456356  	92.613647 
2428.420780  	92.646842 
2429.385205  	92.626940 
2430.349629  	92.611702 
2431.314054  	92.640720 
2432.278478  	92.626698 
2433.242902  	92.612333 
2434.207327  	92.601444 
2435.171751  	92.632691 
2436.136176  	92.709750 
2437.100600  	92.733753 
2438.065025  	92.650657 
2439.029449  	92.646580 
2439.993874  	92.667889 
2440.958298  	92.659936 
2441.922723  	92.606838 
2442.887147  	92.561826 
2443.851572  	92.622681 
2444.815996  	92.690099 
2445.780420  	92.643121 
2446.744845  	92.561898 
2447.709269  	92.582903 
2448.673694  	92.623285 
2449.638118  	92.599394 
2450.602543  	92.563105 
2451.566967  	92.539165 
2452.531392  	92.568617 
2453.495816  	92.540940 
2454.460241  	92.541155 
2455.424665  	92.569690 
2456.389089  	92.543001 
2457.353514  	92.491467 
2458.317938  	92.491598 
2459.282363  	92.511758 
2460.246787  	92.533812 
2461.211212  	92.563272 
2462.175636  	92.594270 
2463.140061  	92.601852 
2464.104485  	92.577508 
2465.068910  	92.536631 
2466.033334  	92.492780 
2466.997758  	92.487968 
2467.962183  	92.535053 
2468.926607  	92.521548 
2469.891032  	92.486502 
2470.855456  	92.517281 
2471.819881  	92.557816 
2472.784305  	92.538745 
2473.748730  	92.547854 
2474.713154  	92.548980 
2475.677579  	92.560044 
2476.642003  	92.540785 
2477.606427  	92.548869 
2478.570852  	92.570307 
2479.535276  	92.552854 
2480.499701  	92.506937 
2481.464125  	92.497268 
2482.428550  	92.522324 
2483.392974  	92.542025 
2484.357399  	92.560909 
2485.321823  	92.529876 
2486.286248  	92.477350 
2487.250672  	92.495189 
2488.215096  	92.564834 
2489.179521  	92.558486 
2490.143945  	92.453608 
2491.108370  	92.408930 
2492.072794  	92.494320 
2493.037219  	92.543541 
2494.001643  	92.540019 
2494.966068  	92.582440 
2495.930492  	92.640222 
2496.894917  	92.570285 
2497.859341  	92.476120 
2498.823765  	92.454602 
2499.788190  	92.473223 
2500.752614  	92.496370 
2501.717039  	92.470581 
2502.681463  	92.444097 
2503.645888  	92.467718 
2504.610312  	92.474878 
2505.574737  	92.490448 
2506.539161  	92.548660 
2507.503586  	92.528748 
2508.468010  	92.486810 
2509.432435  	92.452600 
2510.396859  	92.466431 
2511.361283  	92.470838 
2512.325708  	92.422622 
2513.290132  	92.440843 
2514.254557  	92.489652 
2515.218981  	92.430372 
2516.183406  	92.438265 
2517.147830  	92.471228 
2518.112255  	92.408002 
2519.076679  	92.408283 
2520.041104  	92.464358 
2521.005528  	92.452839 
2521.969952  	92.374117 
2522.934377  	92.350067 
2523.898801  	92.457334 
2524.863226  	92.486077 
2525.827650  	92.435538 
2526.792075  	92.466089 
2527.756499  	92.460275 
2528.720924  	92.465991 
2529.685348  	92.398128 
2530.649773  	92.338459 
2531.614197  	92.343763 
2532.578621  	92.346818 
2533.543046  	92.358006 
2534.507470  	92.364091 
2535.471895  	92.358156 
2536.436319  	92.343814 
2537.400744  	92.339244 
2538.365168  	92.329663 
2539.329593  	92.332334 
2540.294017  	92.327283 
2541.258442  	92.340992 
2542.222866  	92.368415 
2543.187290  	92.410347 
2544.151715  	92.449650 
2545.116139  	92.442242 
2546.080564  	92.396451 
2547.044988  	92.329578 
2548.009413  	92.259099 
2548.973837  	92.271535 
2549.938262  	92.305903 
2550.902686  	92.374249 
2551.867111  	92.364411 
2552.831535  	92.255480 
2553.795959  	92.221435 
2554.760384  	92.267080 
2555.724808  	92.242051 
2556.689233  	92.215683 
2557.653657  	92.246512 
2558.618082  	92.245808 
2559.582506  	92.286735 
2560.546931  	92.284078 
2561.511355  	92.235300 
2562.475780  	92.265989 
2563.440204  	92.261509 
2564.404629  	92.252261 
2565.369053  	92.262597 
2566.333477  	92.250784 
2567.297902  	92.244176 
2568.262326  	92.221071 
2569.226751  	92.142344 
2570.191175  	92.087639 
2571.155600  	92.112197 
2572.120024  	92.166940 
2573.084449  	92.215028 
2574.048873  	92.185031 
2575.013298  	92.107413 
2575.977722  	92.102047 
2576.942146  	92.148346 
2577.906571  	92.149974 
2578.870995  	92.127234 
2579.835420  	92.120291 
2580.799844  	92.117301 
2581.764269  	92.076766 
2582.728693  	92.134378 
2583.693118  	92.102926 
2584.657542  	92.044694 
2585.621967  	92.069555 
2586.586391  	92.063785 
2587.550815  	92.071470 
2588.515240  	92.033984 
2589.479664  	92.006803 
2590.444089  	92.024171 
2591.408513  	92.102513 
2592.372938  	92.119331 
2593.337362  	92.035885 
2594.301787  	91.970025 
2595.266211  	91.972958 
2596.230636  	92.022879 
2597.195060  	92.048799 
2598.159484  	92.020184 
2599.123909  	92.076308 
2600.088333  	92.114461 
2601.052758  	92.045983 
2602.017182  	92.017770 
2602.981607  	92.034138 
2603.946031  	92.032301 
2604.910456  	92.054047 
2605.874880  	92.040252 
2606.839305  	92.018590 
2607.803729  	92.038000 
2608.768153  	92.011739 
2609.732578  	91.978479 
2610.697002  	91.964151 
2611.661427  	91.964141 
2612.625851  	91.990658 
2613.590276  	91.993934 
2614.554700  	91.983981 
2615.519125  	91.978012 
2616.483549  	91.990554 
2617.447974  	91.994728 
2618.412398  	92.029503 
2619.376822  	91.996569 
2620.341247  	91.955088 
2621.305671  	91.962381 
2622.270096  	91.987626 
2623.234520  	91.980778 
2624.198945  	91.989005 
2625.163369  	92.029336 
2626.127794  	91.987902 
2627.092218  	91.951411 
2628.056643  	91.977245 
2629.021067  	91.971467 
2629.985492  	91.980488 
2630.949916  	92.020833 
2631.914340  	92.005949 
2632.878765  	91.962715 
2633.843189  	91.980620 
2634.807614  	91.984209 
2635.772038  	91.961150 
2636.736463  	91.949887 
2637.700887  	91.957385 
2638.665312  	91.956731 
2639.629736  	91.931791 
2640.594161  	91.955774 
2641.558585  	91.971006 
2642.523009  	91.901067 
2643.487434  	91.876648 
2644.451858  	91.902252 
2645.416283  	91.906150 
2646.380707  	91.903649 
2647.345132  	91.902940 
2648.309556  	91.893726 
2649.273981  	91.896204 
2650.238405  	91.902164 
2651.202830  	91.899647 
2652.167254  	91.878632 
2653.131678  	91.869334 
2654.096103  	91.862056 
2655.060527  	91.858684 
2656.024952  	91.854944 
2656.989376  	91.851638 
2657.953801  	91.824341 
2658.918225  	91.838597 
2659.882650  	91.860886 
2660.847074  	91.867912 
2661.811499  	91.885082 
2662.775923  	91.894207 
2663.740347  	91.908814 
2664.704772  	91.913841 
2665.669196  	91.917631 
2666.633621  	91.904372 
2667.598045  	91.887856 
2668.562470  	91.890556 
2669.526894  	91.885693 
2670.491319  	91.863657 
2671.455743  	91.882047 
2672.420168  	91.886794 
2673.384592  	91.859317 
2674.349016  	91.857549 
2675.313441  	91.863494 
2676.277865  	91.867657 
2677.242290  	91.871709 
2678.206714  	91.841859 
2679.171139  	91.818840 
2680.135563  	91.828970 
2681.099988  	91.836397 
2682.064412  	91.863455 
2683.028837  	91.852100 
2683.993261  	91.817959 
2684.957686  	91.808488 
2685.922110  	91.812350 
2686.886534  	91.780727 
2687.850959  	91.755137 
2688.815383  	91.778109 
2689.779808  	91.793025 
2690.744232  	91.770851 
2691.708657  	91.762699 
2692.673081  	91.760069 
2693.637506  	91.737311 
2694.601930  	91.728434 
2695.566355  	91.751026 
2696.530779  	91.747649 
2697.495203  	91.745803 
2698.459628  	91.752846 
2699.424052  	91.743844 
2700.388477  	91.715177 
2701.352901  	91.695131 
2702.317326  	91.694591 
2703.281750  	91.715205 
2704.246175  	91.740233 
2705.210599  	91.726506 
2706.175024  	91.702923 
2707.139448  	91.686433 
2708.103872  	91.678636 
2709.068297  	91.691424 
2710.032721  	91.684595 
2710.997146  	91.662467 
2711.961570  	91.637226 
2712.925995  	91.666341 
2713.890419  	91.681871 
2714.854844  	91.657480 
2715.819268  	91.648379 
2716.783693  	91.616166 
2717.748117  	91.586295 
2718.712541  	91.596141 
2719.676966  	91.609580 
2720.641390  	91.603361 
2721.605815  	91.607396 
2722.570239  	91.592587 
2723.534664  	91.550124 
2724.499088  	91.507574 
2725.463513  	91.476285 
2726.427937  	91.452087 
2727.392362  	91.429465 
2728.356786  	91.404185 
2729.321210  	91.370387 
2730.285635  	91.382104 
2731.250059  	91.359167 
2732.214484  	91.328090 
2733.178908  	91.319438 
2734.143333  	91.311785 
2735.107757  	91.295249 
2736.072182  	91.320696 
2737.036606  	91.324451 
2738.001031  	91.257223 
2738.965455  	91.198821 
2739.929879  	91.174443 
2740.894304  	91.166646 
2741.858728  	91.181343 
2742.823153  	91.169155 
2743.787577  	91.162947 
2744.752002  	91.172246 
2745.716426  	91.137080 
2746.680851  	91.108488 
2747.645275  	91.108009 
2748.609700  	91.097065 
2749.574124  	91.113870 
2750.538549  	91.114337 
2751.502973  	91.064972 
2752.467397  	91.056791 
2753.431822  	91.062874 
2754.396246  	91.067301 
2755.360671  	91.076056 
2756.325095  	91.071339 
2757.289520  	91.029715 
2758.253944  	91.012732 
2759.218369  	91.004550 
2760.182793  	90.984332 
2761.147218  	90.972524 
2762.111642  	90.958573 
2763.076066  	90.974255 
2764.040491  	90.999339 
2765.004915  	90.973787 
2765.969340  	90.952586 
2766.933764  	90.952025 
2767.898189  	90.936337 
2768.862613  	90.922204 
2769.827038  	90.877096 
2770.791462  	90.826310 
2771.755887  	90.791624 
2772.720311  	90.815672 
2773.684735  	90.828167 
2774.649160  	90.794404 
2775.613584  	90.796676 
2776.578009  	90.783342 
2777.542433  	90.762586 
2778.506858  	90.751804 
2779.471282  	90.727833 
2780.435707  	90.715423 
2781.400131  	90.715017 
2782.364556  	90.717756 
2783.328980  	90.688418 
2784.293404  	90.651362 
2785.257829  	90.627274 
2786.222253  	90.626112 
2787.186678  	90.602865 
2788.151102  	90.586542 
2789.115527  	90.610190 
2790.079951  	90.575850 
2791.044376  	90.530247 
2792.008800  	90.509267 
2792.973225  	90.451920 
2793.937649  	90.411479 
2794.902073  	90.377269 
2795.866498  	90.369523 
2796.830922  	90.368454 
2797.795347  	90.334253 
2798.759771  	90.278042 
2799.724196  	90.220248 
2800.688620  	90.165868 
2801.653045  	90.119173 
2802.617469  	90.079561 
2803.581894  	90.084858 
2804.546318  	90.082574 
2805.510743  	90.033513 
2806.475167  	89.958380 
2807.439591  	89.898798 
2808.404016  	89.850230 
2809.368440  	89.837027 
2810.332865  	89.821233 
2811.297289  	89.747846 
2812.261714  	89.689686 
2813.226138  	89.660782 
2814.190563  	89.569306 
2815.154987  	89.505929 
2816.119412  	89.445812 
2817.083836  	89.380455 
2818.048260  	89.326963 
2819.012685  	89.245033 
2819.977109  	89.188522 
2820.941534  	89.134154 
2821.905958  	89.058007 
2822.870383  	88.981573 
2823.834807  	88.898678 
2824.799232  	88.824491 
2825.763656  	88.784531 
2826.728081  	88.734478 
2827.692505  	88.666341 
2828.656929  	88.620859 
2829.621354  	88.566825 
2830.585778  	88.477842 
2831.550203  	88.387526 
2832.514627  	88.289442 
2833.479052  	88.179333 
2834.443476  	88.068622 
2835.407901  	87.927356 
2836.372325  	87.728832 
2837.336750  	87.505800 
2838.301174  	87.248675 
2839.265598  	86.948511 
2840.230023  	86.613914 
2841.194447  	86.232039 
2842.158872  	85.755671 
2843.123296  	85.179601 
2844.087721  	84.530507 
2845.052145  	83.760003 
2846.016570  	82.854690 
2846.980994  	81.848748 
2847.945419  	80.782603 
2848.909843  	79.769719 
2849.874267  	78.943259 
2850.838692  	78.411665 
2851.803116  	78.083926 
2852.767541  	77.806994 
2853.731965  	77.544543 
2854.696390  	77.318370 
2855.660814  	77.107855 
2856.625239  	76.910208 
2857.589663  	76.771182 
2858.554088  	76.730863 
2859.518512  	76.747129 
2860.482936  	76.826716 
2861.447361  	76.981478 
2862.411785  	77.224591 
2863.376210  	77.514956 
2864.340634  	77.796380 
2865.305059  	78.057627 
2866.269483  	78.317360 
2867.233908  	78.542701 
2868.198332  	78.709520 
2869.162757  	78.859047 
2870.127181  	79.016606 
2871.091606  	79.139522 
2872.056030  	79.255523 
2873.020454  	79.415067 
2873.984879  	79.595191 
2874.949303  	79.800931 
2875.913728  	80.081428 
2876.878152  	80.402590 
2877.842577  	80.749638 
2878.807001  	81.150345 
2879.771426  	81.578104 
2880.735850  	81.924255 
2881.700275  	82.236322 
2882.664699  	82.599336 
2883.629123  	82.890468 
2884.593548  	83.116595 
2885.557972  	83.284376 
2886.522397  	83.384408 
2887.486821  	83.448301 
2888.451246  	83.461359 
2889.415670  	83.439691 
2890.380095  	83.362882 
2891.344519  	83.230269 
2892.308944  	83.102242 
2893.273368  	82.944396 
2894.237792  	82.713788 
2895.202217  	82.427680 
2896.166641  	82.185221 
2897.131066  	81.899168 
2898.095490  	81.574964 
2899.059915  	81.276525 
2900.024339  	80.887821 
2900.988764  	80.496392 
2901.953188  	80.166910 
2902.917613  	79.783394 
2903.882037  	79.368109 
2904.846461  	78.981408 
2905.810886  	78.586779 
2906.775310  	78.186311 
2907.739735  	77.797741 
2908.704159  	77.405698 
2909.668584  	76.990680 
2910.633008  	76.519940 
2911.597433  	76.059253 
2912.561857  	75.551693 
2913.526282  	74.962694 
2914.490706  	74.293580 
2915.455130  	73.629916 
2916.419555  	73.052293 
2917.383979  	72.613674 
2918.348404  	72.244422 
2919.312828  	71.975643 
2920.277253  	71.763828 
2921.241677  	71.536762 
2922.206102  	71.353783 
2923.170526  	71.179326 
2924.134951  	71.007437 
2925.099375  	70.822385 
2926.063800  	70.607816 
2927.028224  	70.422505 
2927.992648  	70.211541 
2928.957073  	70.018156 
2929.921497  	69.839337 
2930.885922  	69.697162 
2931.850346  	69.606647 
2932.814771  	69.624359 
2933.779195  	69.755536 
2934.743620  	69.971408 
2935.708044  	70.245378 
2936.672469  	70.596138 
2937.636893  	71.045691 
2938.601317  	71.587133 
2939.565742  	72.197166 
2940.530166  	72.826631 
2941.494591  	73.393933 
2942.459015  	73.941065 
2943.423440  	74.485411 
2944.387864  	74.975849 
2945.352289  	75.463510 
2946.316713  	76.057269 
2947.281138  	76.749968 
2948.245562  	77.488881 
2949.209986  	78.180617 
2950.174411  	78.872027 
2951.138835  	79.606418 
2952.103260  	80.277557 
2953.067684  	80.889171 
2954.032109  	81.486575 
2954.996533  	82.052097 
2955.960958  	82.626943 
2956.925382  	83.170816 
2957.889807  	83.653634 
2958.854231  	84.071630 
2959.818655  	84.421494 
2960.783080  	84.773238 
2961.747504  	85.119591 
2962.711929  	85.455329 
2963.676353  	85.760728 
2964.640778  	86.016842 
2965.605202  	86.270984 
2966.569627  	86.546348 
2967.534051  	86.890662 
2968.498476  	87.233890 
2969.462900  	87.490733 
2970.427324  	87.744015 
2971.391749  	88.009164 
2972.356173  	88.247519 
2973.320598  	88.485184 
2974.285022  	88.703201 
2975.249447  	88.875919 
2976.213871  	89.037552 
2977.178296  	89.222200 
2978.142720  	89.391908 
2979.107145  	89.559318 
2980.071569  	89.699830 
2981.035993  	89.795662 
2982.000418  	89.934363 
2982.964842  	90.103136 
2983.929267  	90.194876 
2984.893691  	90.275516 
2985.858116  	90.355076 
2986.822540  	90.451405 
2987.786965  	90.530846 
2988.751389  	90.581202 
2989.715814  	90.635961 
2990.680238  	90.689218 
2991.644663  	90.728689 
2992.609087  	90.773062 
2993.573511  	90.813003 
2994.537936  	90.840045 
2995.502360  	90.883299 
2996.466785  	90.897614 
2997.431209  	90.921982 
2998.395634  	90.967170 
2999.360058  	90.975423 
3000.324483  	90.998268 
3001.288907  	91.021461 
3002.253332  	91.007772 
3003.217756  	90.993154 
3004.182180  	90.926959 
3005.146605  	90.877727 
3006.111029  	90.936426 
3007.075454  	90.986369 
3008.039878  	90.979660 
3009.004303  	90.981449 
3009.968727  	90.971716 
3010.933152  	90.956294 
3011.897576  	90.925191 
3012.862001  	90.817197 
3013.826425  	90.855956 
3014.790849  	90.908794 
3015.755274  	90.851808 
3016.719698  	90.833131 
3017.684123  	90.882669 
3018.648547  	90.846826 
3019.612972  	90.781523 
3020.577396  	90.766696 
3021.541821  	90.734624 
3022.506245  	90.680558 
3023.470670  	90.663515 
3024.435094  	90.634754 
3025.399518  	90.549771 
3026.363943  	90.467529 
3027.328367  	90.489400 
3028.292792  	90.484447 
3029.257216  	90.429643 
3030.221641  	90.330466 
3031.186065  	90.188507 
3032.150490  	90.090754 
3033.114914  	90.143681 
3034.079339  	90.111364 
3035.043763  	90.055236 
3036.008187  	90.015347 
3036.972612  	89.961569 
3037.937036  	89.901872 
3038.901461  	89.827190 
3039.865885  	89.722674 
3040.830310  	89.638374 
3041.794734  	89.553249 
3042.759159  	89.475251 
3043.723583  	89.414666 
3044.688008  	89.307550 
3045.652432  	89.240318 
3046.616857  	89.127918 
3047.581281  	88.975273 
3048.545705  	88.784801 
3049.510130  	88.607610 
3050.474554  	88.555099 
3051.438979  	88.494055 
3052.403403  	88.401558 
3053.367828  	88.278260 
3054.332252  	88.169003 
3055.296677  	88.085776 
3056.261101  	87.913066 
3057.225526  	87.835628 
3058.189950  	87.865422 
3059.154374  	87.798799 
3060.118799  	87.727978 
3061.083223  	87.715588 
3062.047648  	87.732642 
3063.012072  	87.705964 
3063.976497  	87.592743 
3064.940921  	87.514729 
3065.905346  	87.611499 
3066.869770  	87.580280 
3067.834195  	87.539290 
3068.798619  	87.582123 
3069.763043  	87.592133 
3070.727468  	87.623833 
3071.691892  	87.652841 
3072.656317  	87.594926 
3073.620741  	87.580363 
3074.585166  	87.592708 
3075.549590  	87.629712 
3076.514015  	87.669552 
3077.478439  	87.673857 
3078.442864  	87.630464 
3079.407288  	87.613872 
3080.371712  	87.642230 
3081.336137  	87.694053 
3082.300561  	87.688035 
3083.264986  	87.764486 
3084.229410  	87.828296 
3085.193835  	87.821544 
3086.158259  	87.802683 
3087.122684  	87.795222 
3088.087108  	87.835841 
3089.051533  	87.904030 
3090.015957  	87.948886 
3090.980381  	88.014656 
3091.944806  	88.091516 
3092.909230  	88.162392 
3093.873655  	88.165632 
3094.838079  	88.176540 
3095.802504  	88.216548 
3096.766928  	88.322207 
3097.731353  	88.397099 
3098.695777  	88.446723 
3099.660202  	88.504721 
3100.624626  	88.553402 
3101.589050  	88.565767 
3102.553475  	88.631781 
3103.517899  	88.727649 
3104.482324  	88.854330 
3105.446748  	88.954078 
3106.411173  	88.997266 
3107.375597  	89.026725 
3108.340022  	89.114151 
3109.304446  	89.167167 
3110.268871  	89.174587 
3111.233295  	89.193775 
3112.197720  	89.237141 
3113.162144  	89.343354 
3114.126568  	89.410203 
3115.090993  	89.413931 
3116.055417  	89.428385 
3117.019842  	89.481285 
3117.984266  	89.490693 
3118.948691  	89.451986 
3119.913115  	89.586596 
3120.877540  	89.677308 
3121.841964  	89.597962 
3122.806389  	89.515825 
3123.770813  	89.585109 
3124.735237  	89.620125 
3125.699662  	89.628567 
3126.664086  	89.651082 
3127.628511  	89.740466 
3128.592935  	89.745176 
3129.557360  	89.699916 
3130.521784  	89.717537 
3131.486209  	89.730713 
3132.450633  	89.658715 
3133.415058  	89.613092 
3134.379482  	89.714913 
3135.343906  	89.760683 
3136.308331  	89.708157 
3137.272755  	89.687492 
3138.237180  	89.734221 
3139.201604  	89.759968 
3140.166029  	89.732497 
3141.130453  	89.716362 
3142.094878  	89.648250 
3143.059302  	89.587793 
3144.023727  	89.631587 
3144.988151  	89.669310 
3145.952575  	89.586166 
3146.917000  	89.501712 
3147.881424  	89.500185 
3148.845849  	89.545106 
3149.810273  	89.491455 
3150.774698  	89.457926 
3151.739122  	89.443232 
3152.703547  	89.400500 
3153.667971  	89.377882 
3154.632396  	89.404806 
3155.596820  	89.357341 
3156.561244  	89.222414 
3157.525669  	89.167392 
3158.490093  	89.149207 
3159.454518  	89.079124 
3160.418942  	88.982399 
3161.383367  	88.924953 
3162.347791  	88.904845 
3163.312216  	88.836901 
3164.276640  	88.785494 
3165.241065  	88.775220 
3166.205489  	88.718390 
3167.169914  	88.612475 
3168.134338  	88.500985 
3169.098762  	88.451914 
3170.063187  	88.348964 
3171.027611  	88.256096 
3171.992036  	88.200817 
3172.956460  	88.117691 
3173.920885  	88.027031 
3174.885309  	87.974070 
3175.849734  	87.916582 
3176.814158  	87.821919 
3177.778583  	87.712500 
3178.743007  	87.625730 
3179.707431  	87.601956 
3180.671856  	87.569066 
3181.636280  	87.568893 
3182.600705  	87.546132 
3183.565129  	87.454004 
3184.529554  	87.342494 
3185.493978  	87.246932 
3186.458403  	87.181728 
3187.422827  	87.136793 
3188.387252  	87.086795 
3189.351676  	87.102380 
3190.316100  	87.036193 
3191.280525  	86.986149 
3192.244949  	86.964588 
3193.209374  	86.918531 
3194.173798  	86.782940 
3195.138223  	86.685807 
3196.102647  	86.600066 
3197.067072  	86.553967 
3198.031496  	86.525917 
3198.995921  	86.571935 
3199.960345  	86.534557 
3200.924769  	86.467371 
3201.889194  	86.452024 
3202.853618  	86.395640 
3203.818043  	86.318333 
3204.782467  	86.280590 
3205.746892  	86.232651 
3206.711316  	86.145693 
3207.675741  	86.122026 
3208.640165  	86.083620 
3209.604590  	85.981852 
3210.569014  	85.954450 
3211.533438  	85.972369 
3212.497863  	85.923394 
3213.462287  	85.794769 
3214.426712  	85.701509 
3215.391136  	85.701550 
3216.355561  	85.670260 
3217.319985  	85.590159 
3218.284410  	85.541883 
3219.248834  	85.438771 
3220.213259  	85.400020 
3221.177683  	85.400438 
3222.142107  	85.288152 
3223.106532  	85.209564 
3224.070956  	85.095266 
3225.035381  	84.955143 
3225.999805  	84.895785 
3226.964230  	84.763385 
3227.928654  	84.572374 
3228.893079  	84.468039 
3229.857503  	84.420784 
3230.821928  	84.331516 
3231.786352  	84.268141 
3232.750777  	84.128051 
3233.715201  	83.900373 
3234.679625  	83.669067 
3235.644050  	83.506885 
3236.608474  	83.383690 
3237.572899  	83.254949 
3238.537323  	83.139109 
3239.501748  	82.963278 
3240.466172  	82.708797 
3241.430597  	82.572304 
3242.395021  	82.421717 
3243.359446  	82.187738 
3244.323870  	81.920952 
3245.288294  	81.701503 
3246.252719  	81.636300 
3247.217143  	81.507804 
3248.181568  	81.288959 
3249.145992  	81.069820 
3250.110417  	80.849650 
3251.074841  	80.638579 
3252.039266  	80.400097 
3253.003690  	80.145607 
3253.968115  	79.789304 
3254.932539  	79.546058 
3255.896963  	79.339802 
3256.861388  	79.056496 
3257.825812  	78.813052 
3258.790237  	78.559003 
3259.754661  	78.294675 
3260.719086  	78.041697 
3261.683510  	77.789772 
3262.647935  	77.494561 
3263.612359  	77.218542 
3264.576784  	76.958382 
3265.541208  	76.633346 
3266.505632  	76.307525 
3267.470057  	76.016716 
3268.434481  	75.739408 
3269.398906  	75.489610 
3270.363330  	75.252902 
3271.327755  	74.976677 
3272.292179  	74.641811 
3273.256604  	74.227292 
3274.221028  	73.891835 
3275.185453  	73.656264 
3276.149877  	73.302744 
3277.114301  	72.915027 
3278.078726  	72.584672 
3279.043150  	72.141708 
3280.007575  	71.773739 
3280.971999  	71.370426 
3281.936424  	70.979312 
3282.900848  	70.573883 
3283.865273  	70.150085 
3284.829697  	69.788968 
3285.794122  	69.454037 
3286.758546  	69.048474 
3287.722971  	68.670147 
3288.687395  	68.323941 
3289.651819  	68.067368 
3290.616244  	67.745931 
3291.580668  	67.428584 
3292.545093  	67.233755 
3293.509517  	67.116126 
3294.473942  	67.033940 
3295.438366  	66.956576 
3296.402791  	66.909377 
3297.367215  	66.870293 
3298.331640  	66.904265 
3299.296064  	67.078007 
3300.260488  	67.308322 
3301.224913  	67.628187 
3302.189337  	67.943814 
3303.153762  	68.250438 
3304.118186  	68.614730 
3305.082611  	69.079470 
3306.047035  	69.634770 
3307.011460  	70.242748 
3307.975884  	70.691811 
3308.940309  	71.226154 
3309.904733  	71.931297 
3310.869157  	72.601152 
3311.833582  	73.249000 
3312.798006  	73.900814 
3313.762431  	74.520190 
3314.726855  	75.197401 
3315.691280  	75.837498 
3316.655704  	76.462865 
3317.620129  	77.089789 
3318.584553  	77.638676 
3319.548978  	78.112523 
3320.513402  	78.665656 
3321.477826  	79.218381 
3322.442251  	79.755631 
3323.406675  	80.223976 
3324.371100  	80.627638 
3325.335524  	80.985932 
3326.299949  	81.341397 
3327.264373  	81.676410 
3328.228798  	82.035236 
3329.193222  	82.291675 
3330.157647  	82.627273 
3331.122071  	83.028426 
3332.086495  	83.364801 
3333.050920  	83.593414 
3334.015344  	83.754048 
3334.979769  	83.915624 
3335.944193  	84.176405 
3336.908618  	84.381327 
3337.873042  	84.662638 
3338.837467  	84.963542 
3339.801891  	85.165420 
3340.766316  	85.369941 
3341.730740  	85.529334 
3342.695164  	85.690657 
3343.659589  	85.917595 
3344.624013  	86.127046 
3345.588438  	86.277381 
3346.552862  	86.388515 
3347.517287  	86.517788 
3348.481711  	86.649311 
3349.446136  	86.797520 
3350.410560  	86.876651 
3351.374985  	87.048968 
3352.339409  	87.250949 
3353.303834  	87.308232 
3354.268258  	87.324065 
3355.232682  	87.375167 
3356.197107  	87.361652 
3357.161531  	87.491832 
3358.125956  	87.686826 
3359.090380  	87.815295 
3360.054805  	87.778394 
3361.019229  	87.769907 
3361.983654  	87.810601 
3362.948078  	87.998293 
3363.912503  	88.106908 
3364.876927  	88.050941 
3365.841351  	88.104550 
3366.805776  	88.223675 
3367.770200  	88.270236 
3368.734625  	88.305612 
3369.699049  	88.370258 
3370.663474  	88.529502 
3371.627898  	88.678793 
3372.592323  	88.682185 
3373.556747  	88.654759 
3374.521172  	88.745245 
3375.485596  	88.823407 
3376.450020  	88.835087 
3377.414445  	88.832457 
3378.378869  	88.903116 
3379.343294  	89.035028 
3380.307718  	89.082412 
3381.272143  	89.115362 
3382.236567  	89.124177 
3383.200992  	89.070143 
3384.165416  	88.970986 
3385.129841  	88.933838 
3386.094265  	89.039905 
3387.058689  	89.203687 
3388.023114  	89.287687 
3388.987538  	89.300406 
3389.951963  	89.246974 
3390.916387  	89.201550 
3391.880812  	89.153275 
3392.845236  	89.014387 
3393.809661  	89.148270 
3394.774085  	89.361278 
3395.738510  	89.366126 
3396.702934  	89.287568 
3397.667358  	89.184649 
3398.631783  	89.366058 
3399.596207  	89.547120 
3400.560632  	89.470854 
3401.525056  	89.458109 
3402.489481  	89.510138 
3403.453905  	89.488855 
3404.418330  	89.516099 
3405.382754  	89.602119 
3406.347179  	89.622089 
3407.311603  	89.614258 
3408.276028  	89.581837 
3409.240452  	89.514750 
3410.204876  	89.491365 
3411.169301  	89.590723 
3412.133725  	89.680652 
3413.098150  	89.746828 
3414.062574  	89.722387 
3415.026999  	89.709783 
3415.991423  	89.702433 
3416.955848  	89.723731 
3417.920272  	89.685847 
3418.884697  	89.697805 
3419.849121  	89.555109 
3420.813545  	89.320689 
3421.777970  	89.324995 
3422.742394  	89.431835 
3423.706819  	89.537914 
3424.671243  	89.727504 
3425.635668  	89.843022 
3426.600092  	89.832560 
3427.564517  	89.812688 
3428.528941  	89.829250 
3429.493366  	89.871182 
3430.457790  	89.829050 
3431.422214  	89.786482 
3432.386639  	89.808351 
3433.351063  	89.840352 
3434.315488  	89.911798 
3435.279912  	89.909959 
3436.244337  	89.912917 
3437.208761  	89.953266 
3438.173186  	89.979297 
3439.137610  	89.944317 
3440.102035  	90.012843 
3441.066459  	90.034717 
3442.030883  	89.859938 
3442.995308  	89.571548 
3443.959732  	89.727314 
3444.924157  	89.848005 
3445.888581  	89.821588 
3446.853006  	89.401399 
3447.817430  	89.191713 
3448.781855  	89.782813 
3449.746279  	90.080377 
3450.710704  	90.113943 
3451.675128  	90.102105 
3452.639552  	90.151295 
3453.603977  	90.138273 
3454.568401  	90.081818 
3455.532826  	90.085123 
3456.497250  	90.057101 
3457.461675  	90.026092 
3458.426099  	90.047230 
3459.390524  	90.052883 
3460.354948  	90.061441 
3461.319373  	89.962012 
3462.283797  	89.867589 
3463.248221  	89.863050 
3464.212646  	90.098774 
3465.177070  	90.212014 
3466.141495  	90.113358 
3467.105919  	89.900127 
3468.070344  	90.095767 
3469.034768  	90.317787 
3469.999193  	90.271930 
3470.963617  	90.250910 
3471.928042  	90.267163 
3472.892466  	90.302851 
3473.856891  	90.291728 
3474.821315  	90.144723 
3475.785739  	90.205534 
3476.750164  	90.351791 
3477.714588  	90.323588 
3478.679013  	90.340477 
3479.643437  	90.319889 
3480.607862  	89.991285 
3481.572286  	89.832983 
3482.536711  	89.771692 
3483.501135  	90.013997 
3484.465560  	90.277295 
3485.429984  	90.260128 
3486.394408  	90.307370 
3487.358833  	90.309556 
3488.323257  	90.025383 
3489.287682  	90.039642 
3490.252106  	90.258134 
3491.216531  	90.311905 
3492.180955  	90.476851 
3493.145380  	90.580125 
3494.109804  	90.553855 
3495.074229  	90.345539 
3496.038653  	90.140772 
3497.003077  	90.099024 
3497.967502  	90.357663 
3498.931926  	90.505265 
3499.896351  	90.382595 
3500.860775  	90.294307 
3501.825200  	89.979609 
3502.789624  	89.468829 
3503.754049  	89.464328 
3504.718473  	89.936181 
3505.682898  	90.282496 
3506.647322  	90.582016 
3507.611746  	90.736106 
3508.576171  	90.486810 
3509.540595  	89.792445 
3510.505020  	89.914200 
3511.469444  	90.396309 
3512.433869  	90.506581 
3513.398293  	90.636797 
3514.362718  	90.810951 
3515.327142  	90.970466 
3516.291567  	90.957857 
3517.255991  	90.807487 
3518.220415  	90.703365 
3519.184840  	90.702527 
3520.149264  	90.789978 
3521.113689  	90.961188 
3522.078113  	90.766435 
3523.042538  	89.942353 
3524.006962  	89.533830 
3524.971387  	89.980259 
3525.935811  	90.252216 
3526.900236  	90.208979 
3527.864660  	90.048636 
3528.829085  	90.165677 
3529.793509  	90.374741 
3530.757933  	90.682877 
3531.722358  	90.709924 
3532.686782  	90.993409 
3533.651207  	91.266946 
3534.615631  	91.374228 
3535.580056  	91.085514 
3536.544480  	90.376222 
3537.508905  	90.601817 
3538.473329  	91.304681 
3539.437754  	91.356415 
3540.402178  	91.361117 
3541.366602  	91.425817 
3542.331027  	91.450301 
3543.295451  	91.078864 
3544.259876  	90.656401 
3545.224300  	89.803989 
3546.188725  	89.659210 
3547.153149  	89.721466 
3548.117574  	90.249142 
3549.081998  	91.187470 
3550.046423  	91.494522 
3551.010847  	91.416902 
3551.975271  	90.785098 
3552.939696  	90.503200 
3553.904120  	90.873034 
3554.868545  	91.315957 
3555.832969  	91.773635 
3556.797394  	91.778358 
3557.761818  	91.747245 
3558.726243  	91.831991 
3559.690667  	91.443618 
3560.655092  	90.884334 
3561.619516  	91.284295 
3562.583940  	91.339102 
3563.548365  	91.283544 
3564.512789  	91.241260 
3565.477214  	90.374275 
3566.441638  	88.025203 
3567.406063  	87.884206 
3568.370487  	88.316035 
3569.334912  	89.953186 
3570.299336  	91.223167 
3571.263761  	91.415741 
3572.228185  	91.840619 
3573.192609  	91.947954 
3574.157034  	91.811049 
3575.121458  	91.714006 
3576.085883  	91.858359 
3577.050307  	91.834584 
3578.014732  	91.883994 
3578.979156  	91.999761 
3579.943581  	91.600416 
3580.908005  	91.609446 
3581.872430  	92.026793 
3582.836854  	92.041836 
3583.801278  	91.934883 
3584.765703  	91.926939 
3585.730127  	91.502649 
3586.694552  	89.767669 
3587.658976  	88.737361 
3588.623401  	89.097777 
3589.587825  	90.256077 
3590.552250  	91.772342 
3591.516674  	92.225717 
3592.481099  	92.150379 
3593.445523  	91.353407 
3594.409948  	91.381539 
3595.374372  	90.904876 
3596.338796  	90.763236 
3597.303221  	91.799367 
3598.267645  	91.865968 
3599.232070  	91.476460 
3600.196494  	91.556888 
3601.160919  	91.274000 
3602.125343  	91.627187 
3603.089768  	91.916198 
3604.054192  	92.296695 
3605.018617  	92.573514 
3605.983041  	92.350898 
3606.947465  	91.104716 
3607.911890  	90.534800 
3608.876314  	90.905641 
3609.840739  	90.567538 
3610.805163  	91.694207 
3611.769588  	91.791587 
3612.734012  	90.511988 
3613.698437  	90.615086 
3614.662861  	90.770244 
3615.627286  	90.791287 
3616.591710  	91.940060 
3617.556134  	91.410949 
3618.520559  	90.448568 
3619.484983  	90.352569 
3620.449408  	90.358792 
3621.413832  	91.194894 
3622.378257  	91.980846 
3623.342681  	92.442680 
3624.307106  	92.626048 
3625.271530  	92.614996 
3626.235955  	92.126257 
3627.200379  	91.899359 
3628.164803  	90.923533 
3629.129228  	87.969464 
3630.093652  	88.597457 
3631.058077  	91.197148 
3632.022501  	92.191498 
3632.986926  	92.218637 
3633.951350  	91.409192 
3634.915775  	91.845763 
3635.880199  	92.659869 
3636.844624  	92.806513 
3637.809048  	92.594495 
3638.773472  	92.585914 
3639.737897  	92.849020 
3640.702321  	92.872693 
3641.666746  	92.539985 
3642.631170  	92.042949 
3643.595595  	92.289207 
3644.560019  	92.689941 
3645.524444  	92.339139 
3646.488868  	91.183307 
3647.453293  	89.291016 
3648.417717  	89.479204 
3649.382142  	89.340819 
3650.346566  	88.407043 
3651.310990  	88.598170 
3652.275415  	90.861048 
3653.239839  	92.354719 
3654.204264  	92.783787 
3655.168688  	92.721895 
3656.133113  	91.733899 
3657.097537  	91.270132 
3658.061962  	92.446891 
3659.026386  	92.778892 
3659.990811  	92.688236 
3660.955235  	92.830112 
3661.919659  	93.091551 
3662.884084  	93.119968 
3663.848508  	93.125363 
3664.812933  	93.043394 
3665.777357  	93.054279 
3666.741782  	93.110685 
3667.706206  	93.029316 
3668.670631  	92.036805 
3669.635055  	90.769329 
3670.599480  	89.975071 
3671.563904  	90.462839 
3672.528328  	92.241346 
3673.492753  	92.563383 
3674.457177  	91.308902 
3675.421602  	88.294080 
3676.386026  	88.838802 
3677.350451  	90.850280 
3678.314875  	91.680028 
3679.279300  	91.692646 
3680.243724  	91.778723 
3681.208149  	92.739935 
3682.172573  	93.178419 
3683.136997  	93.184547 
3684.101422  	93.010198 
3685.065846  	92.899399 
3686.030271  	93.047572 
3686.994695  	92.872420 
3687.959120  	92.029860 
3688.923544  	90.968196 
3689.887969  	91.542212 
3690.852393  	90.923142 
3691.816818  	90.690698 
3692.781242  	92.452824 
3693.745666  	92.914748 
3694.710091  	92.990891 
3695.674515  	93.095065 
3696.638940  	92.989030 
3697.603364  	93.103467 
3698.567789  	93.364510 
3699.532213  	93.303481 
3700.496638  	93.249547 
3701.461062  	92.390798 
3702.425487  	91.692413 
3703.389911  	92.742586 
3704.354335  	93.171041 
3705.318760  	93.086628 
3706.283184  	93.114645 
3707.247609  	93.181999 
3708.212033  	93.120822 
3709.176458  	92.513376 
3710.140882  	91.856953 
3711.105307  	91.451587 
3712.069731  	90.203173 
3713.034156  	90.391497 
3713.998580  	92.057111 
3714.963005  	92.151491 
3715.927429  	92.473296 
3716.891853  	93.177300 
3717.856278  	93.215979 
3718.820702  	92.453921 
3719.785127  	92.191614 
3720.749551  	92.928114 
3721.713976  	92.464729 
3722.678400  	90.958670 
3723.642825  	91.691819 
3724.607249  	92.173007 
3725.571674  	91.394195 
3726.536098  	91.083765 
3727.500522  	91.322006 
3728.464947  	92.409220 
3729.429371  	93.109551 
3730.393796  	93.014085 
3731.358220  	92.573862 
3732.322645  	91.685577 
3733.287069  	91.709099 
3734.251494  	91.060526 
3735.215918  	87.630807 
3736.180343  	88.073508 
3737.144767  	89.961985 
3738.109191  	90.962960 
3739.073616  	91.408090 
3740.038040  	92.066563 
3741.002465  	91.723535 
3741.966889  	91.801365 
3742.931314  	92.380263 
3743.895738  	91.364728 
3744.860163  	87.760635 
3745.824587  	90.139315 
3746.789012  	91.392982 
3747.753436  	91.417277 
3748.717860  	91.381232 
3749.682285  	90.899262 
3750.646709  	90.595610 
3751.611134  	90.227159 
3752.575558  	88.964191 
3753.539983  	90.822401 
3754.504407  	91.995574 
3755.468832  	92.513226 
3756.433256  	92.222349 
3757.397681  	92.216053 
3758.362105  	92.476633 
3759.326529  	91.445642 
3760.290954  	90.904715 
3761.255378  	92.475979 
3762.219803  	92.928307 
3763.184227  	93.011289 
3764.148652  	93.105424 
3765.113076  	92.658856 
3766.077501  	91.656935 
3767.041925  	92.411370 
3768.006350  	93.098888 
3768.970774  	92.828684 
3769.935199  	91.811821 
3770.899623  	91.896609 
3771.864047  	92.675348 
3772.828472  	93.007279 
3773.792896  	93.175683 
3774.757321  	93.335848 
3775.721745  	93.422193 
3776.686170  	93.463202 
3777.650594  	93.359779 
3778.615019  	92.903823 
3779.579443  	91.957919 
3780.543868  	92.119554 
3781.508292  	93.052724 
3782.472716  	93.123660 
3783.437141  	93.149222 
3784.401565  	92.786046 
3785.365990  	92.273329 
3786.330414  	92.608364 
3787.294839  	92.976878 
3788.259263  	93.189755 
3789.223688  	93.277442 
3790.188112  	93.296238 
3791.152537  	93.394799 
3792.116961  	93.355137 
3793.081385  	93.371460 
3794.045810  	93.411030 
3795.010234  	93.301967 
3795.974659  	92.732051 
3796.939083  	91.765344 
3797.903508  	92.034845 
3798.867932  	92.665581 
3799.832357  	92.803920 
3800.796781  	91.800778 
3801.761206  	90.251889 
3802.725630  	90.670480 
3803.690054  	91.788619 
3804.654479  	92.816824 
3805.618903  	93.007166 
3806.583328  	92.282201 
3807.547752  	91.439205 
3808.512177  	92.548791 
3809.476601  	93.044107 
3810.441026  	93.130899 
3811.405450  	93.257654 
3812.369875  	93.336844 
3813.334299  	93.386263 
3814.298723  	93.277990 
3815.263148  	92.605127 
3816.227572  	91.008623 
3817.191997  	91.499676 
3818.156421  	92.527218 
3819.120846  	92.429327 
3820.085270  	91.740653 
3821.049695  	90.065754 
3822.014119  	89.822441 
3822.978544  	91.662869 
3823.942968  	92.341087 
3824.907392  	92.601624 
3825.871817  	92.616425 
3826.836241  	92.021508 
3827.800666  	92.063425 
3828.765090  	92.749065 
3829.729515  	93.117690 
3830.693939  	93.024863 
3831.658364  	92.222114 
3832.622788  	92.198617 
3833.587213  	92.857513 
3834.551637  	92.368503 
3835.516062  	91.677158 
3836.480486  	92.358192 
3837.444910  	91.915509 
3838.409335  	90.598980 
3839.373759  	91.204222 
3840.338184  	90.583606 
3841.302608  	90.590319 
3842.267033  	92.115405 
3843.231457  	92.231065 
3844.195882  	91.380516 
3845.160306  	92.361391 
3846.124731  	93.008989 
3847.089155  	93.092766 
3848.053579  	93.146133 
3849.018004  	92.943449 
3849.982428  	92.394728 
3850.946853  	92.388265 
3851.911277  	91.591302 
3852.875702  	89.918062 
3853.840126  	89.218028 
3854.804551  	89.568486 
3855.768975  	91.659060 
3856.733400  	91.739899 
3857.697824  	91.243999 
3858.662248  	92.452480 
3859.626673  	93.169638 
3860.591097  	93.064273 
3861.555522  	92.333706 
3862.519946  	91.739215 
3863.484371  	92.163053 
3864.448795  	91.313530 
3865.413220  	90.129160 
3866.377644  	91.716077 
3867.342069  	92.846124 
3868.306493  	92.771943 
3869.270917  	91.391472 
3870.235342  	89.210680 
3871.199766  	90.610469 
3872.164191  	92.012113 
3873.128615  	92.365649 
3874.093040  	91.045318 
3875.057464  	91.050442 
3876.021889  	92.791739 
3876.986313  	93.176404 
3877.950738  	93.254696 
3878.915162  	93.173584 
3879.879586  	92.080231 
3880.844011  	90.030027 
3881.808435  	91.362466 
3882.772860  	92.435108 
3883.737284  	92.147165 
3884.701709  	92.161861 
3885.666133  	91.267468 
3886.630558  	90.734071 
3887.594982  	92.461494 
3888.559407  	93.084055 
3889.523831  	93.116018 
3890.488256  	92.675625 
3891.452680  	91.399231 
3892.417104  	91.290458 
3893.381529  	92.301167 
3894.345953  	92.269928 
3895.310378  	92.674000 
3896.274802  	93.232598 
3897.239227  	93.211588 
3898.203651  	92.433442 
3899.168076  	91.246089 
3900.132500  	91.060443 
3901.096925  	91.907093 
3902.061349  	90.535798 
3903.025773  	90.588990 
3903.990198  	91.090907 
3904.954622  	90.504075 
3905.919047  	90.941304 
3906.883471  	91.837189 
3907.847896  	92.931407 
3908.812320  	93.301181 
3909.776745  	93.350317 
3910.741169  	93.329280 
3911.705594  	93.293429 
3912.670018  	93.282264 
3913.634442  	93.307965 
3914.598867  	93.341572 
3915.563291  	93.171189 
3916.527716  	92.134692 
3917.492140  	91.240397 
3918.456565  	92.266111 
3919.420989  	92.644472 
3920.385414  	91.900495 
3921.349838  	92.474384 
3922.314263  	93.243846 
3923.278687  	92.879485 
3924.243111  	91.928538 
3925.207536  	91.397348 
3926.171960  	92.278846 
3927.136385  	93.169101 
3928.100809  	93.174423 
3929.065234  	92.937179 
3930.029658  	92.602196 
3930.994083  	92.332044 
3931.958507  	91.894659 
3932.922932  	91.417413 
3933.887356  	92.251340 
3934.851780  	92.788319 
3935.816205  	93.118912 
3936.780629  	93.301909 
3937.745054  	93.229238 
3938.709478  	93.007369 
3939.673903  	93.176736 
3940.638327  	93.271798 
3941.602752  	93.087725 
3942.567176  	92.073368 
3943.531601  	91.544913 
3944.496025  	92.501589 
3945.460449  	93.014613 
3946.424874  	93.136574 
3947.389298  	92.527188 
3948.353723  	92.099091 
3949.318147  	92.378448 
3950.282572  	92.029780 
3951.246996  	92.480186 
3952.211421  	93.166579 
3953.175845  	93.066653 
3954.140270  	93.125713 
3955.104694  	93.254670 
3956.069119  	93.179153 
3957.033543  	93.001302 
3957.997967  	93.011339 
3958.962392  	93.117690 
3959.926816  	93.130890 
3960.891241  	93.112179 
3961.855665  	92.673144 
3962.820090  	92.614809 
3963.784514  	93.153661 
3964.748939  	93.229488 
3965.713363  	93.256815 
3966.677788  	93.330532 
3967.642212  	93.329861 
3968.606636  	93.144562 
3969.571061  	92.972574 
3970.535485  	93.180793 
3971.499910  	93.267095 
3972.464334  	93.016901 
3973.428759  	93.085124 
3974.393183  	93.150709 
3975.357608  	92.985179 
3976.322032  	92.826531 
3977.286457  	93.011933 
3978.250881  	93.274443 
3979.215305  	93.325849 
3980.179730  	93.295789 
3981.144154  	93.228949 
3982.108579  	93.141282 
3983.073003  	93.136509 
3984.037428  	93.278855 
3985.001852  	93.323834 
3985.966277  	93.288892 
3986.930701  	93.294955 
3987.895126  	93.286018 
3988.859550  	93.246185 
3989.823974  	93.134766 
3990.788399  	92.900774 
3991.752823  	92.995732 
3992.717248  	93.180780 
3993.681672  	93.163285 
3994.646097  	93.043817 
3995.610521  	92.975161 
3996.574946  	93.208561 
3997.539370  	93.323978 
3998.503795  	93.321223 
3999.468219  	93.335391 
4000.432643  	93.382691 
4001.397068  	93.386502 
4002.361492  	93.345648 
4003.325917  	93.295628 
4004.290341  	93.280266 
4005.254766  	93.283692 
4006.219190  	93.251649 
4007.183615  	93.203106 
4008.148039  	93.116049 
4009.112464  	93.047872 
4010.076888  	93.178485 
4011.041313  	93.232197 
4012.005737  	93.268788 
4012.970161  	93.256766 
4013.934586  	93.242907 
4014.899010  	93.267601 
4015.863435  	93.222265 
4016.827859  	93.235956 
4017.792284  	93.309274 
4018.756708  	93.312182 
4019.721133  	93.235992 
4020.685557  	93.213301 
4021.649982  	93.239046 
4022.614406  	93.287780 
4023.578830  	93.279034 
4024.543255  	93.263702 
4025.507679  	93.188444 
4026.472104  	93.205700 
4027.436528  	93.311699 
4028.400953  	93.316476 
4029.365377  	93.288098 
4030.329802  	93.268301 
4031.294226  	93.258787 
4032.258651  	93.276954 
4033.223075  	93.351003 
4034.187499  	93.343966 
4035.151924  	93.317484 
4036.116348  	93.327280 
4037.080773  	93.340571 
4038.045197  	93.361715 
4039.009622  	93.376322 
4039.974046  	93.345612 
4040.938471  	93.342674 
4041.902895  	93.358106 
4042.867320  	93.356501 
4043.831744  	93.253520 
4044.796168  	93.135192 
4045.760593  	93.153856 
4046.725017  	93.284176 
4047.689442  	93.326683 
4048.653866  	93.297069 
4049.618291  	93.319670 
4050.582715  	93.384610 
4051.547140  	93.339446 
4052.511564  	93.294142 
4053.475989  	93.311579 
4054.440413  	93.328465 
4055.404837  	93.282052 
4056.369262  	93.297748 
4057.333686  	93.366690 
4058.298111  	93.349265 
4059.262535  	93.304649 
4060.226960  	93.302459 
4061.191384  	93.280159 
4062.155809  	93.283030 
4063.120233  	93.301534 
4064.084658  	93.309003 
4065.049082  	93.325610 
4066.013506  	93.357187 
4066.977931  	93.333461 
4067.942355  	93.310884 
4068.906780  	93.319625 
4069.871204  	93.339354 
4070.835629  	93.372742 
4071.800053  	93.388552 
4072.764478  	93.375235 
4073.728902  	93.317906 
4074.693327  	93.323261 
4075.657751  	93.360102 
4076.622176  	93.286436 
4077.586600  	93.303238 
4078.551024  	93.362649 
4079.515449  	93.331341 
4080.479873  	93.330810 
4081.444298  	93.355244 
4082.408722  	93.307928 
4083.373147  	93.311027 
4084.337571  	93.309509 
4085.301996  	93.322911 
4086.266420  	93.325511 
4087.230845  	93.301184 
4088.195269  	93.244326 
4089.159693  	93.254219 
4090.124118  	93.323662 
4091.088542  	93.355875 
4092.052967  	93.406729 
4093.017391  	93.395141 
4093.981816  	93.320515 
4094.946240  	93.322286 
4095.910665  	93.383149 
4096.875089  	93.448572 
4097.839514  	93.403699 
4098.803938  	93.293178 
4099.768362  	93.301887 
4100.732787  	93.336021 
4101.697211  	93.343125 
4102.661636  	93.353930 
4103.626060  	93.336092 
4104.590485  	93.270787 
4105.554909  	93.237336 
4106.519334  	93.239824 
4107.483758  	93.257847 
4108.448183  	93.306983 
4109.412607  	93.327670 
4110.377031  	93.342638 
4111.341456  	93.371969 
4112.305880  	93.361307 
4113.270305  	93.337338 
4114.234729  	93.364265 
4115.199154  	93.407779 
4116.163578  	93.364334 
4117.128003  	93.300315 
4118.092427  	93.290439 
4119.056852  	93.285203 
4120.021276  	93.269746 
4120.985700  	93.308505 
4121.950125  	93.371781 
4122.914549  	93.314671 
4123.878974  	93.265384 
4124.843398  	93.304624 
4125.807823  	93.363215 
4126.772247  	93.310582 
4127.736672  	93.301497 
4128.701096  	93.330895 
4129.665521  	93.329278 
4130.629945  	93.273431 
4131.594370  	93.306167 
4132.558794  	93.368363 
4133.523218  	93.308295 
4134.487643  	93.303517 
4135.452067  	93.324302 
4136.416492  	93.359037 
4137.380916  	93.379728 
4138.345341  	93.340510 
4139.309765  	93.289312 
4140.274190  	93.297355 
4141.238614  	93.310809 
4142.203039  	93.314084 
4143.167463  	93.369644 
4144.131887  	93.341837 
4145.096312  	93.302883 
4146.060736  	93.311144 
4147.025161  	93.325260 
4147.989585  	93.347492 
4148.954010  	93.325189 
4149.918434  	93.276869 
4150.882859  	93.274233 
4151.847283  	93.293694 
4152.811708  	93.287017 
4153.776132  	93.293369 
4154.740556  	93.291517 
4155.704981  	93.296266 
4156.669405  	93.293235 
4157.633830  	93.290431 
4158.598254  	93.302351 
4159.562679  	93.308005 
4160.527103  	93.251927 
4161.491528  	93.243754 
4162.455952  	93.319358 
4163.420377  	93.364169 
4164.384801  	93.337867 
4165.349225  	93.290348 
4166.313650  	93.268612 
4167.278074  	93.264740 
4168.242499  	93.331269 
4169.206923  	93.386903 
4170.171348  	93.365226 
4171.135772  	93.357569 
4172.100197  	93.326922 
4173.064621  	93.277767 
4174.029046  	93.294691 
4174.993470  	93.332594 
4175.957894  	93.358918 
4176.922319  	93.342963 
4177.886743  	93.318077 
4178.851168  	93.295343 
4179.815592  	93.250984 
4180.780017  	93.238805 
4181.744441  	93.290356 
4182.708866  	93.340656 
4183.673290  	93.341992 
4184.637715  	93.265331 
4185.602139  	93.284504 
4186.566563  	93.302493 
4187.530988  	93.270781 
4188.495412  	93.246737 
4189.459837  	93.268863 
4190.424261  	93.263319 
4191.388686  	93.298056 
4192.353110  	93.342768 
4193.317535  	93.318724 
4194.281959  	93.289443 
4195.246384  	93.266336 
4196.210808  	93.251005 
4197.175233  	93.303964 
4198.139657  	93.300209 
4199.104081  	93.247720 
4200.068506  	93.246097 
4201.032930  	93.290218 
4201.997355  	93.361819 
4202.961779  	93.350959 
4203.926204  	93.300309 
4204.890628  	93.259917 
4205.855053  	93.232222 
4206.819477  	93.211137 
4207.783902  	93.254663 
4208.748326  	93.293335 
4209.712750  	93.314548 
4210.677175  	93.296734 
4211.641599  	93.243774 
4212.606024  	93.239495 
4213.570448  	93.282246 
4214.534873  	93.354388 
4215.499297  	93.333011 
4216.463722  	93.307373 
4217.428146  	93.249184 
4218.392571  	93.266569 
4219.356995  	93.301045 
4220.321419  	93.304136 
4221.285844  	93.334454 
4222.250268  	93.339461 
4223.214693  	93.233985 
4224.179117  	93.205919 
4225.143542  	93.230401 
4226.107966  	93.269959 
4227.072391  	93.334973 
4228.036815  	93.299383 
4229.001240  	93.262720 
4229.965664  	93.270293 
4230.930088  	93.278992 
4231.894513  	93.303823 
4232.858937  	93.302489 
4233.823362  	93.307760 
4234.787786  	93.328898 
4235.752211  	93.335033 
4236.716635  	93.358535 
4237.681060  	93.395626 
4238.645484  	93.392627 
4239.609909  	93.371156 
4240.574333  	93.364775 
4241.538757  	93.381332 
4242.503182  	93.334517 
4243.467606  	93.300926 
4244.432031  	93.299287 
4245.396455  	93.321984 
4246.360880  	93.328121 
4247.325304  	93.276776 
4248.289729  	93.258442 
4249.254153  	93.271966 
4250.218578  	93.316819 
4251.183002  	93.343486 
4252.147427  	93.316747 
4253.111851  	93.305786 
4254.076275  	93.274860 
4255.040700  	93.240975 
4256.005124  	93.197794 
4256.969549  	93.255738 
4257.933973  	93.326418 
4258.898398  	93.332523 
4259.862822  	93.311872 
4260.827247  	93.288865 
4261.791671  	93.272302 
4262.756096  	93.333645 
4263.720520  	93.322368 
4264.684944  	93.258390 
4265.649369  	93.261244 
4266.613793  	93.345025 
4267.578218  	93.359231 
4268.542642  	93.330498 
4269.507067  	93.347333 
4270.471491  	93.302152 
4271.435916  	93.302417 
4272.400340  	93.282968 
4273.364765  	93.272349 
4274.329189  	93.326249 
4275.293613  	93.325370 
4276.258038  	93.335654 
4277.222462  	93.380044 
4278.186887  	93.310322 
4279.151311  	93.247940 
4280.115736  	93.260513 
4281.080160  	93.333239 
4282.044585  	93.325076 
4283.009009  	93.263152 
4283.973434  	93.257753 
4284.937858  	93.262654 
4285.902282  	93.282933 
4286.866707  	93.295479 
4287.831131  	93.365823 
4288.795556  	93.400788 
4289.759980  	93.318230 
4290.724405  	93.230615 
4291.688829  	93.255781 
4292.653254  	93.275702 
4293.617678  	93.336375 
4294.582103  	93.389105 
4295.546527  	93.357512 
4296.510951  	93.374900 
4297.475376  	93.389374 
4298.439800  	93.345875 
4299.404225  	93.355405 
4300.368649  	93.417878 
4301.333074  	93.376656 
4302.297498  	93.253116 
4303.261923  	93.279017 
4304.226347  	93.399555 
4305.190772  	93.489598 
4306.155196  	93.383808 
4307.119620  	93.314381 
4308.084045  	93.317045 
4309.048469  	93.376010 
4310.012894  	93.343040 
4310.977318  	93.306988 
4311.941743  	93.292627 
4312.906167  	93.290452 
4313.870592  	93.285517 
4314.835016  	93.276467 
4315.799441  	93.282452 
4316.763865  	93.301816 
4317.728290  	93.315532 
4318.692714  	93.365574 
4319.657138  	93.369737 
4320.621563  	93.373738 
4321.585987  	93.334435 
4322.550412  	93.273309 
4323.514836  	93.234354 
4324.479261  	93.228568 
4325.443685  	93.193913 
4326.408110  	93.238349 
4327.372534  	93.293736 
4328.336959  	93.307804 
4329.301383  	93.280936 
4330.265807  	93.305301 
4331.230232  	93.343558 
4332.194656  	93.319550 
4333.159081  	93.320881 
4334.123505  	93.345147 
4335.087930  	93.286159 
4336.052354  	93.211798 
4337.016779  	93.215378 
4337.981203  	93.241018 
4338.945628  	93.264759 
4339.910052  	93.302268 
4340.874476  	93.284437 
4341.838901  	93.329308 
4342.803325  	93.300495 
4343.767750  	93.189378 
4344.732174  	93.152073 
4345.696599  	93.159997 
4346.661023  	93.179146 
4347.625448  	93.146144 
4348.589872  	93.096544 
4349.554297  	93.153068 
4350.518721  	93.230408 
4351.483145  	93.275401 
4352.447570  	93.274522 
4353.411994  	93.241503 
4354.376419  	93.195558 
4355.340843  	93.237258 
4356.305268  	93.309220 
4357.269692  	93.256689 
4358.234117  	93.210798 
4359.198541  	93.228104 
4360.162966  	93.270517 
4361.127390  	93.222069 
4362.091814  	93.155425 
4363.056239  	93.146234 
4364.020663  	93.188951 
4364.985088  	93.190699 
4365.949512  	93.200731 
4366.913937  	93.201730 
4367.878361  	93.155075 
4368.842786  	93.182194 
4369.807210  	93.267022 
4370.771635  	93.216807 
4371.736059  	93.198345 
4372.700484  	93.221016 
4373.664908  	93.263552 
4374.629332  	93.274413 
4375.593757  	93.240599 
4376.558181  	93.267267 
4377.522606  	93.337685 
4378.487030  	93.302967 
4379.451455  	93.243022 
4380.415879  	93.226573 
4381.380304  	93.220034 
4382.344728  	93.288767 
4383.309153  	93.335060 
4384.273577  	93.366177 
4385.238001  	93.403015 
4386.202426  	93.366973 
4387.166850  	93.362820 
4388.131275  	93.382716 
4389.095699  	93.289908 
4390.060124  	93.265936 
4391.024548  	93.375219 
4391.988973  	93.433787 
4392.953397  	93.442949 
4393.917822  	93.349806 
4394.882246  	93.264329 
4395.846670  	93.276818 
4396.811095  	93.312145 
4397.775519  	93.390188 
4398.739944  	93.435459 
4399.704368  	93.408567 
4400.668793  	93.421382 
4401.633217  	93.330884 
4402.597642  	93.333228 
4403.562066  	93.472990 
4404.526491  	93.488023 
4405.490915  	93.406346 
4406.455339  	93.370738 
4407.419764  	93.406254 
4408.384188  	93.456299 
4409.348613  	93.478117 
4410.313037  	93.457867 
4411.277462  	93.425575 
4412.241886  	93.444294 
4413.206311  	93.436517 
4414.170735  	93.440301 
4415.135160  	93.471584 
4416.099584  	93.431553 
4417.064008  	93.323606 
4418.028433  	93.325484 
4418.992857  	93.368800 
4419.957282  	93.370110 
4420.921706  	93.384434 
4421.886131  	93.393765 
4422.850555  	93.379334 
4423.814980  	93.374602 
4424.779404  	93.347577 
4425.743829  	93.349511 
4426.708253  	93.404483 
4427.672677  	93.426367 
4428.637102  	93.404287 
4429.601526  	93.455041 
4430.565951  	93.483031 
4431.530375  	93.393632 
4432.494800  	93.310838 
4433.459224  	93.313564 
4434.423649  	93.342400 
4435.388073  	93.348453 
4436.352498  	93.456996 
4437.316922  	93.547842 
4438.281347  	93.545372 
4439.245771  	93.468458 
4440.210195  	93.412528 
4441.174620  	93.413850 
4442.139044  	93.444784 
4443.103469  	93.514161 
4444.067893  	93.482758 
4445.032318  	93.429054 
4445.996742  	93.428299 
4446.961167  	93.413660 
4447.925591  	93.375758 
4448.890016  	93.350975 
4449.854440  	93.374934 
4450.818864  	93.464004 
4451.783289  	93.508703 
4452.747713  	93.450842 
4453.712138  	93.422275 
4454.676562  	93.417746 
4455.640987  	93.431128 
4456.605411  	93.450309 
4457.569836  	93.439942 
4458.534260  	93.433907 
4459.498685  	93.413947 
4460.463109  	93.371272 
4461.427533  	93.394002 
4462.391958  	93.446440 
4463.356382  	93.454419 
4464.320807  	93.382851 
4465.285231  	93.346896 
4466.249656  	93.417133 
4467.214080  	93.428711 
4468.178505  	93.373238 
4469.142929  	93.387716 
4470.107354  	93.456323 
4471.071778  	93.459756 
4472.036202  	93.422262 
4473.000627  	93.415162 
4473.965051  	93.363041 
4474.929476  	93.305144 
4475.893900  	93.372325 
4476.858325  	93.376594 
4477.822749  	93.371090 
4478.787174  	93.401076 
4479.751598  	93.424278 
4480.716023  	93.429867 
4481.680447  	93.393858 
4482.644871  	93.363778 
4483.609296  	93.376788 
4484.573720  	93.469993 
4485.538145  	93.498552 
4486.502569  	93.446377 
4487.466994  	93.431304 
4488.431418  	93.492078 
4489.395843  	93.425664 
4490.360267  	93.411937 
4491.324692  	93.400443 
4492.289116  	93.378533 
4493.253541  	93.405602 
4494.217965  	93.494498 
4495.182389  	93.516056 
4496.146814  	93.458475 
4497.111238  	93.403435 
4498.075663  	93.353126 
4499.040087  	93.380916 
4500.004512  	93.407821 
4500.968936  	93.436320 
4501.933361  	93.446951 
4502.897785  	93.452679 
4503.862210  	93.442196 
4504.826634  	93.413992 
4505.791058  	93.424733 
4506.755483  	93.459844 
4507.719907  	93.442618 
4508.684332  	93.450828 
4509.648756  	93.440711 
4510.613181  	93.350785 
4511.577605  	93.416573 
4512.542030  	93.544224 
4513.506454  	93.515888 
4514.470879  	93.435135 
4515.435303  	93.382457 
4516.399727  	93.387596 
4517.364152  	93.337907 
4518.328576  	93.353812 
4519.293001  	93.391379 
4520.257425  	93.362851 
4521.221850  	93.287807 
4522.186274  	93.289112 
4523.150699  	93.319734 
4524.115123  	93.320568 
4525.079548  	93.375662 
4526.043972  	93.418711 
4527.008396  	93.362388 
4527.972821  	93.303404 
4528.937245  	93.314845 
4529.901670  	93.314776 
4530.866094  	93.367190 
4531.830519  	93.434754 
4532.794943  	93.407269 
4533.759368  	93.390780 
4534.723792  	93.346870 
4535.688217  	93.330715 
4536.652641  	93.401529 
4537.617065  	93.458831 
4538.581490  	93.484034 
4539.545914  	93.437295 
4540.510339  	93.366302 
4541.474763  	93.257461 
4542.439188  	93.261002 
4543.403612  	93.331812 
4544.368037  	93.325954 
4545.332461  	93.311774 
4546.296886  	93.333071 
4547.261310  	93.319757 
4548.225734  	93.365948 
4549.190159  	93.433133 
4550.154583  	93.373258 
4551.119008  	93.288515 
4552.083432  	93.368542 
4553.047857  	93.423404 
4554.012281  	93.428005 
4554.976706  	93.460406 
4555.941130  	93.441182 
4556.905555  	93.362028 
4557.869979  	93.366240 
4558.834404  	93.418488 
4559.798828  	93.311063 
4560.763252  	93.241543 
4561.727677  	93.247657 
4562.692101  	93.244937 
4563.656526  	93.314671 
4564.620950  	93.362820 
4565.585375  	93.310514 
4566.549799  	93.317835 
4567.514224  	93.358988 
4568.478648  	93.339972 
4569.443073  	93.341808 
4570.407497  	93.346849 
4571.371921  	93.339653 
4572.336346  	93.298529 
4573.300770  	93.282627 
4574.265195  	93.319854 
4575.229619  	93.411320 
4576.194044  	93.437597 
4577.158468  	93.386375 
4578.122893  	93.414448 
4579.087317  	93.400604 
4580.051742  	93.415039 
4581.016166  	93.499911 
4581.980590  	93.489103 
4582.945015  	93.406547 
4583.909439  	93.371582 
4584.873864  	93.315807 
4585.838288  	93.232718 
4586.802713  	93.327530 
4587.767137  	93.355575 
4588.731562  	93.318977 
4589.695986  	93.334271 
4590.660411  	93.380493 
4591.624835  	93.419533 
4592.589259  	93.362674 
4593.553684  	93.384474 
4594.518108  	93.412154 
4595.482533  	93.404450 
4596.446957  	93.398747 
4597.411382  	93.304604 
4598.375806  	93.234333 
4599.340231  	93.320940 
4600.304655  	93.360733 
4601.269080  	93.305301 
4602.233504  	93.305792 
4603.197928  	93.353584 
4604.162353  	93.334630 
4605.126777  	93.356485 
4606.091202  	93.409644 
4607.055626  	93.420193 
4608.020051  	93.398062 
4608.984475  	93.402762 
4609.948900  	93.393194 
4610.913324  	93.328158 
4611.877749  	93.239291 
4612.842173  	93.317816 
4613.806598  	93.447226 
4614.771022  	93.407436 
4615.735446  	93.347602 
4616.699871  	93.336828 
4617.664295  	93.259513 
4618.628720  	93.288082 
4619.593144  	93.336569 
4620.557569  	93.379722 
4621.521993  	93.389709 
4622.486418  	93.376243 
4623.450842  	93.394144 
4624.415267  	93.362074 
4625.379691  	93.366087 
4626.344115  	93.348564 
4627.308540  	93.362093 
4628.272964  	93.399921 
4629.237389  	93.369689 
4630.201813  	93.289267 
4631.166238  	93.316131 
4632.130662  	93.347134 
4633.095087  	93.276757 
4634.059511  	93.298154 
4635.023936  	93.379767 
4635.988360  	93.479601 
4636.952784  	93.477663 
4637.917209  	93.396876 
4638.881633  	93.328638 
4639.846058  	93.337487 
4640.810482  	93.376020 
4641.774907  	93.386785 
4642.739331  	93.273066 
4643.703756  	93.207439 
4644.668180  	93.276402 
4645.632605  	93.215296 
4646.597029  	93.246056 
4647.561453  	93.311761 
4648.525878  	93.313378 
4649.490302  	93.375614 
4650.454727  	93.425701 
4651.419151  	93.332124 
4652.383576  	93.298958 
4653.348000  	93.330688 
4654.312425  	93.446470 
4655.276849  	93.506513 
4656.241274  	93.371507 
4657.205698  	93.312702 
4658.170122  	93.274302 
4659.134547  	93.242090 
4660.098971  	93.302398 
4661.063396  	93.380624 
4662.027820  	93.419195 
4662.992245  	93.324676 
4663.956669  	93.281535 
4664.921094  	93.403339 
4665.885518  	93.451468 
4666.849943  	93.375253 
4667.814367  	93.341396 
4668.778791  	93.471913 
4669.743216  	93.530479 
4670.707640  	93.454902 
4671.672065  	93.375300 
4672.636489  	93.335545 
4673.600914  	93.340348 
4674.565338  	93.316062 
4675.529763  	93.296107 
4676.494187  	93.416378 
4677.458612  	93.519059 
4678.423036  	93.501842 
4679.387461  	93.501305 
4680.351885  	93.473237 
4681.316309  	93.374610 
4682.280734  	93.276202 
4683.245158  	93.231750 
4684.209583  	93.307214 
4685.174007  	93.415913 
4686.138432  	93.462139 
4687.102856  	93.423582 
4688.067281  	93.383372 
4689.031705  	93.326028 
4689.996130  	93.307347 
4690.960554  	93.352390 
4691.924978  	93.345147 
4692.889403  	93.320220 
4693.853827  	93.320396 
4694.818252  	93.314346 
4695.782676  	93.338977 
4696.747101  	93.344021 
4697.711525  	93.360624 
4698.675950  	93.391532 
4699.640374  	93.354648 