##TITLE=No Description
##DATA TYPE=INFRARED SPECTRUM
##XUNITS=1/CM
##YUNITS=%T
400.236149  	120.884423 
401.200574  	113.282988 
402.164998  	98.820507 
403.129423  	87.303325 
404.093847  	81.388969 
405.058272  	85.132908 
406.022696  	88.393794 
406.987120  	86.731828 
407.951545  	87.090955 
408.915969  	80.953068 
409.880394  	81.262978 
410.844818  	86.380849 
411.809243  	89.976707 
412.773667  	95.313005 
413.738092  	89.810688 
414.702516  	77.568028 
415.666941  	77.258479 
416.631365  	82.175996 
417.595789  	86.977785 
418.560214  	87.369584 
419.524638  	82.531054 
420.489063  	82.565689 
421.453487  	81.261790 
422.417912  	83.665719 
423.382336  	85.727553 
424.346761  	81.920851 
425.311185  	78.220336 
426.275610  	80.295188 
427.240034  	83.470869 
428.204458  	84.047208 
429.168883  	81.515901 
430.133307  	81.861085 
431.097732  	81.611710 
432.062156  	80.213320 
433.026581  	80.804823 
433.991005  	83.006027 
434.955430  	83.204600 
435.919854  	82.247668 
436.884279  	81.143864 
437.848703  	80.520308 
438.813127  	80.629957 
439.777552  	80.081948 
440.741976  	80.554069 
441.706401  	81.596675 
442.670825  	80.086809 
443.635250  	78.735762 
444.599674  	80.579480 
445.564099  	82.167706 
446.528523  	81.712137 
447.492948  	81.084306 
448.457372  	82.203486 
449.421796  	81.596815 
450.386221  	80.483551 
451.350645  	79.546011 
452.315070  	79.046867 
453.279494  	78.421427 
454.243919  	78.718683 
455.208343  	78.683448 
456.172768  	78.097487 
457.137192  	77.957103 
458.101617  	78.308052 
459.066041  	78.532752 
460.030466  	78.987098 
460.994890  	78.842099 
461.959314  	78.353679 
462.923739  	77.651936 
463.888163  	76.961021 
464.852588  	77.441757 
465.817012  	78.331230 
466.781437  	77.740560 
467.745861  	76.844551 
468.710286  	76.871937 
469.674710  	76.341167 
470.639135  	76.267573 
471.603559  	76.608621 
472.567983  	77.129344 
473.532408  	77.440649 
474.496832  	77.135678 
475.461257  	76.211403 
476.425681  	75.450303 
477.390106  	76.411422 
478.354530  	77.545433 
479.318955  	77.302058 
480.283379  	76.513929 
481.247804  	75.982380 
482.212228  	75.586076 
483.176652  	75.985422 
484.141077  	76.508448 
485.105501  	76.090353 
486.069926  	75.402267 
487.034350  	75.577486 
487.998775  	75.640083 
488.963199  	75.621051 
489.927624  	76.167329 
490.892048  	75.446431 
491.856473  	74.494380 
492.820897  	75.093801 
493.785321  	75.255387 
494.749746  	74.714699 
495.714170  	74.244805 
496.678595  	74.137790 
497.643019  	74.064260 
498.607444  	74.536810 
499.571868  	74.488512 
500.536293  	74.080572 
501.500717  	73.577010 
502.465142  	73.021389 
503.429566  	73.824386 
504.393990  	74.004348 
505.358415  	73.481693 
506.322839  	72.505369 
507.287264  	72.224012 
508.251688  	73.107160 
509.216113  	73.482427 
510.180537  	73.037779 
511.144962  	73.045820 
512.109386  	73.320682 
513.073811  	73.260083 
514.038235  	72.911584 
515.002660  	72.745437 
515.967084  	72.323390 
516.931508  	71.716920 
517.895933  	71.545093 
518.860357  	71.552928 
519.824782  	71.105393 
520.789206  	71.284885 
521.753631  	71.835720 
522.718055  	72.046592 
523.682480  	71.657867 
524.646904  	70.832437 
525.611329  	70.476755 
526.575753  	70.338223 
527.540177  	70.491747 
528.504602  	70.463870 
529.469026  	70.025340 
530.433451  	69.711437 
531.397875  	69.678146 
532.362300  	69.498722 
533.326724  	69.362826 
534.291149  	69.157592 
535.255573  	69.181090 
536.219998  	69.350473 
537.184422  	70.107511 
538.148846  	70.493928 
539.113271  	71.055729 
540.077695  	71.454380 
541.042120  	71.863557 
542.006544  	72.095987 
542.970969  	71.774693 
543.935393  	71.903538 
544.899818  	71.929130 
545.864242  	71.969114 
546.828667  	71.842860 
547.793091  	71.313334 
548.757515  	71.137526 
549.721940  	71.359939 
550.686364  	71.173555 
551.650789  	71.245796 
552.615213  	70.739747 
553.579638  	70.645644 
554.544062  	70.550168 
555.508487  	70.348066 
556.472911  	69.970442 
557.437336  	69.720250 
558.401760  	69.579992 
559.366184  	69.157918 
560.330609  	68.473547 
561.295033  	68.123684 
562.259458  	67.884604 
563.223882  	67.542117 
564.188307  	66.863084 
565.152731  	66.412401 
566.117156  	66.015853 
567.081580  	65.453709 
568.046005  	64.885748 
569.010429  	64.318623 
569.974853  	63.859126 
570.939278  	63.361898 
571.903702  	62.574302 
572.868127  	61.982369 
573.832551  	61.404006 
574.796976  	61.142618 
575.761400  	60.707721 
576.725825  	60.614445 
577.690249  	60.810868 
578.654674  	61.034163 
579.619098  	61.320781 
580.583523  	61.929333 
581.547947  	63.005403 
582.512371  	64.109953 
583.476796  	64.949809 
584.441220  	65.758257 
585.405645  	66.645888 
586.370069  	67.828930 
587.334494  	68.622761 
588.298918  	69.210947 
589.263343  	69.671978 
590.227767  	70.228696 
591.192192  	70.419329 
592.156616  	70.664119 
593.121040  	71.217738 
594.085465  	71.529224 
595.049889  	71.711806 
596.014314  	72.079778 
596.978738  	72.307308 
597.943163  	72.539440 
598.907587  	72.553297 
599.872012  	72.498840 
600.836436  	72.811045 
601.800861  	73.210269 
602.765285  	73.311526 
603.729709  	73.312824 
604.694134  	73.336446 
605.658558  	73.513443 
606.622983  	73.591049 
607.587407  	73.561071 
608.551832  	73.578892 
609.516256  	73.725286 
610.480681  	73.789686 
611.445105  	73.704598 
612.409530  	73.767523 
613.373954  	73.897489 
614.338378  	73.690521 
615.302803  	73.509927 
616.267227  	73.650599 
617.231652  	74.110950 
618.196076  	74.118576 
619.160501  	73.933823 
620.124925  	73.709325 
621.089350  	73.729317 
622.053774  	73.683026 
623.018199  	73.914752 
623.982623  	73.838141 
624.947047  	73.796933 
625.911472  	73.616643 
626.875896  	73.522209 
627.840321  	73.597304 
628.804745  	73.703543 
629.769170  	73.697867 
630.733594  	73.542662 
631.698019  	73.556183 
632.662443  	73.567860 
633.626868  	73.434496 
634.591292  	73.399407 
635.555717  	73.075532 
636.520141  	73.082959 
637.484565  	73.197059 
638.448990  	73.169925 
639.413414  	72.984246 
640.377839  	72.948275 
641.342263  	72.946985 
642.306688  	72.652195 
643.271112  	72.486327 
644.235537  	72.483698 
645.199961  	72.311449 
646.164386  	72.262771 
647.128810  	72.126679 
648.093234  	71.830271 
649.057659  	71.592390 
650.022083  	71.411855 
650.986508  	71.300906 
651.950932  	71.157398 
652.915357  	70.846961 
653.879781  	70.660671 
654.844206  	70.455010 
655.808630  	70.161283 
656.773055  	69.734694 
657.737479  	69.507485 
658.701903  	69.310695 
659.666328  	69.004436 
660.630752  	68.717811 
661.595177  	68.523834 
662.559601  	68.251598 
663.524026  	67.871101 
664.488450  	67.546338 
665.452875  	67.264948 
666.417299  	67.072145 
667.381724  	67.204583 
668.346148  	67.370410 
669.310572  	66.541815 
670.274997  	66.007014 
671.239421  	65.662461 
672.203846  	65.444553 
673.168270  	65.248878 
674.132695  	64.968828 
675.097119  	64.788285 
676.061544  	64.519171 
677.025968  	64.260551 
677.990393  	64.011614 
678.954817  	63.861167 
679.919241  	63.777332 
680.883666  	63.684567 
681.848090  	63.585876 
682.812515  	63.620958 
683.776939  	63.578410 
684.741364  	63.566642 
685.705788  	63.576719 
686.670213  	63.790506 
687.634637  	63.995823 
688.599062  	64.266890 
689.563486  	64.576248 
690.527910  	65.045162 
691.492335  	65.419083 
692.456759  	65.792643 
693.421184  	66.201900 
694.385608  	66.853539 
695.350033  	67.458328 
696.314457  	67.837237 
697.278882  	68.140933 
698.243306  	68.584831 
699.207731  	69.087801 
700.172155  	69.494994 
701.136580  	69.715729 
702.101004  	70.047268 
703.065428  	70.459044 
704.029853  	70.831777 
704.994277  	71.145404 
705.958702  	71.592000 
706.923126  	71.862946 
707.887551  	71.988896 
708.851975  	72.218078 
709.816400  	72.328398 
710.780824  	72.472588 
711.745249  	72.680469 
712.709673  	72.845048 
713.674097  	72.959722 
714.638522  	73.095618 
715.602946  	73.172361 
716.567371  	73.218828 
717.531795  	73.292273 
718.496220  	73.316250 
719.460644  	73.304014 
720.425069  	73.340553 
721.389493  	73.390655 
722.353918  	73.416477 
723.318342  	73.425916 
724.282766  	73.374020 
725.247191  	73.300919 
726.211615  	73.235066 
727.176040  	73.180793 
728.140464  	73.103183 
729.104889  	73.092918 
730.069313  	73.236619 
731.033738  	73.754326 
731.998162  	74.432176 
732.962587  	75.195717 
733.927011  	75.960707 
734.891435  	76.611717 
735.855860  	77.330905 
736.820284  	78.134428 
737.784709  	78.767287 
738.749133  	79.286806 
739.713558  	79.806504 
740.677982  	80.197985 
741.642407  	80.475156 
742.606831  	80.831202 
743.571256  	81.122236 
744.535680  	81.262412 
745.500104  	81.440066 
746.464529  	81.610953 
747.428953  	81.704918 
748.393378  	81.795396 
749.357802  	81.868890 
750.322227  	81.948708 
751.286651  	82.029149 
752.251076  	82.140780 
753.215500  	82.341924 
754.179925  	82.455216 
755.144349  	82.475904 
756.108774  	82.548019 
757.073198  	82.665297 
758.037622  	82.784635 
759.002047  	82.846371 
759.966471  	82.910682 
760.930896  	82.984495 
761.895320  	83.120179 
762.859745  	83.329398 
763.824169  	83.493904 
764.788594  	83.562877 
765.753018  	83.607469 
766.717443  	83.754129 
767.681867  	83.908558 
768.646291  	83.982824 
769.610716  	84.128475 
770.575140  	84.292747 
771.539565  	84.451933 
772.503989  	84.429770 
773.468414  	84.551979 
774.432838  	84.696566 
775.397263  	84.740630 
776.361687  	84.815792 
777.326112  	85.003622 
778.290536  	85.139006 
779.254960  	85.428207 
780.219385  	85.646532 
781.183809  	85.501829 
782.148234  	85.152528 
783.112658  	85.331559 
784.077083  	85.644530 
785.041507  	85.822701 
786.005932  	85.914650 
786.970356  	85.897215 
787.934781  	85.874373 
788.899205  	85.909105 
789.863629  	86.033816 
790.828054  	86.133577 
791.792478  	86.143843 
792.756903  	86.194386 
793.721327  	86.268665 
794.685752  	86.138133 
795.650176  	86.151610 
796.614601  	86.289873 
797.579025  	86.412543 
798.543450  	86.384094 
799.507874  	86.493258 
800.472298  	86.766071 
801.436723  	86.926680 
802.401147  	86.968217 
803.365572  	87.116915 
804.329996  	87.294076 
805.294421  	87.370339 
806.258845  	87.431593 
807.223270  	87.571421 
808.187694  	87.625915 
809.152119  	87.628720 
810.116543  	87.669307 
811.080967  	87.743062 
812.045392  	87.797673 
813.009816  	87.905884 
813.974241  	87.949755 
814.938665  	87.993200 
815.903090  	88.141766 
816.867514  	88.227616 
817.831939  	88.335420 
818.796363  	88.443829 
819.760788  	88.516265 
820.725212  	88.579270 
821.689637  	88.642883 
822.654061  	88.715219 
823.618485  	88.761612 
824.582910  	88.844428 
825.547334  	88.854507 
826.511759  	88.842051 
827.476183  	88.901146 
828.440608  	89.011362 
829.405032  	89.016892 
830.369457  	89.025933 
831.333881  	89.120304 
832.298306  	89.250334 
833.262730  	89.298798 
834.227154  	89.350817 
835.191579  	89.458622 
836.156003  	89.498405 
837.120428  	89.461498 
838.084852  	89.386204 
839.049277  	89.422002 
840.013701  	89.421061 
840.978126  	89.369865 
841.942550  	89.468662 
842.906975  	89.544910 
843.871399  	89.559167 
844.835823  	89.550229 
845.800248  	89.558945 
846.764672  	89.573298 
847.729097  	89.643750 
848.693521  	89.667095 
849.657946  	89.704164 
850.622370  	89.713164 
851.586795  	89.715098 
852.551219  	89.680272 
853.515644  	89.751091 
854.480068  	89.790885 
855.444492  	89.722394 
856.408917  	89.718670 
857.373341  	89.795003 
858.337766  	89.861103 
859.302190  	89.900181 
860.266615  	89.906313 
861.231039  	89.950700 
862.195464  	89.956712 
863.159888  	89.916476 
864.124313  	89.921684 
865.088737  	89.980596 
866.053161  	90.034064 
867.017586  	89.992983 
867.982010  	89.984017 
868.946435  	90.038030 
869.910859  	90.033164 
870.875284  	89.963138 
871.839708  	89.922560 
872.804133  	90.001373 
873.768557  	90.054953 
874.732982  	89.934518 
875.697406  	89.866326 
876.661831  	89.816994 
877.626255  	89.790055 
878.590679  	89.875443 
879.555104  	89.882610 
880.519528  	89.811189 
881.483953  	89.761249 
882.448377  	89.742262 
883.412802  	89.720124 
884.377226  	89.725685 
885.341651  	89.708886 
886.306075  	89.669380 
887.270500  	89.676522 
888.234924  	89.719076 
889.199348  	89.616194 
890.163773  	89.542618 
891.128197  	89.579028 
892.092622  	89.536123 
893.057046  	89.389407 
894.021471  	89.318069 
894.985895  	89.276838 
895.950320  	89.128935 
896.914744  	88.980631 
897.879169  	88.893088 
898.843593  	88.780115 
899.808017  	88.620001 
900.772442  	88.330211 
901.736866  	87.950256 
902.701291  	87.581271 
903.665715  	87.220983 
904.630140  	86.959171 
905.594564  	86.818410 
906.558989  	86.826548 
907.523413  	87.039197 
908.487838  	87.345339 
909.452262  	87.673991 
910.416686  	87.962365 
911.381111  	88.090233 
912.345535  	88.087158 
913.309960  	88.082257 
914.274384  	88.024978 
915.238809  	87.951612 
916.203233  	87.830061 
917.167658  	87.711306 
918.132082  	87.596726 
919.096507  	87.464871 
920.060931  	87.322898 
921.025355  	87.133000 
921.989780  	86.887465 
922.954204  	86.620346 
923.918629  	86.333265 
924.883053  	86.036158 
925.847478  	85.686633 
926.811902  	85.227178 
927.776327  	84.747540 
928.740751  	84.186332 
929.705176  	83.547434 
930.669600  	82.808551 
931.634024  	82.022073 
932.598449  	81.326514 
933.562873  	80.839322 
934.527298  	80.653618 
935.491722  	80.827554 
936.456147  	81.455036 
937.420571  	82.392352 
938.384996  	83.413085 
939.349420  	84.369124 
940.313845  	85.253689 
941.278269  	86.019935 
942.242694  	86.592862 
943.207118  	87.024071 
944.171542  	87.389100 
945.135967  	87.657019 
946.100391  	87.852208 
947.064816  	88.024564 
948.029240  	88.145299 
948.993665  	88.264046 
949.958089  	88.407336 
950.922514  	88.569594 
951.886938  	88.745858 
952.851363  	88.809669 
953.815787  	88.815458 
954.780211  	88.876378 
955.744636  	88.971078 
956.709060  	89.041341 
957.673485  	89.076830 
958.637909  	89.103972 
959.602334  	89.110691 
960.566758  	89.152370 
961.531183  	89.179473 
962.495607  	89.182594 
963.460032  	89.223096 
964.424456  	89.266687 
965.388880  	89.272787 
966.353305  	89.283909 
967.317729  	89.337177 
968.282154  	89.352277 
969.246578  	89.361462 
970.211003  	89.378271 
971.175427  	89.354211 
972.139852  	89.313799 
973.104276  	89.295534 
974.068701  	89.310533 
975.033125  	89.307556 
975.997549  	89.273023 
976.961974  	89.230839 
977.926398  	89.186499 
978.890823  	89.161256 
979.855247  	89.117316 
980.819672  	89.066150 
981.784096  	89.018817 
982.748521  	88.964997 
983.712945  	88.872829 
984.677370  	88.711295 
985.641794  	88.587253 
986.606218  	88.515643 
987.570643  	88.451582 
988.535067  	88.433223 
989.499492  	88.477685 
990.463916  	88.497527 
991.428341  	88.480279 
992.392765  	88.388909 
993.357190  	88.277651 
994.321614  	88.232090 
995.286039  	88.200534 
996.250463  	88.143145 
997.214888  	88.062315 
998.179312  	88.049241 
999.143736  	88.015192 
1000.108161  	87.932755 
1001.072585  	87.921288 
1002.037010  	87.934912 
1003.001434  	87.866770 
1003.965859  	87.758041 
1004.930283  	87.694725 
1005.894708  	87.605130 
1006.859132  	87.491790 
1007.823557  	87.380626 
1008.787981  	87.309921 
1009.752405  	87.210858 
1010.716830  	87.104374 
1011.681254  	87.042275 
1012.645679  	87.042950 
1013.610103  	86.991495 
1014.574528  	86.892890 
1015.538952  	86.880253 
1016.503377  	86.906838 
1017.467801  	86.835955 
1018.432226  	86.791330 
1019.396650  	86.783062 
1020.361074  	86.784037 
1021.325499  	86.805862 
1022.289923  	86.742076 
1023.254348  	86.682502 
1024.218772  	86.644650 
1025.183197  	86.579786 
1026.147621  	86.476980 
1027.112046  	86.379547 
1028.076470  	86.303217 
1029.040895  	86.225704 
1030.005319  	86.137878 
1030.969743  	86.052814 
1031.934168  	86.029499 
1032.898592  	85.996332 
1033.863017  	85.924559 
1034.827441  	85.835366 
1035.791866  	85.746126 
1036.756290  	85.709610 
1037.720715  	85.659298 
1038.685139  	85.591201 
1039.649564  	85.567692 
1040.613988  	85.550653 
1041.578412  	85.500848 
1042.542837  	85.526168 
1043.507261  	85.621465 
1044.471686  	85.692469 
1045.436110  	85.740924 
1046.400535  	85.813323 
1047.364959  	85.871284 
1048.329384  	85.885503 
1049.293808  	85.941575 
1050.258233  	86.068000 
1051.222657  	86.134452 
1052.187081  	86.141943 
1053.151506  	86.138085 
1054.115930  	86.146280 
1055.080355  	86.112294 
1056.044779  	86.040048 
1057.009204  	85.998043 
1057.973628  	85.988844 
1058.938053  	85.978186 
1059.902477  	85.877980 
1060.866902  	85.754761 
1061.831326  	85.721953 
1062.795751  	85.669205 
1063.760175  	85.581202 
1064.724599  	85.570188 
1065.689024  	85.637720 
1066.653448  	85.708840 
1067.617873  	85.791936 
1068.582297  	85.947850 
1069.546722  	86.095588 
1070.511146  	86.284820 
1071.475571  	86.474610 
1072.439995  	86.555957 
1073.404420  	86.628858 
1074.368844  	86.693286 
1075.333268  	86.721906 
1076.297693  	86.714652 
1077.262117  	86.693869 
1078.226542  	86.675840 
1079.190966  	86.653072 
1080.155391  	86.596470 
1081.119815  	86.592614 
1082.084240  	86.590645 
1083.048664  	86.537293 
1084.013089  	86.493655 
1084.977513  	86.440913 
1085.941937  	86.319506 
1086.906362  	86.203103 
1087.870786  	86.130360 
1088.835211  	86.034151 
1089.799635  	85.949363 
1090.764060  	85.862673 
1091.728484  	85.848798 
1092.692909  	85.837864 
1093.657333  	85.762939 
1094.621758  	85.702196 
1095.586182  	85.699980 
1096.550606  	85.734179 
1097.515031  	85.757863 
1098.479455  	85.719349 
1099.443880  	85.702867 
1100.408304  	85.740044 
1101.372729  	85.777685 
1102.337153  	85.785282 
1103.301578  	85.808992 
1104.266002  	85.850717 
1105.230427  	85.860576 
1106.194851  	85.819549 
1107.159275  	85.843886 
1108.123700  	85.883624 
1109.088124  	85.852679 
1110.052549  	85.860021 
1111.016973  	85.887556 
1111.981398  	85.875313 
1112.945822  	85.862954 
1113.910247  	85.848840 
1114.874671  	85.812673 
1115.839096  	85.778639 
1116.803520  	85.771478 
1117.767945  	85.736707 
1118.732369  	85.680326 
1119.696793  	85.659201 
1120.661218  	85.604841 
1121.625642  	85.470120 
1122.590067  	85.399250 
1123.554491  	85.313082 
1124.518916  	85.172081 
1125.483340  	85.081223 
1126.447765  	84.994296 
1127.412189  	84.870157 
1128.376614  	84.689284 
1129.341038  	84.518305 
1130.305462  	84.353271 
1131.269887  	84.124266 
1132.234311  	83.799483 
1133.198736  	83.385507 
1134.163160  	82.928833 
1135.127585  	82.414659 
1136.092009  	81.871010 
1137.056434  	81.400552 
1138.020858  	81.118428 
1138.985283  	80.956511 
1139.949707  	80.891229 
1140.914131  	80.964194 
1141.878556  	81.094398 
1142.842980  	81.112263 
1143.807405  	81.115091 
1144.771829  	81.134987 
1145.736254  	81.127683 
1146.700678  	81.125224 
1147.665103  	81.135296 
1148.629527  	81.200956 
1149.593952  	81.333897 
1150.558376  	81.526644 
1151.522800  	81.731238 
1152.487225  	81.950465 
1153.451649  	82.161384 
1154.416074  	82.373569 
1155.380498  	82.543641 
1156.344923  	82.695497 
1157.309347  	82.839828 
1158.273772  	82.920625 
1159.238196  	82.905705 
1160.202621  	82.929854 
1161.167045  	82.918423 
1162.131469  	82.800656 
1163.095894  	82.655300 
1164.060318  	82.517674 
1165.024743  	82.369412 
1165.989167  	82.153951 
1166.953592  	81.908829 
1167.918016  	81.669097 
1168.882441  	81.354364 
1169.846865  	80.980349 
1170.811290  	80.552923 
1171.775714  	80.082911 
1172.740138  	79.604864 
1173.704563  	79.016269 
1174.668987  	78.332514 
1175.633412  	77.780023 
1176.597836  	77.298172 
1177.562261  	76.842538 
1178.526685  	76.544704 
1179.491110  	76.440872 
1180.455534  	76.468605 
1181.419959  	76.632200 
1182.384383  	76.859062 
1183.348808  	77.088281 
1184.313232  	77.301452 
1185.277656  	77.436700 
1186.242081  	77.490624 
1187.206505  	77.475273 
1188.170930  	77.339728 
1189.135354  	77.034318 
1190.099779  	76.625601 
1191.064203  	76.107411 
1192.028628  	75.402392 
1192.993052  	74.568992 
1193.957477  	73.692685 
1194.921901  	72.846023 
1195.886325  	72.152847 
1196.850750  	71.759386 
1197.815174  	71.797200 
1198.779599  	72.333646 
1199.744023  	73.246710 
1200.708448  	74.319898 
1201.672872  	75.475287 
1202.637297  	76.587907 
1203.601721  	77.571770 
1204.566146  	78.413341 
1205.530570  	79.115051 
1206.494994  	79.697826 
1207.459419  	80.163754 
1208.423843  	80.482476 
1209.388268  	80.711396 
1210.352692  	80.875094 
1211.317117  	80.944013 
1212.281541  	80.941509 
1213.245966  	80.968108 
1214.210390  	80.984977 
1215.174815  	80.945473 
1216.139239  	80.857989 
1217.103663  	80.768842 
1218.068088  	80.663552 
1219.032512  	80.463356 
1219.996937  	80.200162 
1220.961361  	79.840339 
1221.925786  	79.411459 
1222.890210  	78.982404 
1223.854635  	78.651349 
1224.819059  	78.535351 
1225.783484  	78.714913 
1226.747908  	79.007869 
1227.712332  	79.188310 
1228.676757  	79.229345 
1229.641181  	79.156744 
1230.605606  	79.002779 
1231.570030  	78.806787 
1232.534455  	78.630177 
1233.498879  	78.474479 
1234.463304  	78.303557 
1235.427728  	78.128080 
1236.392153  	77.995372 
1237.356577  	77.883855 
1238.321002  	77.754042 
1239.285426  	77.625941 
1240.249850  	77.536903 
1241.214275  	77.458906 
1242.178699  	77.359257 
1243.143124  	77.205464 
1244.107548  	77.058738 
1245.071973  	76.983718 
1246.036397  	76.862831 
1247.000822  	76.697957 
1247.965246  	76.562339 
1248.929671  	76.424349 
1249.894095  	76.257094 
1250.858519  	76.088808 
1251.822944  	75.946111 
1252.787368  	75.783078 
1253.751793  	75.571841 
1254.716217  	75.338363 
1255.680642  	75.159306 
1256.645066  	75.017894 
1257.609491  	74.761729 
1258.573915  	74.440911 
1259.538340  	74.118797 
1260.502764  	73.786149 
1261.467188  	73.538411 
1262.431613  	73.283232 
1263.396037  	72.998401 
1264.360462  	72.701114 
1265.324886  	72.365102 
1266.289311  	72.057359 
1267.253735  	71.804265 
1268.218160  	71.533229 
1269.182584  	71.232467 
1270.147009  	70.955692 
1271.111433  	70.772823 
1272.075857  	70.613398 
1273.040282  	70.579871 
1274.004706  	70.601475 
1274.969131  	70.715500 
1275.933555  	70.977412 
1276.897980  	71.365688 
1277.862404  	71.886863 
1278.826829  	72.536251 
1279.791253  	73.210064 
1280.755678  	73.919144 
1281.720102  	74.652511 
1282.684526  	75.339239 
1283.648951  	75.954265 
1284.613375  	76.525277 
1285.577800  	77.058737 
1286.542224  	77.488109 
1287.506649  	77.754069 
1288.471073  	78.054783 
1289.435498  	78.454356 
1290.399922  	78.721510 
1291.364347  	78.924120 
1292.328771  	79.140595 
1293.293195  	79.314858 
1294.257620  	79.410965 
1295.222044  	79.464250 
1296.186469  	79.471003 
1297.150893  	79.511674 
1298.115318  	79.598830 
1299.079742  	79.576887 
1300.044167  	79.570491 
1301.008591  	79.599267 
1301.973016  	79.617058 
1302.937440  	79.629047 
1303.901865  	79.707367 
1304.866289  	79.853088 
1305.830713  	79.976773 
1306.795138  	80.070524 
1307.759562  	80.167848 
1308.723987  	80.332216 
1309.688411  	80.542304 
1310.652836  	80.637723 
1311.617260  	80.656212 
1312.581685  	80.509805 
1313.546109  	80.617495 
1314.510534  	80.799195 
1315.474958  	80.978171 
1316.439382  	80.947582 
1317.403807  	80.847647 
1318.368231  	80.821580 
1319.332656  	80.716294 
1320.297080  	80.896652 
1321.261505  	80.995419 
1322.225929  	81.027133 
1323.190354  	80.932413 
1324.154778  	80.854305 
1325.119203  	80.762163 
1326.083627  	80.665033 
1327.048051  	80.586071 
1328.012476  	80.523180 
1328.976900  	80.458547 
1329.941325  	80.410206 
1330.905749  	80.435682 
1331.870174  	80.483365 
1332.834598  	80.446424 
1333.799023  	80.398793 
1334.763447  	80.325663 
1335.727872  	80.051659 
1336.692296  	79.596894 
1337.656720  	79.439157 
1338.621145  	78.889500 
1339.585569  	78.298113 
1340.549994  	78.394458 
1341.514418  	79.143385 
1342.478843  	79.427919 
1343.443267  	79.312011 
1344.407692  	79.174358 
1345.372116  	79.039501 
1346.336541  	78.877641 
1347.300965  	78.713494 
1348.265389  	78.496292 
1349.229814  	78.218674 
1350.194238  	78.078541 
1351.158663  	77.955732 
1352.123087  	77.737290 
1353.087512  	77.534947 
1354.051936  	77.242688 
1355.016361  	76.854368 
1355.980785  	76.768363 
1356.945210  	76.625599 
1357.909634  	76.350619 
1358.874059  	76.185164 
1359.838483  	75.968175 
1360.802907  	75.323224 
1361.767332  	74.807097 
1362.731756  	74.063163 
1363.696181  	73.976901 
1364.660605  	74.661717 
1365.625030  	74.638386 
1366.589454  	74.406820 
1367.553879  	74.033905 
1368.518303  	73.545595 
1369.482728  	73.483143 
1370.447152  	73.714858 
1371.411576  	73.769729 
1372.376001  	73.775050 
1373.340425  	73.479912 
1374.304850  	73.480296 
1375.269274  	74.259047 
1376.233699  	75.243321 
1377.198123  	75.700010 
1378.162548  	75.909994 
1379.126972  	76.339074 
1380.091397  	76.768275 
1381.055821  	77.221110 
1382.020245  	77.518773 
1382.984670  	77.735090 
1383.949094  	77.923958 
1384.913519  	78.119215 
1385.877943  	77.996435 
1386.842368  	77.446233 
1387.806792  	77.587980 
1388.771217  	78.601169 
1389.735641  	79.081866 
1390.700066  	79.282429 
1391.664490  	79.530393 
1392.628914  	79.757660 
1393.593339  	79.487196 
1394.557763  	78.817421 
1395.522188  	78.978770 
1396.486612  	79.684955 
1397.451037  	79.756949 
1398.415461  	79.332859 
1399.379886  	79.297072 
1400.344310  	79.989852 
1401.308735  	80.277509 
1402.273159  	80.133064 
1403.237583  	79.839592 
1404.202008  	79.174842 
1405.166432  	78.370034 
1406.130857  	78.454753 
1407.095281  	78.302615 
1408.059706  	77.673140 
1409.024130  	76.836565 
1409.988555  	75.729709 
1410.952979  	74.490757 
1411.917404  	73.030865 
1412.881828  	71.699918 
1413.846252  	70.314641 
1414.810677  	68.989658 
1415.775101  	67.934979 
1416.739526  	67.568263 
1417.703950  	68.128893 
1418.668375  	68.834633 
1419.632799  	70.523098 
1420.597224  	73.195061 
1421.561648  	74.204981 
1422.526073  	74.819907 
1423.490497  	74.677052 
1424.454922  	75.062088 
1425.419346  	76.113116 
1426.383770  	76.534331 
1427.348195  	76.610525 
1428.312619  	76.429769 
1429.277044  	76.004168 
1430.241468  	75.660101 
1431.205893  	75.836384 
1432.170317  	75.625073 
1433.134742  	75.282504 
1434.099166  	75.244703 
1435.063591  	74.917961 
1436.028015  	73.837576 
1436.992439  	73.315502 
1437.956864  	74.455755 
1438.921288  	74.889106 
1439.885713  	74.989696 
1440.850137  	75.063175 
1441.814562  	75.176154 
1442.778986  	75.298670 
1443.743411  	75.334803 
1444.707835  	75.332047 
1445.672260  	75.285286 
1446.636684  	75.103879 
1447.601108  	74.475928 
1448.565533  	74.439993 
1449.529957  	74.882788 
1450.494382  	74.743493 
1451.458806  	74.146533 
1452.423231  	73.552727 
1453.387655  	73.454830 
1454.352080  	72.809820 
1455.316504  	71.676652 
1456.280929  	70.585997 
1457.245353  	69.708748 
1458.209777  	69.422275 
1459.174202  	69.517674 
1460.138626  	69.768456 
1461.103051  	69.518865 
1462.067475  	68.737259 
1463.031900  	67.976253 
1463.996324  	67.094159 
1464.960749  	66.617745 
1465.925173  	67.868590 
1466.889598  	69.127367 
1467.854022  	70.255246 
1468.818446  	71.168647 
1469.782871  	71.483790 
1470.747295  	70.953559 
1471.711720  	69.339522 
1472.676144  	67.634015 
1473.640569  	67.314528 
1474.604993  	67.906023 
1475.569418  	67.891649 
1476.533842  	68.366275 
1477.498267  	70.236256 
1478.462691  	71.653387 
1479.427116  	72.938569 
1480.391540  	74.032992 
1481.355964  	74.965793 
1482.320389  	76.488028 
1483.284813  	77.562347 
1484.249238  	78.225885 
1485.213662  	78.434709 
1486.178087  	78.214947 
1487.142511  	77.795299 
1488.106936  	77.838123 
1489.071360  	77.040484 
1490.035785  	75.835841 
1491.000209  	76.473292 
1491.964633  	77.466083 
1492.929058  	77.638543 
1493.893482  	77.312599 
1494.857907  	76.686931 
1495.822331  	75.608360 
1496.786756  	74.962232 
1497.751180  	75.027501 
1498.715605  	74.337235 
1499.680029  	74.181857 
1500.644454  	74.094338 
1501.608878  	73.434933 
1502.573302  	73.035607 
1503.537727  	72.731759 
1504.502151  	71.854870 
1505.466576  	70.149239 
1506.431000  	67.121344 
1507.395425  	65.747299 
1508.359849  	66.373244 
1509.324274  	66.705472 
1510.288698  	66.728366 
1511.253123  	66.725827 
1512.217547  	65.851740 
1513.181971  	65.413360 
1514.146396  	64.878437 
1515.110820  	63.468662 
1516.075245  	61.991967 
1517.039669  	60.362820 
1518.004094  	60.386681 
1518.968518  	60.273410 
1519.932943  	58.841287 
1520.897367  	56.366407 
1521.861792  	55.590386 
1522.826216  	55.494117 
1523.790640  	55.234723 
1524.755065  	54.155810 
1525.719489  	53.000582 
1526.683914  	52.459037 
1527.648338  	51.556671 
1528.612763  	51.053834 
1529.577187  	51.057345 
1530.541612  	50.728023 
1531.506036  	50.039114 
1532.470461  	49.537092 
1533.434885  	49.016056 
1534.399309  	49.892044 
1535.363734  	50.702900 
1536.328158  	51.341296 
1537.292583  	51.819909 
1538.257007  	51.464180 
1539.221432  	50.459171 
1540.185856  	52.008220 
1541.150281  	53.415977 
1542.114705  	54.031746 
1543.079130  	55.302268 
1544.043554  	55.909037 
1545.007979  	56.470365 
1545.972403  	58.249614 
1546.936827  	59.640957 
1547.901252  	60.392916 
1548.865676  	60.674167 
1549.830101  	60.329384 
1550.794525  	61.630133 
1551.758950  	62.999257 
1552.723374  	63.503548 
1553.687799  	63.320993 
1554.652223  	63.683021 
1555.616648  	65.068280 
1556.581072  	65.325954 
1557.545496  	64.527589 
1558.509921  	62.832586 
1559.474345  	63.245898 
1560.438770  	66.562830 
1561.403194  	68.664818 
1562.367619  	69.554932 
1563.332043  	70.188426 
1564.296468  	70.419600 
1565.260892  	70.947928 
1566.225317  	72.020501 
1567.189741  	72.648386 
1568.154165  	72.835940 
1569.118590  	72.251574 
1570.083014  	73.084000 
1571.047439  	74.666795 
1572.011863  	75.361545 
1572.976288  	75.824512 
1573.940712  	76.234020 
1574.905137  	76.235452 
1575.869561  	75.722925 
1576.833986  	76.152948 
1577.798410  	77.227562 
1578.762834  	77.904065 
1579.727259  	78.353832 
1580.691683  	78.619048 
1581.656108  	78.812302 
1582.620532  	78.903566 
1583.584957  	79.015927 
1584.549381  	79.093859 
1585.513806  	79.149084 
1586.478230  	79.124498 
1587.442655  	79.118745 
1588.407079  	78.996995 
1589.371503  	78.767211 
1590.335928  	78.505789 
1591.300352  	78.315952 
1592.264777  	78.023293 
1593.229201  	77.715059 
1594.193626  	77.124982 
1595.158050  	76.701992 
1596.122475  	76.291678 
1597.086899  	75.833731 
1598.051324  	75.301296 
1599.015748  	74.710467 
1599.980173  	73.958454 
1600.944597  	73.058834 
1601.909021  	72.103973 
1602.873446  	71.121700 
1603.837870  	70.163052 
1604.802295  	69.378467 
1605.766719  	68.369317 
1606.731144  	67.289069 
1607.695568  	66.304313 
1608.659993  	65.498820 
1609.624417  	64.386313 
1610.588842  	63.667643 
1611.553266  	62.766856 
1612.517690  	61.692516 
1613.482115  	60.515096 
1614.446539  	59.323075 
1615.410964  	57.848309 
1616.375388  	56.121063 
1617.339813  	54.665341 
1618.304237  	54.369517 
1619.268662  	53.554535 
1620.233086  	52.648829 
1621.197511  	51.701669 
1622.161935  	50.712396 
1623.126359  	49.335141 
1624.090784  	48.800020 
1625.055208  	48.578582 
1626.019633  	48.090825 
1626.984057  	47.229294 
1627.948482  	46.434928 
1628.912906  	46.155841 
1629.877331  	45.980087 
1630.841755  	45.664252 
1631.806180  	45.620867 
1632.770604  	45.765308 
1633.735028  	45.956775 
1634.699453  	45.524557 
1635.663877  	46.052413 
1636.628302  	47.962052 
1637.592726  	49.013289 
1638.557151  	50.703828 
1639.521575  	52.001681 
1640.486000  	53.199427 
1641.450424  	54.559553 
1642.414849  	55.832999 
1643.379273  	57.319464 
1644.343697  	58.483574 
1645.308122  	58.954279 
1646.272546  	59.578815 
1647.236971  	60.868879 
1648.201395  	62.552149 
1649.165820  	64.874680 
1650.130244  	66.193914 
1651.094669  	66.940715 
1652.059093  	66.758987 
1653.023518  	65.566589 
1653.987942  	67.897997 
1654.952366  	70.738402 
1655.916791  	72.513233 
1656.881215  	73.597730 
1657.845640  	74.717898 
1658.810064  	75.856143 
1659.774489  	76.839593 
1660.738913  	77.548801 
1661.703338  	77.966778 
1662.667762  	78.363414 
1663.632187  	79.854006 
1664.596611  	81.122109 
1665.561036  	82.019381 
1666.525460  	82.860628 
1667.489884  	83.269871 
1668.454309  	82.886281 
1669.418733  	83.097668 
1670.383158  	84.647363 
1671.347582  	85.032566 
1672.312007  	85.918783 
1673.276431  	86.910276 
1674.240856  	87.058200 
1675.205280  	86.562995 
1676.169705  	87.548787 
1677.134129  	88.648611 
1678.098553  	89.169439 
1679.062978  	89.250922 
1680.027402  	88.605821 
1680.991827  	89.108412 
1681.956251  	90.024646 
1682.920676  	89.453142 
1683.885100  	86.879696 
1684.849525  	87.218293 
1685.813949  	90.343673 
1686.778374  	91.283778 
1687.742798  	91.150091 
1688.707222  	90.903733 
1689.671647  	91.270858 
1690.636071  	91.622526 
1691.600496  	92.250832 
1692.564920  	92.410733 
1693.529345  	92.322221 
1694.493769  	91.920613 
1695.458194  	90.900591 
1696.422618  	90.146089 
1697.387043  	90.972629 
1698.351467  	91.339960 
1699.315891  	90.998345 
1700.280316  	88.865316 
1701.244740  	90.370425 
1702.209165  	91.578118 
1703.173589  	91.875282 
1704.138014  	91.422588 
1705.102438  	91.192832 
1706.066863  	91.245253 
1707.031287  	91.287663 
1707.995712  	91.968124 
1708.960136  	92.243636 
1709.924560  	91.865093 
1710.888985  	91.849954 
1711.853409  	92.208622 
1712.817834  	91.946654 
1713.782258  	91.203691 
1714.746683  	90.305354 
1715.711107  	90.319296 
1716.675532  	90.424432 
1717.639956  	89.194735 
1718.604381  	88.958784 
1719.568805  	90.770425 
1720.533230  	91.498434 
1721.497654  	91.515600 
1722.462078  	91.371468 
1723.426503  	91.011363 
1724.390927  	91.057500 
1725.355352  	91.314244 
1726.319776  	91.272834 
1727.284201  	91.198817 
1728.248625  	91.104939 
1729.213050  	90.547974 
1730.177474  	89.603832 
1731.141899  	90.277283 
1732.106323  	90.480581 
1733.070747  	89.444661 
1734.035172  	87.635569 
1734.999596  	89.060034 
1735.964021  	90.674045 
1736.928445  	91.094786 
1737.892870  	91.129755 
1738.857294  	91.042837 
1739.821719  	90.603113 
1740.786143  	91.344098 
1741.750568  	91.938489 
1742.714992  	91.451543 
1743.679416  	90.779736 
1744.643841  	91.546089 
1745.608265  	92.021529 
1746.572690  	91.838448 
1747.537114  	91.494210 
1748.501539  	91.264493 
1749.465963  	91.457693 
1750.430388  	91.750550 
1751.394812  	91.118209 
1752.359237  	92.131563 
1753.323661  	93.044855 
1754.288085  	93.422564 
1755.252510  	93.421610 
1756.216934  	92.893965 
1757.181359  	92.442065 
1758.145783  	92.989419 
1759.110208  	93.334236 
1760.074632  	93.506414 
1761.039057  	92.999325 
1762.003481  	92.253646 
1762.967906  	93.044895 
1763.932330  	93.623611 
1764.896754  	93.710912 
1765.861179  	93.724218 
1766.825603  	93.570037 
1767.790028  	92.875123 
1768.754452  	92.673032 
1769.718877  	93.448949 
1770.683301  	93.213982 
1771.647726  	92.346279 
1772.612150  	91.943536 
1773.576575  	92.907140 
1774.540999  	93.477884 
1775.505423  	93.208354 
1776.469848  	93.415075 
1777.434272  	93.931958 
1778.398697  	93.773228 
1779.363121  	93.533171 
1780.327546  	93.137306 
1781.291970  	93.078172 
1782.256395  	93.680298 
1783.220819  	93.965100 
1784.185244  	93.671585 
1785.149668  	93.262847 
1786.114093  	93.697284 
1787.078517  	94.018710 
1788.042941  	93.994763 
1789.007366  	93.939022 
1789.971790  	93.644578 
1790.936215  	92.869283 
1791.900639  	92.463975 
1792.865064  	92.468643 
1793.829488  	93.291407 
1794.793913  	93.645442 
1795.758337  	93.109650 
1796.722762  	93.150431 
1797.687186  	93.796407 
1798.651610  	93.846098 
1799.616035  	93.359915 
1800.580459  	93.342007 
1801.544884  	93.164810 
1802.509308  	93.032627 
1803.473733  	93.668355 
1804.438157  	94.097194 
1805.402582  	94.065358 
1806.367006  	94.009113 
1807.331431  	93.774112 
1808.295855  	93.682426 
1809.260279  	93.935732 
1810.224704  	93.637847 
1811.189128  	93.339450 
1812.153553  	93.599617 
1813.117977  	93.874395 
1814.082402  	94.177279 
1815.046826  	94.227584 
1816.011251  	94.269451 
1816.975675  	94.007081 
1817.940100  	93.802783 
1818.904524  	94.033785 
1819.868948  	94.191686 
1820.833373  	94.106065 
1821.797797  	93.993743 
1822.762222  	93.802284 
1823.726646  	93.841453 
1824.691071  	93.361709 
1825.655495  	92.876831 
1826.619920  	93.694402 
1827.584344  	94.003509 
1828.548769  	93.556552 
1829.513193  	92.658755 
1830.477617  	92.782712 
1831.442042  	93.740327 
1832.406466  	93.936793 
1833.370891  	93.830400 
1834.335315  	94.025583 
1835.299740  	94.184106 
1836.264164  	93.995739 
1837.228589  	93.623749 
1838.193013  	93.800386 
1839.157438  	94.080810 
1840.121862  	94.090146 
1841.086287  	94.008116 
1842.050711  	93.689631 
1843.015135  	93.435943 
1843.979560  	92.774184 
1844.943984  	92.699693 
1845.908409  	93.396918 
1846.872833  	93.606925 
1847.837258  	93.281105 
1848.801682  	93.560304 
1849.766107  	94.008201 
1850.730531  	94.196590 
1851.694956  	94.157404 
1852.659380  	94.064314 
1853.623804  	94.000545 
1854.588229  	93.964508 
1855.552653  	94.010376 
1856.517078  	94.060238 
1857.481502  	94.027061 
1858.445927  	93.875892 
1859.410351  	93.790366 
1860.374776  	93.882536 
1861.339200  	93.813929 
1862.303625  	93.854160 
1863.268049  	93.975591 
1864.232473  	94.039187 
1865.196898  	93.982913 
1866.161322  	93.700451 
1867.125747  	93.351272 
1868.090171  	92.907360 
1869.054596  	92.544954 
1870.019020  	93.002444 
1870.983445  	93.611223 
1871.947869  	93.974726 
1872.912294  	94.148295 
1873.876718  	94.135739 
1874.841142  	94.017213 
1875.805567  	94.029278 
1876.769991  	94.066766 
1877.734416  	94.079541 
1878.698840  	93.919143 
1879.663265  	93.851988 
1880.627689  	93.934168 
1881.592114  	93.920176 
1882.556538  	93.894529 
1883.520963  	93.974585 
1884.485387  	93.866209 
1885.449811  	93.803458 
1886.414236  	94.002604 
1887.378660  	94.116687 
1888.343085  	93.851205 
1889.307509  	93.140550 
1890.271934  	93.138676 
1891.236358  	93.776144 
1892.200783  	93.966370 
1893.165207  	94.009569 
1894.129632  	93.853020 
1895.094056  	93.460970 
1896.058480  	93.635861 
1897.022905  	94.019985 
1897.987329  	93.977101 
1898.951754  	93.940427 
1899.916178  	93.994816 
1900.880603  	94.058474 
1901.845027  	93.971756 
1902.809452  	93.992599 
1903.773876  	93.959608 
1904.738301  	94.002268 
1905.702725  	93.992784 
1906.667150  	93.976234 
1907.631574  	93.697846 
1908.595998  	93.623048 
1909.560423  	93.546459 
1910.524847  	93.556449 
1911.489272  	93.954938 
1912.453696  	94.053420 
1913.418121  	93.887044 
1914.382545  	93.789354 
1915.346970  	93.852231 
1916.311394  	93.925868 
1917.275819  	93.600625 
1918.240243  	93.080919 
1919.204667  	93.521291 
1920.169092  	93.836171 
1921.133516  	93.702563 
1922.097941  	93.299172 
1923.062365  	92.931018 
1924.026790  	93.599515 
1924.991214  	94.079760 
1925.955639  	94.041639 
1926.920063  	93.998032 
1927.884488  	93.952760 
1928.848912  	93.978024 
1929.813336  	94.151321 
1930.777761  	94.221770 
1931.742185  	94.171969 
1932.706610  	94.055808 
1933.671034  	94.125599 
1934.635459  	94.156662 
1935.599883  	94.148356 
1936.564308  	94.176284 
1937.528732  	94.180678 
1938.493157  	94.192877 
1939.457581  	94.392207 
1940.422005  	94.211584 
1941.386430  	93.691384 
1942.350854  	92.938640 
1943.315279  	93.233264 
1944.279703  	93.866673 
1945.244128  	93.945945 
1946.208552  	93.997042 
1947.172977  	93.892013 
1948.137401  	93.896645 
1949.101826  	93.997095 
1950.066250  	94.134738 
1951.030674  	94.271288 
1951.995099  	94.254432 
1952.959523  	94.192640 
1953.923948  	93.940191 
1954.888372  	93.895687 
1955.852797  	93.998136 
1956.817221  	94.343010 
1957.781646  	94.549219 
1958.746070  	94.511794 
1959.710495  	94.393058 
1960.674919  	94.317881 
1961.639344  	94.065796 
1962.603768  	93.796152 
1963.568192  	94.020474 
1964.532617  	94.438491 
1965.497041  	94.527996 
1966.461466  	94.187658 
1967.425890  	93.875275 
1968.390315  	94.406461 
1969.354739  	94.284213 
1970.319164  	94.036065 
1971.283588  	94.163896 
1972.248013  	94.260362 
1973.212437  	94.355515 
1974.176861  	94.532960 
1975.141286  	94.512614 
1976.105710  	94.667259 
1977.070135  	94.791480 
1978.034559  	94.463839 
1978.998984  	93.741882 
1979.963408  	93.430928 
1980.927833  	93.495124 
1981.892257  	93.800576 
1982.856682  	93.847746 
1983.821106  	93.823736 
1984.785530  	93.980020 
1985.749955  	94.101441 
1986.714379  	94.182989 
1987.678804  	94.011810 
1988.643228  	93.705329 
1989.607653  	94.076950 
1990.572077  	94.294109 
1991.536502  	93.868135 
1992.500926  	93.457603 
1993.465351  	93.541547 
1994.429775  	93.717494 
1995.394199  	93.999522 
1996.358624  	93.988633 
1997.323048  	93.775061 
1998.287473  	93.778972 
1999.251897  	94.119464 
2000.216322  	94.362934 
2001.180746  	94.618293 
2002.145171  	94.589885 
2003.109595  	94.627188 
2004.074020  	94.805464 
2005.038444  	94.711689 
2006.002868  	94.476245 
2006.967293  	94.397380 
2007.931717  	94.128725 
2008.896142  	94.200117 
2009.860566  	94.265074 
2010.824991  	94.411109 
2011.789415  	94.274889 
2012.753840  	94.130477 
2013.718264  	94.049487 
2014.682689  	94.016871 
2015.647113  	94.070910 
2016.611537  	93.986361 
2017.575962  	93.800687 
2018.540386  	93.872613 
2019.504811  	93.996279 
2020.469235  	94.303267 
2021.433660  	94.492832 
2022.398084  	94.496650 
2023.362509  	94.347491 
2024.326933  	94.419378 
2025.291358  	94.039792 
2026.255782  	93.526224 
2027.220207  	93.599259 
2028.184631  	94.062515 
2029.149055  	94.523529 
2030.113480  	94.550381 
2031.077904  	94.543687 
2032.042329  	94.515276 
2033.006753  	94.178137 
2033.971178  	94.158562 
2034.935602  	94.138866 
2035.900027  	94.201433 
2036.864451  	94.111601 
2037.828876  	94.114014 
2038.793300  	94.082019 
2039.757724  	93.826644 
2040.722149  	93.504518 
2041.686573  	93.237505 
2042.650998  	93.312009 
2043.615422  	93.512425 
2044.579847  	93.743542 
2045.544271  	94.087871 
2046.508696  	94.263687 
2047.473120  	94.195536 
2048.437545  	94.113569 
2049.401969  	94.073016 
2050.366393  	93.703176 
2051.330818  	93.515135 
2052.295242  	93.710713 
2053.259667  	94.003026 
2054.224091  	93.969393 
2055.188516  	93.805911 
2056.152940  	93.754381 
2057.117365  	93.708677 
2058.081789  	93.728810 
2059.046214  	93.669515 
2060.010638  	93.508080 
2060.975062  	93.572608 
2061.939487  	93.830980 
2062.903911  	93.938080 
2063.868336  	93.675028 
2064.832760  	93.420079 
2065.797185  	93.450119 
2066.761609  	93.636437 
2067.726034  	93.779830 
2068.690458  	93.831804 
2069.654883  	93.782996 
2070.619307  	93.774854 
2071.583731  	93.763675 
2072.548156  	93.756290 
2073.512580  	93.666657 
2074.477005  	93.613936 
2075.441429  	93.794728 
2076.405854  	93.796923 
2077.370278  	93.616337 
2078.334703  	93.559638 
2079.299127  	93.564724 
2080.263552  	93.547029 
2081.227976  	93.542837 
2082.192401  	93.585385 
2083.156825  	93.513691 
2084.121249  	93.592220 
2085.085674  	93.765460 
2086.050098  	93.786421 
2087.014523  	93.712082 
2087.978947  	93.612060 
2088.943372  	93.531927 
2089.907796  	93.472959 
2090.872221  	93.595248 
2091.836645  	93.881663 
2092.801070  	93.947164 
2093.765494  	93.974466 
2094.729918  	93.922223 
2095.694343  	93.785789 
2096.658767  	93.591174 
2097.623192  	93.552301 
2098.587616  	93.591232 
2099.552041  	93.733166 
2100.516465  	93.731183 
2101.480890  	93.749030 
2102.445314  	93.696138 
2103.409739  	93.781007 
2104.374163  	93.772732 
2105.338587  	93.741875 
2106.303012  	93.732937 
2107.267436  	93.722573 
2108.231861  	93.695541 
2109.196285  	93.662034 
2110.160710  	93.680610 
2111.125134  	93.753683 
2112.089559  	93.671710 
2113.053983  	93.794303 
2114.018408  	93.801526 
2114.982832  	93.668000 
2115.947256  	93.555724 
2116.911681  	93.669479 
2117.876105  	93.826925 
2118.840530  	93.831374 
2119.804954  	93.811711 
2120.769379  	93.804978 
2121.733803  	93.794488 
2122.698228  	93.940083 
2123.662652  	93.891028 
2124.627077  	93.800346 
2125.591501  	93.902168 
2126.555925  	94.018219 
2127.520350  	93.914035 
2128.484774  	93.967450 
2129.449199  	94.178343 
2130.413623  	94.321540 
2131.378048  	94.247813 
2132.342472  	94.393078 
2133.306897  	94.395174 
2134.271321  	94.270234 
2135.235746  	94.128038 
2136.200170  	93.880034 
2137.164594  	94.092689 
2138.129019  	94.296087 
2139.093443  	94.288732 
2140.057868  	94.236995 
2141.022292  	94.181048 
2141.986717  	94.204362 
2142.951141  	94.096433 
2143.915566  	94.178403 
2144.879990  	94.190677 
2145.844415  	94.290004 
2146.808839  	94.261510 
2147.773264  	94.282281 
2148.737688  	94.156162 
2149.702112  	94.123248 
2150.666537  	94.338873 
2151.630961  	94.502635 
2152.595386  	94.618683 
2153.559810  	94.644047 
2154.524235  	94.671874 
2155.488659  	94.974953 
2156.453084  	95.321632 
2157.417508  	95.472881 
2158.381933  	95.205918 
2159.346357  	94.370774 
2160.310781  	93.434018 
2161.275206  	93.075440 
2162.239630  	93.403214 
2163.204055  	94.098415 
2164.168479  	94.208213 
2165.132904  	93.712874 
2166.097328  	93.592846 
2167.061753  	93.807634 
2168.026177  	93.640341 
2168.990602  	93.409515 
2169.955026  	93.332029 
2170.919450  	93.796891 
2171.883875  	93.933686 
2172.848299  	94.031742 
2173.812724  	93.971997 
2174.777148  	93.976259 
2175.741573  	94.030304 
2176.705997  	93.762234 
2177.670422  	93.581032 
2178.634846  	93.738291 
2179.599271  	93.792234 
2180.563695  	94.029672 
2181.528119  	94.204778 
2182.492544  	93.938351 
2183.456968  	93.694058 
2184.421393  	93.575947 
2185.385817  	93.917610 
2186.350242  	94.141041 
2187.314666  	93.819818 
2188.279091  	93.642179 
2189.243515  	93.579562 
2190.207940  	93.691864 
2191.172364  	93.877642 
2192.136788  	94.090737 
2193.101213  	94.088615 
2194.065637  	93.980657 
2195.030062  	93.621633 
2195.994486  	93.401034 
2196.958911  	93.574154 
2197.923335  	93.833227 
2198.887760  	93.912794 
2199.852184  	93.946894 
2200.816609  	93.855703 
2201.781033  	93.676800 
2202.745458  	93.663754 
2203.709882  	93.869661 
2204.674306  	93.885238 
2205.638731  	93.661573 
2206.603155  	93.690883 
2207.567580  	93.761220 
2208.532004  	93.646269 
2209.496429  	93.755394 
2210.460853  	93.760146 
2211.425278  	93.696111 
2212.389702  	93.624523 
2213.354127  	93.582130 
2214.318551  	93.512676 
2215.282975  	93.392421 
2216.247400  	93.510335 
2217.211824  	93.658003 
2218.176249  	93.680772 
2219.140673  	93.759147 
2220.105098  	93.543332 
2221.069522  	93.530241 
2222.033947  	93.786708 
2222.998371  	93.768513 
2223.962796  	93.617753 
2224.927220  	93.744666 
2225.891644  	93.652597 
2226.856069  	93.579395 
2227.820493  	93.677591 
2228.784918  	93.669178 
2229.749342  	93.595412 
2230.713767  	93.684691 
2231.678191  	93.481837 
2232.642616  	93.445531 
2233.607040  	93.707921 
2234.571465  	93.772348 
2235.535889  	93.642410 
2236.500313  	93.661414 
2237.464738  	93.615349 
2238.429162  	93.520151 
2239.393587  	93.447098 
2240.358011  	93.555861 
2241.322436  	93.764643 
2242.286860  	93.712912 
2243.251285  	93.623671 
2244.215709  	93.642326 
2245.180134  	93.515429 
2246.144558  	93.432754 
2247.108982  	93.653227 
2248.073407  	93.890666 
2249.037831  	93.777913 
2250.002256  	93.617617 
2250.966680  	93.660584 
2251.931105  	93.694801 
2252.895529  	93.663783 
2253.859954  	93.697114 
2254.824378  	93.678223 
2255.788803  	93.629059 
2256.753227  	93.631289 
2257.717651  	93.630954 
2258.682076  	93.502870 
2259.646500  	93.567823 
2260.610925  	93.491248 
2261.575349  	93.484353 
2262.539774  	93.537424 
2263.504198  	93.598888 
2264.468623  	93.606621 
2265.433047  	93.612765 
2266.397472  	93.637656 
2267.361896  	93.611378 
2268.326321  	93.580356 
2269.290745  	93.563300 
2270.255169  	93.561977 
2271.219594  	93.586159 
2272.184018  	93.523099 
2273.148443  	93.446281 
2274.112867  	93.488397 
2275.077292  	93.557127 
2276.041716  	93.462927 
2277.006141  	93.430052 
2277.970565  	93.472769 
2278.934990  	93.475406 
2279.899414  	93.422719 
2280.863838  	93.448360 
2281.828263  	93.444059 
2282.792687  	93.401489 
2283.757112  	93.319327 
2284.721536  	93.294993 
2285.685961  	93.342143 
2286.650385  	93.433755 
2287.614810  	93.414131 
2288.579234  	93.304361 
2289.543659  	93.296052 
2290.508083  	93.385724 
2291.472507  	93.363464 
2292.436932  	93.327919 
2293.401356  	93.291432 
2294.365781  	93.271049 
2295.330205  	93.280855 
2296.294630  	93.285578 
2297.259054  	93.277289 
2298.223479  	93.274910 
2299.187903  	93.287582 
2300.152328  	93.337093 
2301.116752  	93.341844 
2302.081176  	93.356774 
2303.045601  	93.312226 
2304.010025  	93.369785 
2304.974450  	93.298347 
2305.938874  	93.285413 
2306.903299  	93.265153 
2307.867723  	93.320583 
2308.832148  	93.241760 
2309.796572  	93.315306 
2310.760997  	93.390049 
2311.725421  	93.396848 
2312.689845  	93.404256 
2313.654270  	93.487580 
2314.618694  	93.456068 
2315.583119  	93.559126 
2316.547543  	93.569091 
2317.511968  	93.620823 
2318.476392  	93.605076 
2319.440817  	93.603273 
2320.405241  	93.571366 
2321.369666  	93.809291 
2322.334090  	93.857445 
2323.298515  	93.826201 
2324.262939  	93.738016 
2325.227363  	94.041881 
2326.191788  	94.399130 
2327.156212  	94.665540 
2328.120637  	94.643793 
2329.085061  	94.668299 
2330.049486  	94.764894 
2331.013910  	94.800524 
2331.978335  	94.855194 
2332.942759  	95.025248 
2333.907184  	95.057334 
2334.871608  	95.059710 
2335.836032  	95.245077 
2336.800457  	95.499276 
2337.764881  	95.513979 
2338.729306  	95.491051 
2339.693730  	95.396688 
2340.658155  	95.466105 
2341.622579  	95.568819 
2342.587004  	95.509283 
2343.551428  	95.315747 
2344.515853  	95.101802 
2345.480277  	94.928576 
2346.444701  	94.709642 
2347.409126  	94.454594 
2348.373550  	94.117071 
2349.337975  	94.007623 
2350.302399  	94.312783 
2351.266824  	94.654074 
2352.231248  	95.051102 
2353.195673  	95.265106 
2354.160097  	95.399481 
2355.124522  	95.565154 
2356.088946  	95.788997 
2357.053370  	95.879777 
2358.017795  	96.001990 
2358.982219  	96.197225 
2359.946644  	96.451425 
2360.911068  	96.282416 
2361.875493  	96.103063 
2362.839917  	96.078886 
2363.804342  	96.143092 
2364.768766  	96.099062 
2365.733191  	96.075167 
2366.697615  	95.789366 
2367.662039  	95.597120 
2368.626464  	95.412601 
2369.590888  	95.159355 
2370.555313  	94.920272 
2371.519737  	94.697959 
2372.484162  	94.443061 
2373.448586  	94.352892 
2374.413011  	94.209454 
2375.377435  	94.012309 
2376.341860  	93.874756 
2377.306284  	93.791669 
2378.270708  	93.627609 
2379.235133  	93.497708 
2380.199557  	93.497877 
2381.163982  	93.522466 
2382.128406  	93.480082 
2383.092831  	93.481167 
2384.057255  	93.483405 
2385.021680  	93.507061 
2385.986104  	93.527693 
2386.950529  	93.571997 
2387.914953  	93.601500 
2388.879378  	93.603672 
2389.843802  	93.657774 
2390.808226  	93.679683 
2391.772651  	93.646854 
2392.737075  	93.656390 
2393.701500  	93.676665 
2394.665924  	93.677104 
2395.630349  	93.688855 
2396.594773  	93.666778 
2397.559198  	93.632906 
2398.523622  	93.654019 
2399.488047  	93.666339 
2400.452471  	93.658687 
2401.416895  	93.630538 
2402.381320  	93.685370 
2403.345744  	93.725984 
2404.310169  	93.676200 
2405.274593  	93.620417 
2406.239018  	93.595687 
2407.203442  	93.603348 
2408.167867  	93.607448 
2409.132291  	93.605632 
2410.096716  	93.591432 
2411.061140  	93.550957 
2412.025564  	93.543856 
2412.989989  	93.527957 
2413.954413  	93.534503 
2414.918838  	93.557584 
2415.883262  	93.542505 
2416.847687  	93.514447 
2417.812111  	93.542659 
2418.776536  	93.573465 
2419.740960  	93.599262 
2420.705385  	93.613945 
2421.669809  	93.572815 
2422.634233  	93.567571 
2423.598658  	93.603605 
2424.563082  	93.600876 
2425.527507  	93.639534 
2426.491931  	93.582456 
2427.456356  	93.504445 
2428.420780  	93.600451 
2429.385205  	93.608007 
2430.349629  	93.568792 
2431.314054  	93.542369 
2432.278478  	93.574688 
2433.242902  	93.601993 
2434.207327  	93.524696 
2435.171751  	93.544066 
2436.136176  	93.602843 
2437.100600  	93.650224 
2438.065025  	93.595848 
2439.029449  	93.609706 
2439.993874  	93.607409 
2440.958298  	93.571075 
2441.922723  	93.509433 
2442.887147  	93.443551 
2443.851572  	93.485986 
2444.815996  	93.566976 
2445.780420  	93.546806 
2446.744845  	93.490559 
2447.709269  	93.493180 
2448.673694  	93.525002 
2449.638118  	93.481591 
2450.602543  	93.470796 
2451.566967  	93.446696 
2452.531392  	93.436197 
2453.495816  	93.420756 
2454.460241  	93.438747 
2455.424665  	93.414692 
2456.389089  	93.401248 
2457.353514  	93.413186 
2458.317938  	93.459959 
2459.282363  	93.439933 
2460.246787  	93.416988 
2461.211212  	93.404997 
2462.175636  	93.411702 
2463.140061  	93.456312 
2464.104485  	93.494621 
2465.068910  	93.480773 
2466.033334  	93.426551 
2466.997758  	93.410006 
2467.962183  	93.489572 
2468.926607  	93.470173 
2469.891032  	93.448924 
2470.855456  	93.461424 
2471.819881  	93.481014 
2472.784305  	93.476173 
2473.748730  	93.417949 
2474.713154  	93.431921 
2475.677579  	93.479876 
2476.642003  	93.493494 
2477.606427  	93.495621 
2478.570852  	93.453776 
2479.535276  	93.448467 
2480.499701  	93.414994 
2481.464125  	93.400628 
2482.428550  	93.437386 
2483.392974  	93.492443 
2484.357399  	93.512393 
2485.321823  	93.463315 
2486.286248  	93.400314 
2487.250672  	93.418809 
2488.215096  	93.478938 
2489.179521  	93.496473 
2490.143945  	93.462339 
2491.108370  	93.399057 
2492.072794  	93.348110 
2493.037219  	93.365754 
2494.001643  	93.413879 
2494.966068  	93.480216 
2495.930492  	93.522340 
2496.894917  	93.482613 
2497.859341  	93.388535 
2498.823765  	93.359892 
2499.788190  	93.396045 
2500.752614  	93.420770 
2501.717039  	93.402865 
2502.681463  	93.385831 
2503.645888  	93.359959 
2504.610312  	93.348510 
2505.574737  	93.391220 
2506.539161  	93.425265 
2507.503586  	93.428681 
2508.468010  	93.462524 
2509.432435  	93.436732 
2510.396859  	93.431691 
2511.361283  	93.436703 
2512.325708  	93.379051 
2513.290132  	93.366151 
2514.254557  	93.402749 
2515.218981  	93.385569 
2516.183406  	93.410926 
2517.147830  	93.473984 
2518.112255  	93.440948 
2519.076679  	93.409191 
2520.041104  	93.400129 
2521.005528  	93.357034 
2521.969952  	93.296122 
2522.934377  	93.268347 
2523.898801  	93.350957 
2524.863226  	93.437101 
2525.827650  	93.413840 
2526.792075  	93.390165 
2527.756499  	93.320660 
2528.720924  	93.310696 
2529.685348  	93.299538 
2530.649773  	93.342599 
2531.614197  	93.433305 
2532.578621  	93.436048 
2533.543046  	93.390662 
2534.507470  	93.342036 
2535.471895  	93.328736 
2536.436319  	93.304756 
2537.400744  	93.306676 
2538.365168  	93.308491 
2539.329593  	93.331579 
2540.294017  	93.324141 
2541.258442  	93.324935 
2542.222866  	93.317912 
2543.187290  	93.323391 
2544.151715  	93.335706 
2545.116139  	93.308980 
2546.080564  	93.252265 
2547.044988  	93.192953 
2548.009413  	93.170123 
2548.973837  	93.225978 
2549.938262  	93.267391 
2550.902686  	93.269680 
2551.867111  	93.237926 
2552.831535  	93.182818 
2553.795959  	93.152318 
2554.760384  	93.234516 
2555.724808  	93.250324 
2556.689233  	93.197373 
2557.653657  	93.147656 
2558.618082  	93.140747 
2559.582506  	93.197486 
2560.546931  	93.205169 
2561.511355  	93.110936 
2562.475780  	93.124505 
2563.440204  	93.179782 
2564.404629  	93.199743 
2565.369053  	93.177355 
2566.333477  	93.152540 
2567.297902  	93.175768 
2568.262326  	93.204720 
2569.226751  	93.115622 
2570.191175  	93.072685 
2571.155600  	93.098198 
2572.120024  	93.105603 
2573.084449  	93.137351 
2574.048873  	93.095879 
2575.013298  	93.012110 
2575.977722  	93.046578 
2576.942146  	93.105475 
2577.906571  	93.130515 
2578.870995  	93.092467 
2579.835420  	93.048446 
2580.799844  	93.055935 
2581.764269  	93.050897 
2582.728693  	93.097604 
2583.693118  	93.075641 
2584.657542  	93.015101 
2585.621967  	93.058330 
2586.586391  	93.050453 
2587.550815  	93.016694 
2588.515240  	92.955543 
2589.479664  	92.953152 
2590.444089  	93.003324 
2591.408513  	93.039997 
2592.372938  	93.028904 
2593.337362  	92.990588 
2594.301787  	92.934154 
2595.266211  	92.898184 
2596.230636  	92.917259 
2597.195060  	92.999360 
2598.159484  	93.043063 
2599.123909  	93.020299 
2600.088333  	93.005762 
2601.052758  	92.996166 
2602.017182  	92.984117 
2602.981607  	92.992668 
2603.946031  	92.996637 
2604.910456  	92.979327 
2605.874880  	92.948017 
2606.839305  	92.951334 
2607.803729  	92.969991 
2608.768153  	92.963980 
2609.732578  	92.947194 
2610.697002  	92.912368 
2611.661427  	92.897113 
2612.625851  	92.916068 
2613.590276  	92.949126 
2614.554700  	92.961081 
2615.519125  	92.919972 
2616.483549  	92.934988 
2617.447974  	92.927947 
2618.412398  	92.942374 
2619.376822  	92.953376 
2620.341247  	92.953196 
2621.305671  	92.933409 
2622.270096  	92.912660 
2623.234520  	92.905455 
2624.198945  	92.915058 
2625.163369  	92.928954 
2626.127794  	92.910365 
2627.092218  	92.905694 
2628.056643  	92.933408 
2629.021067  	92.919463 
2629.985492  	92.924754 
2630.949916  	92.970953 
2631.914340  	92.961612 
2632.878765  	92.897532 
2633.843189  	92.905363 
2634.807614  	92.909912 
2635.772038  	92.912785 
2636.736463  	92.903900 
2637.700887  	92.907730 
2638.665312  	92.896034 
2639.629736  	92.886514 
2640.594161  	92.888664 
2641.558585  	92.893370 
2642.523009  	92.847034 
2643.487434  	92.851339 
2644.451858  	92.881419 
2645.416283  	92.859953 
2646.380707  	92.846635 
2647.345132  	92.843672 
2648.309556  	92.859916 
2649.273981  	92.850035 
2650.238405  	92.845813 
2651.202830  	92.865564 
2652.167254  	92.845844 
2653.131678  	92.824958 
2654.096103  	92.850211 
2655.060527  	92.871320 
2656.024952  	92.848117 
2656.989376  	92.824766 
2657.953801  	92.781624 
2658.918225  	92.789992 
2659.882650  	92.836383 
2660.847074  	92.860760 
2661.811499  	92.852131 
2662.775923  	92.833677 
2663.740347  	92.856859 
2664.704772  	92.879832 
2665.669196  	92.895684 
2666.633621  	92.898854 
2667.598045  	92.875633 
2668.562470  	92.870848 
2669.526894  	92.869197 
2670.491319  	92.876935 
2671.455743  	92.905744 
2672.420168  	92.916816 
2673.384592  	92.894746 
2674.349016  	92.885019 
2675.313441  	92.890764 
2676.277865  	92.862513 
2677.242290  	92.820756 
2678.206714  	92.819829 
2679.171139  	92.818086 
2680.135563  	92.806689 
2681.099988  	92.819160 
2682.064412  	92.845661 
2683.028837  	92.817341 
2683.993261  	92.785674 
2684.957686  	92.796547 
2685.922110  	92.818883 
2686.886534  	92.785651 
2687.850959  	92.745213 
2688.815383  	92.742363 
2689.779808  	92.767547 
2690.744232  	92.754522 
2691.708657  	92.750784 
2692.673081  	92.763971 
2693.637506  	92.765710 
2694.601930  	92.753942 
2695.566355  	92.744898 
2696.530779  	92.753641 
2697.495203  	92.749917 
2698.459628  	92.743208 
2699.424052  	92.728131 
2700.388477  	92.710052 
2701.352901  	92.707223 
2702.317326  	92.704493 
2703.281750  	92.711532 
2704.246175  	92.725359 
2705.210599  	92.728005 
2706.175024  	92.714510 
2707.139448  	92.700422 
2708.103872  	92.669957 
2709.068297  	92.666605 
2710.032721  	92.674174 
2710.997146  	92.671717 
2711.961570  	92.663363 
2712.925995  	92.677335 
2713.890419  	92.665468 
2714.854844  	92.648423 
2715.819268  	92.652869 
2716.783693  	92.642184 
2717.748117  	92.633466 
2718.712541  	92.633887 
2719.676966  	92.625873 
2720.641390  	92.588663 
2721.605815  	92.585922 
2722.570239  	92.593557 
2723.534664  	92.577373 
2724.499088  	92.532237 
2725.463513  	92.506362 
2726.427937  	92.502193 
2727.392362  	92.484066 
2728.356786  	92.440479 
2729.321210  	92.405912 
2730.285635  	92.407721 
2731.250059  	92.383023 
2732.214484  	92.368810 
2733.178908  	92.354840 
2734.143333  	92.325321 
2735.107757  	92.303063 
2736.072182  	92.305193 
2737.036606  	92.304114 
2738.001031  	92.292069 
2738.965455  	92.252073 
2739.929879  	92.235698 
2740.894304  	92.237493 
2741.858728  	92.222613 
2742.823153  	92.181606 
2743.787577  	92.178266 
2744.752002  	92.176718 
2745.716426  	92.158043 
2746.680851  	92.135723 
2747.645275  	92.129422 
2748.609700  	92.146260 
2749.574124  	92.155315 
2750.538549  	92.148303 
2751.502973  	92.116796 
2752.467397  	92.100064 
2753.431822  	92.088830 
2754.396246  	92.090501 
2755.360671  	92.102944 
2756.325095  	92.111679 
2757.289520  	92.069108 
2758.253944  	92.043538 
2759.218369  	92.054249 
2760.182793  	92.052087 
2761.147218  	92.029445 
2762.111642  	92.015497 
2763.076066  	92.025383 
2764.040491  	92.042903 
2765.004915  	92.021874 
2765.969340  	91.995938 
2766.933764  	91.990658 
2767.898189  	91.953662 
2768.862613  	91.940151 
2769.827038  	91.921504 
2770.791462  	91.906792 
2771.755887  	91.880228 
2772.720311  	91.868135 
2773.684735  	91.859607 
2774.649160  	91.862398 
2775.613584  	91.867561 
2776.578009  	91.891053 
2777.542433  	91.873417 
2778.506858  	91.821563 
2779.471282  	91.786477 
2780.435707  	91.762340 
2781.400131  	91.743040 
2782.364556  	91.788158 
2783.328980  	91.801803 
2784.293404  	91.758794 
2785.257829  	91.745387 
2786.222253  	91.741380 
2787.186678  	91.710474 
2788.151102  	91.670998 
2789.115527  	91.691394 
2790.079951  	91.667304 
2791.044376  	91.624014 
2792.008800  	91.599962 
2792.973225  	91.549869 
2793.937649  	91.518353 
2794.902073  	91.484248 
2795.866498  	91.458910 
2796.830922  	91.435504 
2797.795347  	91.398422 
2798.759771  	91.371652 
2799.724196  	91.349548 
2800.688620  	91.293363 
2801.653045  	91.267672 
2802.617469  	91.245007 
2803.581894  	91.238824 
2804.546318  	91.203873 
2805.510743  	91.172076 
2806.475167  	91.130664 
2807.439591  	91.055719 
2808.404016  	90.989588 
2809.368440  	90.963650 
2810.332865  	90.947136 
2811.297289  	90.874554 
2812.261714  	90.824838 
2813.226138  	90.801117 
2814.190563  	90.746023 
2815.154987  	90.724944 
2816.119412  	90.673664 
2817.083836  	90.589519 
2818.048260  	90.503746 
2819.012685  	90.459884 
2819.977109  	90.446041 
2820.941534  	90.386890 
2821.905958  	90.283311 
2822.870383  	90.167552 
2823.834807  	90.112846 
2824.799232  	90.091862 
2825.763656  	90.051856 
2826.728081  	89.987395 
2827.692505  	89.925559 
2828.656929  	89.902160 
2829.621354  	89.893820 
2830.585778  	89.846469 
2831.550203  	89.738573 
2832.514627  	89.598708 
2833.479052  	89.498416 
2834.443476  	89.450653 
2835.407901  	89.366856 
2836.372325  	89.210143 
2837.336750  	89.038035 
2838.301174  	88.849801 
2839.265598  	88.595654 
2840.230023  	88.308202 
2841.194447  	87.990142 
2842.158872  	87.640951 
2843.123296  	87.242994 
2844.087721  	86.764899 
2845.052145  	86.195773 
2846.016570  	85.563447 
2846.980994  	84.837184 
2847.945419  	84.044489 
2848.909843  	83.264478 
2849.874267  	82.516290 
2850.838692  	81.880517 
2851.803116  	81.381634 
2852.767541  	80.913194 
2853.731965  	80.488248 
2854.696390  	80.094722 
2855.660814  	79.745589 
2856.625239  	79.451158 
2857.589663  	79.270685 
2858.554088  	79.169683 
2859.518512  	79.130026 
2860.482936  	79.177716 
2861.447361  	79.289625 
2862.411785  	79.474387 
2863.376210  	79.700160 
2864.340634  	79.925961 
2865.305059  	80.176614 
2866.269483  	80.444392 
2867.233908  	80.632032 
2868.198332  	80.769253 
2869.162757  	80.905704 
2870.127181  	81.043827 
2871.091606  	81.156018 
2872.056030  	81.281525 
2873.020454  	81.476800 
2873.984879  	81.671950 
2874.949303  	81.827480 
2875.913728  	82.084991 
2876.878152  	82.436416 
2877.842577  	82.764648 
2878.807001  	83.109672 
2879.771426  	83.505727 
2880.735850  	83.851934 
2881.700275  	84.171011 
2882.664699  	84.500551 
2883.629123  	84.773426 
2884.593548  	85.024710 
2885.557972  	85.225073 
2886.522397  	85.344599 
2887.486821  	85.402251 
2888.451246  	85.456188 
2889.415670  	85.473196 
2890.380095  	85.403013 
2891.344519  	85.306435 
2892.308944  	85.206554 
2893.273368  	85.062797 
2894.237792  	84.907548 
2895.202217  	84.676132 
2896.166641  	84.423356 
2897.131066  	84.149123 
2898.095490  	83.889693 
2899.059915  	83.606180 
2900.024339  	83.265087 
2900.988764  	82.935315 
2901.953188  	82.604920 
2902.917613  	82.261300 
2903.882037  	81.900271 
2904.846461  	81.579119 
2905.810886  	81.275836 
2906.775310  	80.962147 
2907.739735  	80.625082 
2908.704159  	80.295265 
2909.668584  	80.013556 
2910.633008  	79.722790 
2911.597433  	79.391029 
2912.561857  	79.043605 
2913.526282  	78.685573 
2914.490706  	78.270264 
2915.455130  	77.783941 
2916.419555  	77.335824 
2917.383979  	76.906933 
2918.348404  	76.490823 
2919.312828  	76.154680 
2920.277253  	75.829339 
2921.241677  	75.491742 
2922.206102  	75.176561 
2923.170526  	74.891481 
2924.134951  	74.639980 
2925.099375  	74.347803 
2926.063800  	74.036603 
2927.028224  	73.758557 
2927.992648  	73.473993 
2928.957073  	73.188782 
2929.921497  	72.937419 
2930.885922  	72.744098 
2931.850346  	72.607398 
2932.814771  	72.553049 
2933.779195  	72.575031 
2934.743620  	72.731598 
2935.708044  	72.946979 
2936.672469  	73.254389 
2937.636893  	73.699090 
2938.601317  	74.192083 
2939.565742  	74.710115 
2940.530166  	75.246937 
2941.494591  	75.783041 
2942.459015  	76.291990 
2943.423440  	76.794442 
2944.387864  	77.314148 
2945.352289  	77.791599 
2946.316713  	78.316373 
2947.281138  	78.949732 
2948.245562  	79.658601 
2949.209986  	80.335694 
2950.174411  	81.010644 
2951.138835  	81.751228 
2952.103260  	82.454644 
2953.067684  	83.101115 
2954.032109  	83.697060 
2954.996533  	84.264778 
2955.960958  	84.781328 
2956.925382  	85.250799 
2957.889807  	85.697487 
2958.854231  	86.061845 
2959.818655  	86.423879 
2960.783080  	86.798213 
2961.747504  	87.108066 
2962.711929  	87.407651 
2963.676353  	87.656864 
2964.640778  	87.845776 
2965.605202  	88.050199 
2966.569627  	88.270531 
2967.534051  	88.563266 
2968.498476  	88.864663 
2969.462900  	89.121010 
2970.427324  	89.400396 
2971.391749  	89.628344 
2972.356173  	89.802564 
2973.320598  	90.032146 
2974.285022  	90.217870 
2975.249447  	90.377397 
2976.213871  	90.546125 
2977.178296  	90.669683 
2978.142720  	90.809286 
2979.107145  	90.987137 
2980.071569  	91.168691 
2981.035993  	91.276379 
2982.000418  	91.362059 
2982.964842  	91.486155 
2983.929267  	91.566015 
2984.893691  	91.619239 
2985.858116  	91.687016 
2986.822540  	91.777369 
2987.786965  	91.816724 
2988.751389  	91.847341 
2989.715814  	91.916883 
2990.680238  	92.011144 
2991.644663  	92.038487 
2992.609087  	92.043013 
2993.573511  	92.087216 
2994.537936  	92.121194 
2995.502360  	92.170180 
2996.466785  	92.165305 
2997.431209  	92.164614 
2998.395634  	92.202720 
2999.360058  	92.215767 
3000.324483  	92.234055 
3001.288907  	92.230552 
3002.253332  	92.225012 
3003.217756  	92.209837 
3004.182180  	92.157214 
3005.146605  	92.142100 
3006.111029  	92.193799 
3007.075454  	92.223414 
3008.039878  	92.235773 
3009.004303  	92.249244 
3009.968727  	92.207181 
3010.933152  	92.146946 
3011.897576  	92.111109 
3012.862001  	92.033897 
3013.826425  	92.099873 
3014.790849  	92.153395 
3015.755274  	92.117289 
3016.719698  	92.100802 
3017.684123  	92.112017 
3018.648547  	92.076167 
3019.612972  	92.029159 
3020.577396  	91.997663 
3021.541821  	91.953810 
3022.506245  	91.887092 
3023.470670  	91.831000 
3024.435094  	91.807087 
3025.399518  	91.776681 
3026.363943  	91.744227 
3027.328367  	91.738037 
3028.292792  	91.701850 
3029.257216  	91.657006 
3030.221641  	91.564187 
3031.186065  	91.417531 
3032.150490  	91.306940 
3033.114914  	91.349978 
3034.079339  	91.369433 
3035.043763  	91.337569 
3036.008187  	91.278084 
3036.972612  	91.183861 
3037.937036  	91.073617 
3038.901461  	90.997098 
3039.865885  	90.958847 
3040.830310  	90.938848 
3041.794734  	90.865236 
3042.759159  	90.758841 
3043.723583  	90.649303 
3044.688008  	90.563932 
3045.652432  	90.493006 
3046.616857  	90.385326 
3047.581281  	90.257485 
3048.545705  	90.087142 
3049.510130  	89.981655 
3050.474554  	89.922131 
3051.438979  	89.790587 
3052.403403  	89.677174 
3053.367828  	89.569596 
3054.332252  	89.484099 
3055.296677  	89.408407 
3056.261101  	89.245179 
3057.225526  	89.143223 
3058.189950  	89.137392 
3059.154374  	89.079318 
3060.118799  	89.030355 
3061.083223  	89.014163 
3062.047648  	89.024322 
3063.012072  	88.978117 
3063.976497  	88.876140 
3064.940921  	88.814805 
3065.905346  	88.903586 
3066.869770  	88.920875 
3067.834195  	88.879296 
3068.798619  	88.876840 
3069.763043  	88.886648 
3070.727468  	88.913409 
3071.691892  	88.912266 
3072.656317  	88.880620 
3073.620741  	88.867918 
3074.585166  	88.909639 
3075.549590  	88.938140 
3076.514015  	88.941586 
3077.478439  	88.933868 
3078.442864  	88.955382 
3079.407288  	88.963893 
3080.371712  	88.945950 
3081.336137  	88.957262 
3082.300561  	88.933600 
3083.264986  	89.007928 
3084.229410  	89.099178 
3085.193835  	89.097861 
3086.158259  	89.096518 
3087.122684  	89.119944 
3088.087108  	89.140269 
3089.051533  	89.217040 
3090.015957  	89.261019 
3090.980381  	89.296118 
3091.944806  	89.348502 
3092.909230  	89.415331 
3093.873655  	89.440856 
3094.838079  	89.454251 
3095.802504  	89.460350 
3096.766928  	89.534678 
3097.731353  	89.623082 
3098.695777  	89.713794 
3099.660202  	89.804733 
3100.624626  	89.840532 
3101.589050  	89.845436 
3102.553475  	89.894276 
3103.517899  	89.962831 
3104.482324  	90.056893 
3105.446748  	90.110112 
3106.411173  	90.138430 
3107.375597  	90.234072 
3108.340022  	90.355506 
3109.304446  	90.445141 
3110.268871  	90.442757 
3111.233295  	90.389094 
3112.197720  	90.402401 
3113.162144  	90.475470 
3114.126568  	90.577668 
3115.090993  	90.598794 
3116.055417  	90.605139 
3117.019842  	90.697841 
3117.984266  	90.741939 
3118.948691  	90.709895 
3119.913115  	90.822628 
3120.877540  	90.885484 
3121.841964  	90.814262 
3122.806389  	90.744632 
3123.770813  	90.812905 
3124.735237  	90.879811 
3125.699662  	90.846741 
3126.664086  	90.785249 
3127.628511  	90.840342 
3128.592935  	90.911371 
3129.557360  	90.922788 
3130.521784  	90.928323 
3131.486209  	90.983943 
3132.450633  	90.942730 
3133.415058  	90.851610 
3134.379482  	90.897160 
3135.343906  	90.947577 
3136.308331  	90.943077 
3137.272755  	90.948858 
3138.237180  	90.946645 
3139.201604  	90.966219 
3140.166029  	90.937106 
3141.130453  	90.963419 
3142.094878  	90.916777 
3143.059302  	90.809562 
3144.023727  	90.788028 
3144.988151  	90.806151 
3145.952575  	90.759142 
3146.917000  	90.697880 
3147.881424  	90.687893 
3148.845849  	90.723413 
3149.810273  	90.677880 
3150.774698  	90.653234 
3151.739122  	90.642387 
3152.703547  	90.602337 
3153.667971  	90.571765 
3154.632396  	90.590998 
3155.596820  	90.510235 
3156.561244  	90.384869 
3157.525669  	90.369018 
3158.490093  	90.360251 
3159.454518  	90.322860 
3160.418942  	90.240968 
3161.383367  	90.126117 
3162.347791  	90.080802 
3163.312216  	90.040515 
3164.276640  	90.014107 
3165.241065  	89.999337 
3166.205489  	89.954460 
3167.169914  	89.858126 
3168.134338  	89.762352 
3169.098762  	89.658221 
3170.063187  	89.557883 
3171.027611  	89.511763 
3171.992036  	89.491448 
3172.956460  	89.395855 
3173.920885  	89.314729 
3174.885309  	89.277493 
3175.849734  	89.231307 
3176.814158  	89.133668 
3177.778583  	89.002222 
3178.743007  	88.913875 
3179.707431  	88.881362 
3180.671856  	88.887678 
3181.636280  	88.904015 
3182.600705  	88.846246 
3183.565129  	88.752310 
3184.529554  	88.636244 
3185.493978  	88.544664 
3186.458403  	88.496806 
3187.422827  	88.474227 
3188.387252  	88.433532 
3189.351676  	88.386669 
3190.316100  	88.332035 
3191.280525  	88.262794 
3192.244949  	88.213523 
3193.209374  	88.203933 
3194.173798  	88.141480 
3195.138223  	88.077530 
3196.102647  	87.997198 
3197.067072  	87.912215 
3198.031496  	87.831649 
3198.995921  	87.850275 
3199.960345  	87.853259 
3200.924769  	87.839922 
3201.889194  	87.796857 
3202.853618  	87.796894 
3203.818043  	87.729233 
3204.782467  	87.648875 
3205.746892  	87.582270 
3206.711316  	87.497346 
3207.675741  	87.474817 
3208.640165  	87.427660 
3209.604590  	87.347970 
3210.569014  	87.301061 
3211.533438  	87.290544 
3212.497863  	87.252287 
3213.462287  	87.170218 
3214.426712  	87.084790 
3215.391136  	87.027877 
3216.355561  	87.008138 
3217.319985  	86.969653 
3218.284410  	86.871776 
3219.248834  	86.783024 
3220.213259  	86.812174 
3221.177683  	86.792809 
3222.142107  	86.661584 
3223.106532  	86.560066 
3224.070956  	86.513906 
3225.035381  	86.409349 
3225.999805  	86.278973 
3226.964230  	86.142198 
3227.928654  	86.067531 
3228.893079  	86.019436 
3229.857503  	85.886717 
3230.821928  	85.727082 
3231.786352  	85.617845 
3232.750777  	85.503407 
3233.715201  	85.352264 
3234.679625  	85.199791 
3235.644050  	85.091685 
3236.608474  	84.942546 
3237.572899  	84.784040 
3238.537323  	84.625174 
3239.501748  	84.394844 
3240.466172  	84.236986 
3241.430597  	84.141805 
3242.395021  	83.926889 
3243.359446  	83.697123 
3244.323870  	83.490497 
3245.288294  	83.280877 
3246.252719  	83.119401 
3247.217143  	83.010874 
3248.181568  	82.841332 
3249.145992  	82.613305 
3250.110417  	82.399854 
3251.074841  	82.179415 
3252.039266  	81.893316 
3253.003690  	81.631745 
3253.968115  	81.342777 
3254.932539  	81.161772 
3255.896963  	81.012892 
3256.861388  	80.792437 
3257.825812  	80.557954 
3258.790237  	80.211181 
3259.754661  	79.912765 
3260.719086  	79.687684 
3261.683510  	79.463069 
3262.647935  	79.207008 
3263.612359  	78.900437 
3264.576784  	78.653655 
3265.541208  	78.331236 
3266.505632  	78.030895 
3267.470057  	77.830472 
3268.434481  	77.622626 
3269.398906  	77.343884 
3270.363330  	77.056453 
3271.327755  	76.721961 
3272.292179  	76.384498 
3273.256604  	75.952594 
3274.221028  	75.668715 
3275.185453  	75.486599 
3276.149877  	75.170159 
3277.114301  	74.849344 
3278.078726  	74.465648 
3279.043150  	74.032311 
3280.007575  	73.683241 
3280.971999  	73.365795 
3281.936424  	73.044975 
3282.900848  	72.609601 
3283.865273  	72.181129 
3284.829697  	71.806494 
3285.794122  	71.444168 
3286.758546  	71.092148 
3287.722971  	70.718603 
3288.687395  	70.394763 
3289.651819  	70.206777 
3290.616244  	69.925364 
3291.580668  	69.638509 
3292.545093  	69.412345 
3293.509517  	69.285466 
3294.473942  	69.262981 
3295.438366  	69.228920 
3296.402791  	69.155886 
3297.367215  	69.191510 
3298.331640  	69.293888 
3299.296064  	69.454813 
3300.260488  	69.654232 
3301.224913  	69.877822 
3302.189337  	70.233240 
3303.153762  	70.604510 
3304.118186  	70.919852 
3305.082611  	71.389307 
3306.047035  	71.898977 
3307.011460  	72.482897 
3307.975884  	73.020184 
3308.940309  	73.561885 
3309.904733  	74.235129 
3310.869157  	74.829426 
3311.833582  	75.416386 
3312.798006  	76.042825 
3313.762431  	76.681165 
3314.726855  	77.340030 
3315.691280  	77.957905 
3316.655704  	78.554876 
3317.620129  	79.078541 
3318.584553  	79.637049 
3319.548978  	80.176633 
3320.513402  	80.658940 
3321.477826  	81.151688 
3322.442251  	81.662596 
3323.406675  	82.101555 
3324.371100  	82.514777 
3325.335524  	82.912745 
3326.299949  	83.270461 
3327.264373  	83.539869 
3328.228798  	83.852911 
3329.193222  	84.160146 
3330.157647  	84.464155 
3331.122071  	84.776702 
3332.086495  	85.079617 
3333.050920  	85.322735 
3334.015344  	85.521444 
3334.979769  	85.715969 
3335.944193  	86.001561 
3336.908618  	86.168774 
3337.873042  	86.381485 
3338.837467  	86.599609 
3339.801891  	86.826338 
3340.766316  	87.078476 
3341.730740  	87.242410 
3342.695164  	87.334336 
3343.659589  	87.519978 
3344.624013  	87.761583 
3345.588438  	87.897062 
3346.552862  	87.985688 
3347.517287  	88.117758 
3348.481711  	88.226159 
3349.446136  	88.316376 
3350.410560  	88.429488 
3351.374985  	88.602109 
3352.339409  	88.743857 
3353.303834  	88.819462 
3354.268258  	88.929319 
3355.232682  	89.004357 
3356.197107  	88.965513 
3357.161531  	89.076937 
3358.125956  	89.219782 
3359.090380  	89.315050 
3360.054805  	89.326249 
3361.019229  	89.369426 
3361.983654  	89.435728 
3362.948078  	89.551819 
3363.912503  	89.557170 
3364.876927  	89.504090 
3365.841351  	89.620188 
3366.805776  	89.748449 
3367.770200  	89.719785 
3368.734625  	89.775353 
3369.699049  	89.904205 
3370.663474  	89.972586 
3371.627898  	90.040733 
3372.592323  	90.070592 
3373.556747  	90.090029 
3374.521172  	90.150087 
3375.485596  	90.172891 
3376.450020  	90.187360 
3377.414445  	90.237838 
3378.378869  	90.391408 
3379.343294  	90.468349 
3380.307718  	90.445830 
3381.272143  	90.517613 
3382.236567  	90.541618 
3383.200992  	90.524820 
3384.165416  	90.450730 
3385.129841  	90.442770 
3386.094265  	90.560591 
3387.058689  	90.643163 
3388.023114  	90.744741 
3388.987538  	90.754509 
3389.951963  	90.694435 
3390.916387  	90.633201 
3391.880812  	90.616855 
3392.845236  	90.550361 
3393.809661  	90.692902 
3394.774085  	90.805598 
3395.738510  	90.807185 
3396.702934  	90.825192 
3397.667358  	90.758993 
3398.631783  	90.816010 
3399.596207  	90.982691 
3400.560632  	90.938855 
3401.525056  	90.858959 
3402.489481  	90.945262 
3403.453905  	90.975223 
3404.418330  	91.032995 
3405.382754  	91.064822 
3406.347179  	91.060491 
3407.311603  	91.066188 
3408.276028  	91.075327 
3409.240452  	91.026764 
3410.204876  	90.978198 
3411.169301  	91.013154 
3412.133725  	91.059053 
3413.098150  	91.141845 
3414.062574  	91.129939 
3415.026999  	91.132900 
3415.991423  	91.136195 
3416.955848  	91.150435 
3417.920272  	91.125997 
3418.884697  	91.130848 
3419.849121  	91.009093 
3420.813545  	90.820726 
3421.777970  	90.854916 
3422.742394  	91.028822 
3423.706819  	91.229601 
3424.671243  	91.313253 
3425.635668  	91.263592 
3426.600092  	91.233946 
3427.564517  	91.218375 
3428.528941  	91.248043 
3429.493366  	91.284590 
3430.457790  	91.263644 
3431.422214  	91.242588 
3432.386639  	91.320890 
3433.351063  	91.331490 
3434.315488  	91.330998 
3435.279912  	91.316911 
3436.244337  	91.336913 
3437.208761  	91.328233 
3438.173186  	91.339591 
3439.137610  	91.326245 
3440.102035  	91.329615 
3441.066459  	91.345885 
3442.030883  	91.310013 
3442.995308  	91.138485 
3443.959732  	91.224671 
3444.924157  	91.335881 
3445.888581  	91.389828 
3446.853006  	91.073459 
3447.817430  	90.793540 
3448.781855  	91.217341 
3449.746279  	91.462044 
3450.710704  	91.483972 
3451.675128  	91.541599 
3452.639552  	91.563421 
3453.603977  	91.568265 
3454.568401  	91.553289 
3455.532826  	91.567243 
3456.497250  	91.553989 
3457.461675  	91.547462 
3458.426099  	91.523747 
3459.390524  	91.585400 
3460.354948  	91.616020 
3461.319373  	91.445719 
3462.283797  	91.417809 
3463.248221  	91.509788 
3464.212646  	91.616854 
3465.177070  	91.647550 
3466.141495  	91.593485 
3467.105919  	91.437403 
3468.070344  	91.560738 
3469.034768  	91.748649 
3469.999193  	91.716115 
3470.963617  	91.654150 
3471.928042  	91.702026 
3472.892466  	91.790420 
3473.856891  	91.791785 
3474.821315  	91.652201 
3475.785739  	91.660484 
3476.750164  	91.763842 
3477.714588  	91.848610 
3478.679013  	91.869404 
3479.643437  	91.758303 
3480.607862  	91.510988 
3481.572286  	91.381446 
3482.536711  	91.276303 
3483.501135  	91.489311 
3484.465560  	91.720917 
3485.429984  	91.747351 
3486.394408  	91.791699 
3487.358833  	91.764174 
3488.323257  	91.568399 
3489.287682  	91.610382 
3490.252106  	91.807263 
3491.216531  	91.827700 
3492.180955  	91.877799 
3493.145380  	91.927796 
3494.109804  	92.006461 
3495.074229  	91.959485 
3496.038653  	91.778833 
3497.003077  	91.692171 
3497.967502  	91.888943 
3498.931926  	91.983972 
3499.896351  	91.879933 
3500.860775  	91.825994 
3501.825200  	91.585666 
3502.789624  	91.276002 
3503.754049  	91.284426 
3504.718473  	91.568765 
3505.682898  	91.780733 
3506.647322  	92.013971 
3507.611746  	92.185830 
3508.576171  	91.995071 
3509.540595  	91.527432 
3510.505020  	91.654402 
3511.469444  	92.016690 
3512.433869  	92.090376 
3513.398293  	92.103507 
3514.362718  	92.227809 
3515.327142  	92.388419 
3516.291567  	92.333065 
3517.255991  	92.229086 
3518.220415  	92.250774 
3519.184840  	92.279564 
3520.149264  	92.304970 
3521.113689  	92.462028 
3522.078113  	92.346388 
3523.042538  	91.715246 
3524.006962  	91.455098 
3524.971387  	91.841765 
3525.935811  	92.023738 
3526.900236  	92.001402 
3527.864660  	91.839219 
3528.829085  	91.839745 
3529.793509  	92.056250 
3530.757933  	92.370763 
3531.722358  	92.425721 
3532.686782  	92.651692 
3533.651207  	92.815384 
3534.615631  	92.839395 
3535.580056  	92.603637 
3536.544480  	92.093056 
3537.508905  	92.231318 
3538.473329  	92.717987 
3539.437754  	92.786242 
3540.402178  	92.838175 
3541.366602  	92.880292 
3542.331027  	92.929852 
3543.295451  	92.753409 
3544.259876  	92.496217 
3545.224300  	91.913226 
3546.188725  	91.673678 
3547.153149  	91.731855 
3548.117574  	92.192365 
3549.081998  	92.834898 
3550.046423  	92.993527 
3551.010847  	92.900015 
3551.975271  	92.505107 
3552.939696  	92.300764 
3553.904120  	92.582664 
3554.868545  	92.918715 
3555.832969  	93.250215 
3556.797394  	93.203694 
3557.761818  	93.185853 
3558.726243  	93.263860 
3559.690667  	92.992072 
3560.655092  	92.589001 
3561.619516  	92.871984 
3562.583940  	92.924231 
3563.548365  	92.839197 
3564.512789  	92.755490 
3565.477214  	92.173791 
3566.441638  	90.516360 
3567.406063  	90.445538 
3568.370487  	90.881186 
3569.334912  	92.083194 
3570.299336  	92.997393 
3571.263761  	93.162799 
3572.228185  	93.428225 
3573.192609  	93.476650 
3574.157034  	93.392706 
3575.121458  	93.349747 
3576.085883  	93.404195 
3577.050307  	93.298377 
3578.014732  	93.302509 
3578.979156  	93.406218 
3579.943581  	93.105183 
3580.908005  	93.073425 
3581.872430  	93.478938 
3582.836854  	93.582037 
3583.801278  	93.491631 
3584.765703  	93.465484 
3585.730127  	93.163521 
3586.694552  	91.970549 
3587.658976  	91.207258 
3588.623401  	91.412284 
3589.587825  	92.237761 
3590.552250  	93.344358 
3591.516674  	93.665208 
3592.481099  	93.586171 
3593.445523  	93.095024 
3594.409948  	93.142343 
3595.374372  	92.821594 
3596.338796  	92.687657 
3597.303221  	93.372788 
3598.267645  	93.478940 
3599.232070  	93.215935 
3600.196494  	93.249695 
3601.160919  	93.072249 
3602.125343  	93.353420 
3603.089768  	93.580542 
3604.054192  	93.850187 
3605.018617  	93.976057 
3605.983041  	93.815908 
3606.947465  	92.954491 
3607.911890  	92.489546 
3608.876314  	92.832755 
3609.840739  	92.686819 
3610.805163  	93.374416 
3611.769588  	93.438289 
3612.734012  	92.480469 
3613.698437  	92.485294 
3614.662861  	92.764306 
3615.627286  	92.859033 
3616.591710  	93.566800 
3617.556134  	93.105804 
3618.520559  	92.392185 
3619.484983  	92.460230 
3620.449408  	92.508737 
3621.413832  	93.060141 
3622.378257  	93.602380 
3623.342681  	94.005269 
3624.307106  	94.195499 
3625.271530  	94.161067 
3626.235955  	93.728764 
3627.200379  	93.448022 
3628.164803  	92.623564 
3629.129228  	90.433488 
3630.093652  	91.133198 
3631.058077  	93.133534 
3632.022501  	93.870509 
3632.986926  	93.891025 
3633.951350  	93.331968 
3634.915775  	93.611637 
3635.880199  	94.160583 
3636.844624  	94.282099 
3637.809048  	94.129107 
3638.773472  	94.083022 
3639.737897  	94.259671 
3640.702321  	94.301205 
3641.666746  	94.107244 
3642.631170  	93.775913 
3643.595595  	93.945913 
3644.560019  	94.280372 
3645.524444  	94.023194 
3646.488868  	93.139907 
3647.453293  	91.698572 
3648.417717  	91.712266 
3649.382142  	91.594530 
3650.346566  	90.884169 
3651.310990  	91.148411 
3652.275415  	92.894297 
3653.239839  	93.989561 
3654.204264  	94.243104 
3655.168688  	94.105859 
3656.133113  	93.383676 
3657.097537  	93.176942 
3658.061962  	94.120251 
3659.026386  	94.347288 
3659.990811  	94.229995 
3660.955235  	94.292050 
3661.919659  	94.471541 
3662.884084  	94.532127 
3663.848508  	94.573121 
3664.812933  	94.536843 
3665.777357  	94.564430 
3666.741782  	94.599568 
3667.706206  	94.489632 
3668.670631  	93.649999 
3669.635055  	92.701555 
3670.599480  	92.320603 
3671.563904  	92.729098 
3672.528328  	93.869962 
3673.492753  	94.078781 
3674.457177  	93.050152 
3675.421602  	90.723033 
3676.386026  	91.219543 
3677.350451  	92.814871 
3678.314875  	93.476207 
3679.279300  	93.485091 
3680.243724  	93.474394 
3681.208149  	94.211768 
3682.172573  	94.611525 
3683.136997  	94.639887 
3684.101422  	94.466720 
3685.065846  	94.377706 
3686.030271  	94.500956 
3686.994695  	94.384035 
3687.959120  	93.756457 
3688.923544  	92.767472 
3689.887969  	93.119914 
3690.852393  	92.825585 
3691.816818  	92.714402 
3692.781242  	93.982435 
3693.745666  	94.411223 
3694.710091  	94.518149 
3695.674515  	94.596442 
3696.638940  	94.524289 
3697.603364  	94.617257 
3698.567789  	94.778111 
3699.532213  	94.637045 
3700.496638  	94.594660 
3701.461062  	94.036721 
3702.425487  	93.558657 
3703.389911  	94.333612 
3704.354335  	94.733049 
3705.318760  	94.646627 
3706.283184  	94.595777 
3707.247609  	94.657088 
3708.212033  	94.616331 
3709.176458  	94.062730 
3710.140882  	93.463390 
3711.105307  	93.282966 
3712.069731  	92.458340 
3713.034156  	92.452071 
3713.998580  	93.709278 
3714.963005  	93.896082 
3715.927429  	94.124828 
3716.891853  	94.595898 
3717.856278  	94.683038 
3718.820702  	94.149282 
3719.785127  	93.920523 
3720.749551  	94.458874 
3721.713976  	94.145921 
3722.678400  	93.051951 
3723.642825  	93.602181 
3724.607249  	93.947570 
3725.571674  	93.351034 
3726.536098  	93.095418 
3727.500522  	93.351495 
3728.464947  	94.187635 
3729.429371  	94.642490 
3730.393796  	94.507963 
3731.358220  	94.154597 
3732.322645  	93.478195 
3733.287069  	93.539737 
3734.251494  	93.161915 
3735.215918  	90.720828 
3736.180343  	90.780458 
3737.144767  	92.136927 
3738.109191  	92.947376 
3739.073616  	93.299381 
3740.038040  	93.834369 
3741.002465  	93.682055 
3741.966889  	93.662733 
3742.931314  	94.024071 
3743.895738  	93.279535 
3744.860163  	90.599272 
3745.824587  	92.319494 
3746.789012  	93.302371 
3747.753436  	93.377894 
3748.717860  	93.209064 
3749.682285  	92.615013 
3750.646709  	92.401655 
3751.611134  	92.325313 
3752.575558  	91.374976 
3753.539983  	92.625429 
3754.504407  	93.645256 
3755.468832  	94.131455 
3756.433256  	93.916170 
3757.397681  	93.764404 
3758.362105  	93.968884 
3759.326529  	93.274340 
3760.290954  	92.918614 
3761.255378  	94.131898 
3762.219803  	94.495247 
3763.184227  	94.495230 
3764.148652  	94.487387 
3765.113076  	94.135453 
3766.077501  	93.484497 
3767.041925  	94.046639 
3768.006350  	94.509632 
3768.970774  	94.276010 
3769.935199  	93.429285 
3770.899623  	93.549182 
3771.864047  	94.271348 
3772.828472  	94.564593 
3773.792896  	94.701348 
3774.757321  	94.783764 
3775.721745  	94.841920 
3776.686170  	94.866604 
3777.650594  	94.766653 
3778.615019  	94.414371 
3779.579443  	93.729397 
3780.543868  	93.846187 
3781.508292  	94.539747 
3782.472716  	94.630465 
3783.437141  	94.631982 
3784.401565  	94.347587 
3785.365990  	93.987182 
3786.330414  	94.257669 
3787.294839  	94.552130 
3788.259263  	94.688158 
3789.223688  	94.727249 
3790.188112  	94.764939 
3791.152537  	94.860571 
3792.116961  	94.885783 
3793.081385  	94.868188 
3794.045810  	94.845590 
3795.010234  	94.710233 
3795.974659  	94.271976 
3796.939083  	93.585301 
3797.903508  	93.809936 
3798.867932  	94.272477 
3799.832357  	94.284356 
3800.796781  	93.445714 
3801.761206  	92.308991 
3802.725630  	92.785212 
3803.690054  	93.667267 
3804.654479  	94.386370 
3805.618903  	94.430950 
3806.583328  	93.835304 
3807.547752  	93.268834 
3808.512177  	94.141310 
3809.476601  	94.533697 
3810.441026  	94.590257 
3811.405450  	94.701419 
3812.369875  	94.790974 
3813.334299  	94.778719 
3814.298723  	94.617804 
3815.263148  	94.127109 
3816.227572  	93.012193 
3817.191997  	93.297196 
3818.156421  	94.084653 
3819.120846  	94.008143 
3820.085270  	93.393873 
3821.049695  	92.101247 
3822.014119  	91.999297 
3822.978544  	93.462406 
3823.942968  	94.041969 
3824.907392  	94.232665 
3825.871817  	94.191776 
3826.836241  	93.739055 
3827.800666  	93.819395 
3828.765090  	94.359244 
3829.729515  	94.581540 
3830.693939  	94.477771 
3831.658364  	93.857726 
3832.622788  	93.834579 
3833.587213  	94.410985 
3834.551637  	94.138054 
3835.516062  	93.503802 
3836.480486  	93.897787 
3837.444910  	93.605979 
3838.409335  	92.570669 
3839.373759  	93.025890 
3840.338184  	92.714316 
3841.302608  	92.731740 
3842.267033  	93.774299 
3843.231457  	93.886452 
3844.195882  	93.327416 
3845.160306  	94.036623 
3846.124731  	94.537826 
3847.089155  	94.616816 
3848.053579  	94.640619 
3849.018004  	94.468213 
3849.982428  	94.058242 
3850.946853  	94.017733 
3851.911277  	93.324191 
3852.875702  	91.910504 
3853.840126  	91.428601 
3854.804551  	91.764455 
3855.768975  	93.388941 
3856.733400  	93.587815 
3857.697824  	93.238166 
3858.662248  	94.052539 
3859.626673  	94.612518 
3860.591097  	94.616748 
3861.555522  	94.093348 
3862.519946  	93.574857 
3863.484371  	93.825901 
3864.448795  	93.270891 
3865.413220  	92.466864 
3866.377644  	93.645192 
3867.342069  	94.471155 
3868.306493  	94.363271 
3869.270917  	93.324870 
3870.235342  	91.786932 
3871.199766  	92.819155 
3872.164191  	93.886914 
3873.128615  	94.136923 
3874.093040  	93.062425 
3875.057464  	93.020516 
3876.021889  	94.406025 
3876.986313  	94.771506 
3877.950738  	94.785453 
3878.915162  	94.632415 
3879.879586  	93.831098 
3880.844011  	92.416778 
3881.808435  	93.396587 
3882.772860  	94.226080 
3883.737284  	93.979457 
3884.701709  	93.874562 
3885.666133  	93.223572 
3886.630558  	92.934730 
3887.594982  	94.202921 
3888.559407  	94.622118 
3889.523831  	94.555576 
3890.488256  	94.168702 
3891.452680  	93.235690 
3892.417104  	93.251038 
3893.381529  	94.075018 
3894.345953  	94.075436 
3895.310378  	94.285662 
3896.274802  	94.657757 
3897.239227  	94.686354 
3898.203651  	94.146723 
3899.168076  	93.289557 
3900.132500  	93.214616 
3901.096925  	93.825873 
3902.061349  	92.868451 
3903.025773  	92.796101 
3903.990198  	93.175656 
3904.954622  	92.808429 
3905.919047  	93.056772 
3906.883471  	93.726828 
3907.847896  	94.508202 
3908.812320  	94.752649 
3909.776745  	94.816489 
3910.741169  	94.839246 
3911.705594  	94.782092 
3912.670018  	94.733014 
3913.634442  	94.705943 
3914.598867  	94.737946 
3915.563291  	94.648365 
3916.527716  	93.980311 
3917.492140  	93.344675 
3918.456565  	94.003044 
3919.420989  	94.268376 
3920.385414  	93.722332 
3921.349838  	94.126855 
3922.314263  	94.708787 
3923.278687  	94.448095 
3924.243111  	93.744395 
3925.207536  	93.374673 
3926.171960  	94.025985 
3927.136385  	94.718469 
3928.100809  	94.748547 
3929.065234  	94.537512 
3930.029658  	94.286003 
3930.994083  	94.111387 
3931.958507  	93.763360 
3932.922932  	93.467783 
3933.887356  	94.068291 
3934.851780  	94.400940 
3935.816205  	94.664888 
3936.780629  	94.798918 
3937.745054  	94.746672 
3938.709478  	94.602163 
3939.673903  	94.707704 
3940.638327  	94.741649 
3941.602752  	94.587678 
3942.567176  	93.917133 
3943.531601  	93.606942 
3944.496025  	94.241645 
3945.460449  	94.591453 
3946.424874  	94.667702 
3947.389298  	94.213548 
3948.353723  	93.896223 
3949.318147  	94.091673 
3950.282572  	93.880911 
3951.246996  	94.228486 
3952.211421  	94.720600 
3953.175845  	94.637228 
3954.140270  	94.691774 
3955.104694  	94.772957 
3956.069119  	94.694819 
3957.033543  	94.561980 
3957.997967  	94.582029 
3958.962392  	94.656899 
3959.926816  	94.676122 
3960.891241  	94.605860 
3961.855665  	94.263954 
3962.820090  	94.280123 
3963.784514  	94.679511 
3964.748939  	94.718834 
3965.713363  	94.735846 
3966.677788  	94.776617 
3967.642212  	94.750918 
3968.606636  	94.633299 
3969.571061  	94.510045 
3970.535485  	94.653293 
3971.499910  	94.687236 
3972.464334  	94.513313 
3973.428759  	94.622006 
3974.393183  	94.730547 
3975.357608  	94.602574 
3976.322032  	94.472343 
3977.286457  	94.610702 
3978.250881  	94.800313 
3979.215305  	94.792420 
3980.179730  	94.753856 
3981.144154  	94.750226 
3982.108579  	94.668329 
3983.073003  	94.669276 
3984.037428  	94.764985 
3985.001852  	94.754301 
3985.966277  	94.753969 
3986.930701  	94.848681 
3987.895126  	94.899061 
3988.859550  	94.821477 
3989.823974  	94.678557 
3990.788399  	94.520231 
3991.752823  	94.641610 
3992.717248  	94.767511 
3993.681672  	94.721822 
3994.646097  	94.644074 
3995.610521  	94.568682 
3996.574946  	94.708963 
3997.539370  	94.806492 
3998.503795  	94.797695 
3999.468219  	94.767889 
4000.432643  	94.805868 
4001.397068  	94.812777 
4002.361492  	94.793774 
4003.325917  	94.758746 
4004.290341  	94.772457 
4005.254766  	94.766648 
4006.219190  	94.766079 
4007.183615  	94.745511 
4008.148039  	94.655279 
4009.112464  	94.563435 
4010.076888  	94.677626 
4011.041313  	94.760840 
4012.005737  	94.778282 
4012.970161  	94.740337 
4013.934586  	94.741420 
4014.899010  	94.777365 
4015.863435  	94.784592 
4016.827859  	94.790405 
4017.792284  	94.790282 
4018.756708  	94.797391 
4019.721133  	94.755411 
4020.685557  	94.750590 
4021.649982  	94.790461 
4022.614406  	94.788012 
4023.578830  	94.744195 
4024.543255  	94.721994 
4025.507679  	94.692384 
4026.472104  	94.707304 
4027.436528  	94.744340 
4028.400953  	94.749087 
4029.365377  	94.744836 
4030.329802  	94.769234 
4031.294226  	94.799117 
4032.258651  	94.787201 
4033.223075  	94.832989 
4034.187499  	94.913347 
4035.151924  	94.894550 
4036.116348  	94.865830 
4037.080773  	94.900713 
4038.045197  	94.884545 
4039.009622  	94.812665 
4039.974046  	94.778238 
4040.938471  	94.809374 
4041.902895  	94.828218 
4042.867320  	94.830478 
4043.831744  	94.740366 
4044.796168  	94.696433 
4045.760593  	94.705807 
4046.725017  	94.762549 
4047.689442  	94.773721 
4048.653866  	94.786108 
4049.618291  	94.832148 
4050.582715  	94.842217 
4051.547140  	94.823607 
4052.511564  	94.803389 
4053.475989  	94.847137 
4054.440413  	94.857337 
4055.404837  	94.852764 
4056.369262  	94.877667 
4057.333686  	94.907031 
4058.298111  	94.879343 
4059.262535  	94.854097 
4060.226960  	94.832417 
4061.191384  	94.813438 
4062.155809  	94.873294 
4063.120233  	94.873886 
4064.084658  	94.850740 
4065.049082  	94.884455 
4066.013506  	94.905606 
4066.977931  	94.842254 
4067.942355  	94.808910 
4068.906780  	94.866778 
4069.871204  	94.873177 
4070.835629  	94.843799 
4071.800053  	94.838651 
4072.764478  	94.806404 
4073.728902  	94.765206 
4074.693327  	94.791365 
4075.657751  	94.863149 
4076.622176  	94.847413 
4077.586600  	94.920425 
4078.551024  	94.954344 
4079.515449  	94.872143 
4080.479873  	94.838050 
4081.444298  	94.856686 
4082.408722  	94.834044 
4083.373147  	94.768899 
4084.337571  	94.771907 
4085.301996  	94.819737 
4086.266420  	94.834349 
4087.230845  	94.819603 
4088.195269  	94.810051 
4089.159693  	94.863976 
4090.124118  	94.911588 
4091.088542  	94.861775 
4092.052967  	94.855359 
4093.017391  	94.878307 
4093.981816  	94.914186 
4094.946240  	94.939347 
4095.910665  	94.931050 
4096.875089  	94.939470 
4097.839514  	94.874471 
4098.803938  	94.778050 
4099.768362  	94.850353 
4100.732787  	94.881922 
4101.697211  	94.856274 
4102.661636  	94.888584 
4103.626060  	94.926514 
4104.590485  	94.878573 
4105.554909  	94.781934 
4106.519334  	94.750327 
4107.483758  	94.766694 
4108.448183  	94.795754 
4109.412607  	94.819147 
4110.377031  	94.797596 
4111.341456  	94.858246 
4112.305880  	94.900596 
4113.270305  	94.908501 
4114.234729  	94.888473 
4115.199154  	94.924889 
4116.163578  	94.900095 
4117.128003  	94.836239 
4118.092427  	94.825181 
4119.056852  	94.813146 
4120.021276  	94.818825 
4120.985700  	94.851151 
4121.950125  	94.855274 
4122.914549  	94.806726 
4123.878974  	94.829547 
4124.843398  	94.843785 
4125.807823  	94.876530 
4126.772247  	94.880206 
4127.736672  	94.852421 
4128.701096  	94.881874 
4129.665521  	94.881892 
4130.629945  	94.871796 
4131.594370  	94.915899 
4132.558794  	94.935811 
4133.523218  	94.857086 
4134.487643  	94.828148 
4135.452067  	94.860698 
4136.416492  	94.884951 
4137.380916  	94.919637 
4138.345341  	94.877223 
4139.309765  	94.818506 
4140.274190  	94.885027 
4141.238614  	94.887572 
4142.203039  	94.857165 
4143.167463  	94.874998 
4144.131887  	94.826646 
4145.096312  	94.816885 
4146.060736  	94.828088 
4147.025161  	94.855262 
4147.989585  	94.903642 
4148.954010  	94.880164 
4149.918434  	94.833438 
4150.882859  	94.846412 
4151.847283  	94.858788 
4152.811708  	94.833040 
4153.776132  	94.874879 
4154.740556  	94.899894 
4155.704981  	94.841787 
4156.669405  	94.824952 
4157.633830  	94.838771 
4158.598254  	94.826652 
4159.562679  	94.822606 
4160.527103  	94.788566 
4161.491528  	94.795570 
4162.455952  	94.837470 
4163.420377  	94.850212 
4164.384801  	94.836734 
4165.349225  	94.826530 
4166.313650  	94.825469 
4167.278074  	94.831607 
4168.242499  	94.849287 
4169.206923  	94.880520 
4170.171348  	94.896569 
4171.135772  	94.907273 
4172.100197  	94.848406 
4173.064621  	94.809408 
4174.029046  	94.842579 
4174.993470  	94.834071 
4175.957894  	94.838028 
4176.922319  	94.905764 
4177.886743  	94.863284 
4178.851168  	94.802850 
4179.815592  	94.775029 
4180.780017  	94.750564 
4181.744441  	94.818438 
4182.708866  	94.846836 
4183.673290  	94.873335 
4184.637715  	94.890462 
4185.602139  	94.876594 
4186.566563  	94.837316 
4187.530988  	94.804597 
4188.495412  	94.823579 
4189.459837  	94.886655 
4190.424261  	94.819928 
4191.388686  	94.744142 
4192.353110  	94.832205 
4193.317535  	94.919175 
4194.281959  	94.874310 
4195.246384  	94.860700 
4196.210808  	94.846984 
4197.175233  	94.812671 
4198.139657  	94.826538 
4199.104081  	94.834952 
4200.068506  	94.856497 
4201.032930  	94.873499 
4201.997355  	94.897319 
4202.961779  	94.905658 
4203.926204  	94.854335 
4204.890628  	94.823464 
4205.855053  	94.865035 
4206.819477  	94.841840 
4207.783902  	94.848276 
4208.748326  	94.881174 
4209.712750  	94.899054 
4210.677175  	94.893396 
4211.641599  	94.851506 
4212.606024  	94.838242 
4213.570448  	94.865671 
4214.534873  	94.843979 
4215.499297  	94.790919 
4216.463722  	94.806421 
4217.428146  	94.815349 
4218.392571  	94.799941 
4219.356995  	94.845087 
4220.321419  	94.890449 
4221.285844  	94.888698 
4222.250268  	94.887328 
4223.214693  	94.827965 
4224.179117  	94.808680 
4225.143542  	94.884830 
4226.107966  	94.917652 
4227.072391  	94.960678 
4228.036815  	94.905648 
4229.001240  	94.855686 
4229.965664  	94.825887 
4230.930088  	94.853640 
4231.894513  	94.954805 
4232.858937  	94.989845 
4233.823362  	94.979591 
4234.787786  	94.980198 
4235.752211  	94.932557 
4236.716635  	94.897469 
4237.681060  	94.913409 
4238.645484  	94.936770 
4239.609909  	94.905574 
4240.574333  	94.894682 
4241.538757  	94.938248 
4242.503182  	94.950060 
4243.467606  	94.912904 
4244.432031  	94.821188 
4245.396455  	94.795538 
4246.360880  	94.871976 
4247.325304  	94.886756 
4248.289729  	94.865842 
4249.254153  	94.865975 
4250.218578  	94.931991 
4251.183002  	94.972230 
4252.147427  	94.951469 
4253.111851  	94.922418 
4254.076275  	94.871480 
4255.040700  	94.850410 
4256.005124  	94.856059 
4256.969549  	94.953118 
4257.933973  	94.977452 
4258.898398  	94.894085 
4259.862822  	94.840486 
4260.827247  	94.862239 
4261.791671  	94.881499 
4262.756096  	94.877388 
4263.720520  	94.858380 
4264.684944  	94.855512 
4265.649369  	94.880023 
4266.613793  	94.915305 
4267.578218  	94.886017 
4268.542642  	94.883514 
4269.507067  	94.885074 
4270.471491  	94.879155 
4271.435916  	94.895386 
4272.400340  	94.854644 
4273.364765  	94.842846 
4274.329189  	94.894687 
4275.293613  	94.918812 
4276.258038  	94.915413 
4277.222462  	94.884428 
4278.186887  	94.837359 
4279.151311  	94.844038 
4280.115736  	94.860870 
4281.080160  	94.912604 
4282.044585  	94.921215 
4283.009009  	94.884785 
4283.973434  	94.900759 
4284.937858  	94.868046 
4285.902282  	94.842068 
4286.866707  	94.900027 
4287.831131  	94.976111 
4288.795556  	94.953474 
4289.759980  	94.915491 
4290.724405  	94.882525 
4291.688829  	94.916783 
4292.653254  	94.939743 
4293.617678  	94.963794 
4294.582103  	95.015818 
4295.546527  	95.015586 
4296.510951  	94.983152 
4297.475376  	94.986234 
4298.439800  	94.954877 
4299.404225  	94.921885 
4300.368649  	94.917266 
4301.333074  	94.883139 
4302.297498  	94.835847 
4303.261923  	94.868495 
4304.226347  	94.951768 
4305.190772  	95.045902 
4306.155196  	94.999417 
4307.119620  	94.955087 
4308.084045  	94.973084 
4309.048469  	94.996889 
4310.012894  	94.962320 
4310.977318  	94.966840 
4311.941743  	94.970194 
4312.906167  	94.945847 
4313.870592  	94.904355 
4314.835016  	94.927081 
4315.799441  	94.925176 
4316.763865  	94.908431 
4317.728290  	94.936402 
4318.692714  	94.955853 
4319.657138  	94.922622 
4320.621563  	94.922799 
4321.585987  	94.898286 
4322.550412  	94.869107 
4323.514836  	94.864202 
4324.479261  	94.864572 
4325.443685  	94.886470 
4326.408110  	94.953264 
4327.372534  	94.971462 
4328.336959  	94.914906 
4329.301383  	94.871226 
4330.265807  	94.904879 
4331.230232  	94.912344 
4332.194656  	94.838160 
4333.159081  	94.900357 
4334.123505  	94.989747 
4335.087930  	94.949269 
4336.052354  	94.899511 
4337.016779  	94.921194 
4337.981203  	94.911345 
4338.945628  	94.850314 
4339.910052  	94.809459 
4340.874476  	94.818317 
4341.838901  	94.858083 
4342.803325  	94.840805 
4343.767750  	94.801537 
4344.732174  	94.817462 
4345.696599  	94.855325 
4346.661023  	94.864751 
4347.625448  	94.786552 
4348.589872  	94.768017 
4349.554297  	94.813753 
4350.518721  	94.857109 
4351.483145  	94.919537 
4352.447570  	94.922380 
4353.411994  	94.880704 
4354.376419  	94.834311 
4355.340843  	94.846140 
4356.305268  	94.878307 
4357.269692  	94.903870 
4358.234117  	94.915604 
4359.198541  	94.840271 
4360.162966  	94.803724 
4361.127390  	94.785844 
4362.091814  	94.779276 
4363.056239  	94.733823 
4364.020663  	94.772389 
4364.985088  	94.842876 
4365.949512  	94.840016 
4366.913937  	94.799207 
4367.878361  	94.784217 
4368.842786  	94.842971 
4369.807210  	94.922002 
4370.771635  	94.868607 
4371.736059  	94.811974 
4372.700484  	94.865586 
4373.664908  	94.917301 
4374.629332  	94.903134 
4375.593757  	94.853774 
4376.558181  	94.927317 
4377.522606  	95.006380 
4378.487030  	94.946926 
4379.451455  	94.863102 
4380.415879  	94.842100 
4381.380304  	94.865718 
4382.344728  	94.899029 
4383.309153  	94.904608 
4384.273577  	94.929145 
4385.238001  	94.967241 
4386.202426  	94.976169 
4387.166850  	95.009386 
4388.131275  	94.991993 
4389.095699  	94.900288 
4390.060124  	94.874669 
4391.024548  	94.961678 
4391.988973  	95.035746 
4392.953397  	95.059638 
4393.917822  	94.980760 
4394.882246  	94.924268 
4395.846670  	94.933774 
4396.811095  	94.978165 
4397.775519  	95.032611 
4398.739944  	95.057515 
4399.704368  	95.088765 
4400.668793  	95.119693 
4401.633217  	94.987474 
4402.597642  	94.937173 
4403.562066  	95.085304 
4404.526491  	95.154075 
4405.490915  	95.083271 
4406.455339  	94.970380 
4407.419764  	94.933774 
4408.384188  	95.079866 
4409.348613  	95.174253 
4410.313037  	95.152569 
4411.277462  	95.036156 
4412.241886  	94.985096 
4413.206311  	95.042951 
4414.170735  	95.082790 
4415.135160  	95.064374 
4416.099584  	95.017633 
4417.064008  	94.958981 
4418.028433  	94.940189 
4418.992857  	94.997934 
4419.957282  	95.066738 
4420.921706  	95.083200 
4421.886131  	95.071961 
4422.850555  	95.057120 
4423.814980  	95.031535 
4424.779404  	94.995513 
4425.743829  	94.962862 
4426.708253  	94.994089 
4427.672677  	95.036553 
4428.637102  	95.058094 
4429.601526  	95.122440 
4430.565951  	95.147216 
4431.530375  	95.091537 
4432.494800  	95.037715 
4433.459224  	94.985788 
4434.423649  	94.978955 
4435.388073  	95.044721 
4436.352498  	95.160294 
4437.316922  	95.156085 
4438.281347  	95.093742 
4439.245771  	95.031238 
4440.210195  	95.066485 
4441.174620  	95.093681 
4442.139044  	95.087013 
4443.103469  	95.155381 
4444.067893  	95.138144 
4445.032318  	95.097618 
4445.996742  	95.147945 
4446.961167  	95.102373 
4447.925591  	95.049515 
4448.890016  	95.019856 
4449.854440  	94.977910 
4450.818864  	95.030814 
4451.783289  	95.072231 
4452.747713  	95.025872 
4453.712138  	95.016644 
4454.676562  	95.020415 
4455.640987  	95.082384 
4456.605411  	95.163181 
4457.569836  	95.146624 
4458.534260  	95.118857 
4459.498685  	95.091368 
4460.463109  	95.074362 
4461.427533  	95.022299 
4462.391958  	95.040105 
4463.356382  	95.088489 
4464.320807  	95.096817 
4465.285231  	95.069064 
4466.249656  	95.077199 
4467.214080  	95.090356 
4468.178505  	95.101444 
4469.142929  	95.137983 
4470.107354  	95.137225 
4471.071778  	95.088849 
4472.036202  	95.108304 
4473.000627  	95.120837 
4473.965051  	95.031224 
4474.929476  	94.963747 
4475.893900  	95.056136 
4476.858325  	95.127577 
4477.822749  	95.139892 
4478.787174  	95.168786 
4479.751598  	95.136467 
4480.716023  	95.065015 
4481.680447  	95.061096 
4482.644871  	95.057537 
4483.609296  	95.059336 
4484.573720  	95.099537 
4485.538145  	95.122376 
4486.502569  	95.116904 
4487.466994  	95.138966 
4488.431418  	95.176427 
4489.395843  	95.094372 
4490.360267  	95.052563 
4491.324692  	95.066378 
4492.289116  	95.014548 
4493.253541  	95.024603 
4494.217965  	95.074418 
4495.182389  	95.118855 
4496.146814  	95.100259 
4497.111238  	95.039715 
4498.075663  	95.089889 
4499.040087  	95.118446 
4500.004512  	95.077642 
4500.968936  	95.120653 
4501.933361  	95.151052 
4502.897785  	95.142886 
4503.862210  	95.135716 
4504.826634  	95.125903 
4505.791058  	95.131501 
4506.755483  	95.108455 
4507.719907  	95.129099 
4508.684332  	95.195294 
4509.648756  	95.167247 
4510.613181  	95.140288 
4511.577605  	95.148767 
4512.542030  	95.179667 
4513.506454  	95.200498 
4514.470879  	95.170325 
4515.435303  	95.123744 
4516.399727  	95.092879 
4517.364152  	95.021081 
4518.328576  	95.010299 
4519.293001  	95.057700 
4520.257425  	95.024531 
4521.221850  	94.986715 
4522.186274  	95.092494 
4523.150699  	95.132224 
4524.115123  	95.113750 
4525.079548  	95.091276 
4526.043972  	95.023620 
4527.008396  	94.969618 
4527.972821  	94.990251 
4528.937245  	95.086348 
4529.901670  	95.119449 
4530.866094  	95.086187 
4531.830519  	95.112659 
4532.794943  	95.093092 
4533.759368  	95.075193 
4534.723792  	95.099222 
4535.688217  	95.148482 
4536.652641  	95.166188 
4537.617065  	95.148207 
4538.581490  	95.139857 
4539.545914  	95.097104 
4540.510339  	95.041028 
4541.474763  	94.993587 
4542.439188  	94.972834 
4543.403612  	95.020866 
4544.368037  	94.997377 
4545.332461  	95.017818 
4546.296886  	95.145747 
4547.261310  	95.160346 
4548.225734  	95.177828 
4549.190159  	95.252959 
4550.154583  	95.154856 
4551.119008  	94.976825 
4552.083432  	95.011860 
4553.047857  	95.102785 
4554.012281  	95.168859 
4554.976706  	95.148832 
4555.941130  	95.118780 
4556.905555  	95.108991 
4557.869979  	95.117314 
4558.834404  	95.201188 
4559.798828  	95.145302 
4560.763252  	95.020757 
4561.727677  	95.027064 
4562.692101  	95.082280 
4563.656526  	95.130937 
4564.620950  	95.131080 
4565.585375  	95.042635 
4566.549799  	95.049925 
4567.514224  	95.136838 
4568.478648  	95.129610 
4569.443073  	95.114761 
4570.407497  	95.121835 
4571.371921  	95.148688 
4572.336346  	95.116959 
4573.300770  	95.107256 
4574.265195  	95.107244 
4575.229619  	95.060058 
4576.194044  	95.079854 
4577.158468  	95.113357 
4578.122893  	95.205591 
4579.087317  	95.175198 
4580.051742  	95.075309 
4581.016166  	95.152847 
4581.980590  	95.221575 
4582.945015  	95.203837 
4583.909439  	95.133361 
4584.873864  	95.088456 
4585.838288  	95.050825 
4586.802713  	95.093500 
4587.767137  	95.066040 
4588.731562  	95.055713 
4589.695986  	95.073347 
4590.660411  	95.075590 
4591.624835  	95.083177 
4592.589259  	95.086342 
4593.553684  	95.084832 
4594.518108  	95.068888 
4595.482533  	95.056990 
4596.446957  	95.085208 
4597.411382  	95.039966 
4598.375806  	95.074783 
4599.340231  	95.161148 
4600.304655  	95.138706 
4601.269080  	95.086232 
4602.233504  	95.103177 
4603.197928  	95.142695 
4604.162353  	95.134569 
4605.126777  	95.123928 
4606.091202  	95.111032 
4607.055626  	95.126537 
4608.020051  	95.139253 
4608.984475  	95.141000 
4609.948900  	95.119190 
4610.913324  	95.075242 
4611.877749  	95.050617 
4612.842173  	95.068844 
4613.806598  	95.146957 
4614.771022  	95.246544 
4615.735446  	95.209412 
4616.699871  	95.117578 
4617.664295  	95.080606 
4618.628720  	95.081125 
4619.593144  	95.124980 
4620.557569  	95.222540 
4621.521993  	95.160648 
4622.486418  	95.053488 
4623.450842  	95.052514 
4624.415267  	95.056957 
4625.379691  	95.178592 
4626.344115  	95.199548 
4627.308540  	95.142545 
4628.272964  	95.104821 
4629.237389  	95.078985 
4630.201813  	95.082609 
4631.166238  	95.123268 
4632.130662  	95.123520 
4633.095087  	95.074126 
4634.059511  	95.055472 
4635.023936  	95.116529 
4635.988360  	95.127100 
4636.952784  	95.117691 
4637.917209  	95.159233 
4638.881633  	95.058021 
4639.846058  	95.007662 
4640.810482  	95.086306 
4641.774907  	95.105620 
4642.739331  	95.067319 
4643.703756  	95.055361 
4644.668180  	95.119369 
4645.632605  	95.099748 
4646.597029  	95.111815 
4647.561453  	95.087940 
4648.525878  	95.096628 
4649.490302  	95.139006 
4650.454727  	95.146060 
4651.419151  	95.155880 
4652.383576  	95.123504 
4653.348000  	95.074950 
4654.312425  	95.093631 
4655.276849  	95.154064 
4656.241274  	95.109379 
4657.205698  	95.079012 
4658.170122  	95.058118 
4659.134547  	95.037294 
4660.098971  	95.016922 
4661.063396  	95.124746 
4662.027820  	95.211516 
4662.992245  	95.165877 
4663.956669  	95.140165 
4664.921094  	95.153519 
4665.885518  	95.167030 
4666.849943  	95.214667 
4667.814367  	95.165352 
4668.778791  	95.208951 
4669.743216  	95.264970 
4670.707640  	95.166678 
4671.672065  	95.136966 
4672.636489  	95.129136 
4673.600914  	95.097440 
4674.565338  	95.127425 
4675.529763  	95.168959 
4676.494187  	95.257416 
4677.458612  	95.252607 
4678.423036  	95.226406 
4679.387461  	95.271674 
4680.351885  	95.248858 
4681.316309  	95.162695 
4682.280734  	95.133424 
4683.245158  	95.075336 
4684.209583  	95.081375 
4685.174007  	95.173493 
4686.138432  	95.165791 
4687.102856  	95.140565 
4688.067281  	95.104224 
4689.031705  	95.035097 
4689.996130  	95.060274 
4690.960554  	95.107498 
4691.924978  	95.100848 
4692.889403  	95.058038 
4693.853827  	95.059614 
4694.818252  	95.095631 
4695.782676  	95.176263 
4696.747101  	95.248862 
4697.711525  	95.256977 
4698.675950  	95.162071 
4699.640374  	95.065800 