##TITLE=No Description
##DATA TYPE=INFRARED SPECTRUM
##XUNITS=1/CM
##YUNITS=%T
400.236149  	63.895542 
401.200574  	71.293244 
402.164998  	64.691435 
403.129423  	68.614536 
404.093847  	71.049271 
405.058272  	65.863530 
406.022696  	83.493457 
406.987120  	86.861684 
407.951545  	85.874977 
408.915969  	80.281690 
409.880394  	78.352828 
410.844818  	73.212921 
411.809243  	77.699138 
412.773667  	83.295848 
413.738092  	79.386224 
414.702516  	72.730952 
415.666941  	72.133932 
416.631365  	78.192476 
417.595789  	79.490743 
418.560214  	73.396181 
419.524638  	74.094830 
420.489063  	76.063783 
421.453487  	78.589754 
422.417912  	79.158545 
423.382336  	79.051657 
424.346761  	78.266221 
425.311185  	74.000041 
426.275610  	75.433912 
427.240034  	79.384700 
428.204458  	79.194934 
429.168883  	79.078838 
430.133307  	79.571978 
431.097732  	77.931290 
432.062156  	76.216749 
433.026581  	74.977765 
433.991005  	76.499776 
434.955430  	78.410333 
435.919854  	77.281051 
436.884279  	75.715104 
437.848703  	75.970634 
438.813127  	76.840121 
439.777552  	77.077162 
440.741976  	77.211500 
441.706401  	77.288869 
442.670825  	77.571891 
443.635250  	76.885853 
444.599674  	77.461081 
445.564099  	76.448549 
446.528523  	75.073343 
447.492948  	74.506005 
448.457372  	75.442738 
449.421796  	74.857269 
450.386221  	73.615929 
451.350645  	73.923719 
452.315070  	73.562502 
453.279494  	73.390127 
454.243919  	74.484603 
455.208343  	74.049516 
456.172768  	73.889541 
457.137192  	73.705034 
458.101617  	74.043835 
459.066041  	74.048985 
460.030466  	74.557182 
460.994890  	74.367707 
461.959314  	73.178376 
462.923739  	72.911986 
463.888163  	72.141539 
464.852588  	72.055750 
465.817012  	72.626657 
466.781437  	72.812892 
467.745861  	72.473812 
468.710286  	71.917955 
469.674710  	71.649974 
470.639135  	71.441442 
471.603559  	71.137482 
472.567983  	71.597148 
473.532408  	71.665494 
474.496832  	71.644149 
475.461257  	72.273324 
476.425681  	70.997044 
477.390106  	71.021709 
478.354530  	71.502022 
479.318955  	70.476143 
480.283379  	69.857883 
481.247804  	70.973281 
482.212228  	71.051933 
483.176652  	70.850295 
484.141077  	70.917032 
485.105501  	70.321126 
486.069926  	69.784618 
487.034350  	71.015253 
487.998775  	71.230070 
488.963199  	71.124946 
489.927624  	71.296663 
490.892048  	70.617578 
491.856473  	69.867097 
492.820897  	70.051421 
493.785321  	70.499805 
494.749746  	70.322022 
495.714170  	70.155945 
496.678595  	69.878249 
497.643019  	69.949274 
498.607444  	70.374027 
499.571868  	69.903893 
500.536293  	69.364633 
501.500717  	69.256241 
502.465142  	68.755282 
503.429566  	68.663275 
504.393990  	68.713597 
505.358415  	68.596763 
506.322839  	68.229071 
507.287264  	68.159693 
508.251688  	68.714456 
509.216113  	68.832869 
510.180537  	68.321220 
511.144962  	68.430658 
512.109386  	68.680818 
513.073811  	68.519367 
514.038235  	68.381386 
515.002660  	68.017879 
515.967084  	67.529601 
516.931508  	66.680079 
517.895933  	66.823311 
518.860357  	66.990020 
519.824782  	66.735930 
520.789206  	67.179309 
521.753631  	67.431805 
522.718055  	67.466140 
523.682480  	67.039590 
524.646904  	66.432721 
525.611329  	65.760163 
526.575753  	65.957564 
527.540177  	66.259995 
528.504602  	65.903153 
529.469026  	65.504785 
530.433451  	65.295382 
531.397875  	64.921664 
532.362300  	64.944972 
533.326724  	65.302900 
534.291149  	65.451056 
535.255573  	65.693656 
536.219998  	65.934989 
537.184422  	66.488737 
538.148846  	66.475909 
539.113271  	66.691914 
540.077695  	66.984905 
541.042120  	67.554574 
542.006544  	67.811498 
542.970969  	67.649183 
543.935393  	67.480872 
544.899818  	67.372583 
545.864242  	67.347263 
546.828667  	67.296218 
547.793091  	66.899347 
548.757515  	66.783362 
549.721940  	66.801272 
550.686364  	66.474352 
551.650789  	66.551580 
552.615213  	66.229820 
553.579638  	65.984483 
554.544062  	65.925876 
555.508487  	65.913675 
556.472911  	65.541358 
557.437336  	65.042779 
558.401760  	64.752774 
559.366184  	64.457687 
560.330609  	64.207586 
561.295033  	64.052553 
562.259458  	63.743176 
563.223882  	63.163999 
564.188307  	62.686230 
565.152731  	62.486203 
566.117156  	61.981755 
567.081580  	61.243701 
568.046005  	60.864157 
569.010429  	60.447883 
569.974853  	60.022655 
570.939278  	59.528290 
571.903702  	58.965163 
572.868127  	58.318048 
573.832551  	57.818232 
574.796976  	57.493557 
575.761400  	56.864658 
576.725825  	57.036951 
577.690249  	57.447790 
578.654674  	57.815982 
579.619098  	58.111717 
580.583523  	58.351171 
581.547947  	59.390145 
582.512371  	60.632690 
583.476796  	61.434061 
584.441220  	62.141621 
585.405645  	63.242702 
586.370069  	64.275856 
587.334494  	64.641617 
588.298918  	65.177878 
589.263343  	65.729415 
590.227767  	66.136392 
591.192192  	66.267693 
592.156616  	66.451534 
593.121040  	67.027879 
594.085465  	67.445376 
595.049889  	67.746743 
596.014314  	68.054925 
596.978738  	68.386194 
597.943163  	68.430869 
598.907587  	68.424571 
599.872012  	68.378316 
600.836436  	68.730782 
601.800861  	69.061428 
602.765285  	69.080345 
603.729709  	69.309160 
604.694134  	69.569577 
605.658558  	69.652295 
606.622983  	69.599116 
607.587407  	69.540391 
608.551832  	69.591805 
609.516256  	69.710528 
610.480681  	69.626928 
611.445105  	69.580064 
612.409530  	69.640646 
613.373954  	69.824169 
614.338378  	69.689417 
615.302803  	69.377154 
616.267227  	69.384772 
617.231652  	69.736292 
618.196076  	69.803569 
619.160501  	69.730183 
620.124925  	69.615036 
621.089350  	69.641009 
622.053774  	69.726449 
623.018199  	70.101830 
623.982623  	70.026492 
624.947047  	69.960809 
625.911472  	69.847935 
626.875896  	69.864008 
627.840321  	69.796286 
628.804745  	69.795620 
629.769170  	69.717260 
630.733594  	69.600622 
631.698019  	69.622821 
632.662443  	69.721844 
633.626868  	69.578572 
634.591292  	69.558581 
635.555717  	69.396579 
636.520141  	69.626546 
637.484565  	69.546397 
638.448990  	69.452701 
639.413414  	69.333793 
640.377839  	69.205606 
641.342263  	69.113943 
642.306688  	68.866511 
643.271112  	68.788606 
644.235537  	68.695783 
645.199961  	68.554026 
646.164386  	68.537460 
647.128810  	68.417073 
648.093234  	68.188545 
649.057659  	68.020512 
650.022083  	68.010178 
650.986508  	67.874212 
651.950932  	67.574126 
652.915357  	67.265523 
653.879781  	67.007890 
654.844206  	66.879650 
655.808630  	66.719208 
656.773055  	66.341318 
657.737479  	66.066343 
658.701903  	65.682846 
659.666328  	65.401899 
660.630752  	65.209242 
661.595177  	65.011071 
662.559601  	64.780828 
663.524026  	64.456399 
664.488450  	64.201101 
665.452875  	63.950729 
666.417299  	63.759015 
667.381724  	63.707475 
668.346148  	63.217886 
669.310572  	62.616035 
670.274997  	62.421929 
671.239421  	62.339668 
672.203846  	62.384389 
673.168270  	62.219756 
674.132695  	61.787213 
675.097119  	61.570722 
676.061544  	61.461404 
677.025968  	61.399139 
677.990393  	61.291300 
678.954817  	61.073223 
679.919241  	60.997521 
680.883666  	61.096827 
681.848090  	61.039100 
682.812515  	61.040405 
683.776939  	61.039819 
684.741364  	61.091398 
685.705788  	61.180535 
686.670213  	61.370520 
687.634637  	61.443277 
688.599062  	61.626849 
689.563486  	61.862067 
690.527910  	62.219045 
691.492335  	62.627299 
692.456759  	63.104159 
693.421184  	63.561606 
694.385608  	64.057952 
695.350033  	64.529864 
696.314457  	64.960317 
697.278882  	65.392989 
698.243306  	65.855495 
699.207731  	66.250851 
700.172155  	66.605254 
701.136580  	66.901949 
702.101004  	67.215649 
703.065428  	67.555829 
704.029853  	67.864149 
704.994277  	68.216153 
705.958702  	68.642504 
706.923126  	68.935233 
707.887551  	69.157116 
708.851975  	69.451852 
709.816400  	69.578334 
710.780824  	69.671516 
711.745249  	69.797258 
712.709673  	69.953766 
713.674097  	70.051765 
714.638522  	70.152201 
715.602946  	70.272837 
716.567371  	70.274796 
717.531795  	70.196312 
718.496220  	70.076407 
719.460644  	70.031378 
720.425069  	70.234188 
721.389493  	70.542759 
722.353918  	70.668043 
723.318342  	70.718024 
724.282766  	70.683753 
725.247191  	70.643830 
726.211615  	70.647343 
727.176040  	70.648850 
728.140464  	70.516125 
729.104889  	70.462959 
730.069313  	70.700034 
731.033738  	71.270592 
731.998162  	71.958814 
732.962587  	72.715904 
733.927011  	73.500060 
734.891435  	74.251967 
735.855860  	75.026124 
736.820284  	75.704958 
737.784709  	76.305528 
738.749133  	76.952574 
739.713558  	77.457371 
740.677982  	77.870382 
741.642407  	78.232870 
742.606831  	78.533228 
743.571256  	78.766526 
744.535680  	78.870652 
745.500104  	78.975831 
746.464529  	79.051441 
747.428953  	79.199997 
748.393378  	79.390071 
749.357802  	79.445266 
750.322227  	79.457662 
751.286651  	79.521915 
752.251076  	79.722096 
753.215500  	79.891722 
754.179925  	80.005853 
755.144349  	80.123450 
756.108774  	80.239093 
757.073198  	80.241304 
758.037622  	80.229886 
759.002047  	80.327063 
759.966471  	80.521665 
760.930896  	80.626813 
761.895320  	80.733870 
762.859745  	80.988557 
763.824169  	81.179295 
764.788594  	81.240246 
765.753018  	81.244405 
766.717443  	81.289375 
767.681867  	81.422567 
768.646291  	81.570077 
769.610716  	81.734297 
770.575140  	81.885192 
771.539565  	82.064428 
772.503989  	82.054297 
773.468414  	82.078834 
774.432838  	82.263042 
775.397263  	82.452352 
776.361687  	82.627317 
777.326112  	82.800907 
778.290536  	82.666697 
779.254960  	82.563152 
780.219385  	82.557184 
781.183809  	83.024240 
782.148234  	83.078651 
783.112658  	83.127339 
784.077083  	83.286524 
785.041507  	83.366800 
786.005932  	83.570789 
786.970356  	83.583330 
787.934781  	83.487735 
788.899205  	83.511259 
789.863629  	83.561285 
790.828054  	83.638578 
791.792478  	83.674025 
792.756903  	83.665482 
793.721327  	83.764425 
794.685752  	83.719098 
795.650176  	83.763356 
796.614601  	83.909872 
797.579025  	84.018773 
798.543450  	83.947541 
799.507874  	83.975224 
800.472298  	84.324884 
801.436723  	84.587681 
802.401147  	84.622592 
803.365572  	84.740726 
804.329996  	84.856348 
805.294421  	84.908750 
806.258845  	84.988989 
807.223270  	85.171816 
808.187694  	85.271125 
809.152119  	85.333612 
810.116543  	85.375131 
811.080967  	85.452832 
812.045392  	85.480388 
813.009816  	85.496713 
813.974241  	85.562739 
814.938665  	85.698148 
815.903090  	85.787484 
816.867514  	85.841132 
817.831939  	85.892832 
818.796363  	86.041596 
819.760788  	86.207140 
820.725212  	86.304958 
821.689637  	86.313510 
822.654061  	86.387946 
823.618485  	86.482798 
824.582910  	86.501877 
825.547334  	86.436970 
826.511759  	86.445360 
827.476183  	86.538925 
828.440608  	86.661469 
829.405032  	86.686257 
830.369457  	86.707074 
831.333881  	86.864000 
832.298306  	86.988453 
833.262730  	86.951627 
834.227154  	86.934510 
835.191579  	87.027095 
836.156003  	87.120883 
837.120428  	87.085197 
838.084852  	87.036686 
839.049277  	87.047733 
840.013701  	87.124869 
840.978126  	87.155259 
841.942550  	87.202937 
842.906975  	87.211896 
843.871399  	87.196794 
844.835823  	87.221283 
845.800248  	87.272645 
846.764672  	87.275597 
847.729097  	87.390817 
848.693521  	87.415189 
849.657946  	87.413298 
850.622370  	87.493623 
851.586795  	87.480841 
852.551219  	87.381101 
853.515644  	87.439586 
854.480068  	87.517740 
855.444492  	87.421901 
856.408917  	87.373189 
857.373341  	87.398731 
858.337766  	87.458059 
859.302190  	87.545476 
860.266615  	87.582792 
861.231039  	87.577421 
862.195464  	87.551154 
863.159888  	87.539185 
864.124313  	87.575915 
865.088737  	87.600106 
866.053161  	87.575517 
867.017586  	87.523993 
867.982010  	87.469903 
868.946435  	87.438025 
869.910859  	87.394166 
870.875284  	87.292251 
871.839708  	87.206398 
872.804133  	87.168997 
873.768557  	87.142054 
874.732982  	87.053726 
875.697406  	87.013500 
876.661831  	86.989460 
877.626255  	87.020109 
878.590679  	87.095345 
879.555104  	87.115947 
880.519528  	87.128108 
881.483953  	87.080573 
882.448377  	87.039114 
883.412802  	87.095964 
884.377226  	87.159672 
885.341651  	87.166162 
886.306075  	87.105338 
887.270500  	87.017533 
888.234924  	87.073034 
889.199348  	87.029744 
890.163773  	86.909499 
891.128197  	86.890422 
892.092622  	86.846311 
893.057046  	86.689690 
894.021471  	86.613364 
894.985895  	86.614647 
895.950320  	86.491102 
896.914744  	86.289393 
897.879169  	86.130225 
898.843593  	85.960687 
899.808017  	85.767864 
900.772442  	85.511806 
901.736866  	85.134629 
902.701291  	84.813900 
903.665715  	84.574420 
904.630140  	84.341132 
905.594564  	84.162859 
906.558989  	84.213333 
907.523413  	84.495393 
908.487838  	84.777193 
909.452262  	85.037034 
910.416686  	85.310946 
911.381111  	85.454838 
912.345535  	85.426008 
913.309960  	85.373447 
914.274384  	85.311262 
915.238809  	85.274159 
916.203233  	85.152225 
917.167658  	85.018662 
918.132082  	84.919102 
919.096507  	84.787631 
920.060931  	84.636354 
921.025355  	84.471982 
921.989780  	84.230016 
922.954204  	83.983525 
923.918629  	83.691778 
924.883053  	83.417295 
925.847478  	83.095192 
926.811902  	82.640699 
927.776327  	82.110636 
928.740751  	81.575288 
929.705176  	81.015449 
930.669600  	80.314227 
931.634024  	79.546563 
932.598449  	78.898207 
933.562873  	78.451225 
934.527298  	78.304303 
935.491722  	78.473245 
936.456147  	79.049070 
937.420571  	79.976787 
938.384996  	80.918423 
939.349420  	81.762690 
940.313845  	82.559338 
941.278269  	83.244883 
942.242694  	83.762737 
943.207118  	84.131761 
944.171542  	84.425514 
945.135967  	84.664763 
946.100391  	84.848906 
947.064816  	84.995774 
948.029240  	85.149143 
948.993665  	85.277052 
949.958089  	85.336908 
950.922514  	85.383662 
951.886938  	85.501449 
952.851363  	85.542287 
953.815787  	85.530207 
954.780211  	85.581475 
955.744636  	85.658609 
956.709060  	85.667917 
957.673485  	85.652163 
958.637909  	85.645479 
959.602334  	85.649117 
960.566758  	85.655450 
961.531183  	85.628358 
962.495607  	85.571584 
963.460032  	85.562760 
964.424456  	85.566457 
965.388880  	85.514335 
966.353305  	85.490934 
967.317729  	85.510934 
968.282154  	85.455104 
969.246578  	85.356373 
970.211003  	85.316418 
971.175427  	85.254523 
972.139852  	85.159153 
973.104276  	85.085685 
974.068701  	85.018780 
975.033125  	84.935406 
975.997549  	84.819625 
976.961974  	84.664670 
977.926398  	84.533031 
978.890823  	84.412199 
979.855247  	84.264432 
980.819672  	84.104075 
981.784096  	83.933153 
982.748521  	83.785128 
983.712945  	83.625852 
984.677370  	83.471294 
985.641794  	83.343193 
986.606218  	83.252088 
987.570643  	83.191322 
988.535067  	83.181096 
989.499492  	83.214439 
990.463916  	83.176935 
991.428341  	83.073424 
992.392765  	82.940526 
993.357190  	82.795850 
994.321614  	82.694480 
995.286039  	82.581746 
996.250463  	82.481747 
997.214888  	82.366995 
998.179312  	82.293656 
999.143736  	82.220007 
1000.108161  	82.125959 
1001.072585  	82.091837 
1002.037010  	82.085312 
1003.001434  	81.997312 
1003.965859  	81.916582 
1004.930283  	81.855197 
1005.894708  	81.793586 
1006.859132  	81.703398 
1007.823557  	81.557074 
1008.787981  	81.446041 
1009.752405  	81.377846 
1010.716830  	81.284877 
1011.681254  	81.183839 
1012.645679  	81.117471 
1013.610103  	81.060205 
1014.574528  	80.972162 
1015.538952  	80.896184 
1016.503377  	80.917531 
1017.467801  	80.941762 
1018.432226  	80.906229 
1019.396650  	80.817758 
1020.361074  	80.766917 
1021.325499  	80.776814 
1022.289923  	80.719045 
1023.254348  	80.591370 
1024.218772  	80.480460 
1025.183197  	80.375191 
1026.147621  	80.260698 
1027.112046  	80.163689 
1028.076470  	80.077064 
1029.040895  	79.940104 
1030.005319  	79.815894 
1030.969743  	79.744438 
1031.934168  	79.730781 
1032.898592  	79.740711 
1033.863017  	79.673914 
1034.827441  	79.566801 
1035.791866  	79.579937 
1036.756290  	79.629873 
1037.720715  	79.653493 
1038.685139  	79.665652 
1039.649564  	79.704147 
1040.613988  	79.776825 
1041.578412  	79.788703 
1042.542837  	79.824549 
1043.507261  	79.929910 
1044.471686  	79.995391 
1045.436110  	80.032878 
1046.400535  	80.067903 
1047.364959  	80.085533 
1048.329384  	80.037195 
1049.293808  	80.007816 
1050.258233  	80.041733 
1051.222657  	80.045810 
1052.187081  	79.987955 
1053.151506  	79.953056 
1054.115930  	79.961282 
1055.080355  	79.931394 
1056.044779  	79.862466 
1057.009204  	79.818786 
1057.973628  	79.824339 
1058.938053  	79.870054 
1059.902477  	79.839205 
1060.866902  	79.814342 
1061.831326  	79.899628 
1062.795751  	79.994995 
1063.760175  	80.050147 
1064.724599  	80.133490 
1065.689024  	80.316987 
1066.653448  	80.523791 
1067.617873  	80.729265 
1068.582297  	80.969661 
1069.546722  	81.201374 
1070.511146  	81.380452 
1071.475571  	81.513890 
1072.439995  	81.659492 
1073.404420  	81.802421 
1074.368844  	81.890335 
1075.333268  	81.906060 
1076.297693  	81.890062 
1077.262117  	81.913128 
1078.226542  	81.982845 
1079.190966  	82.016126 
1080.155391  	81.983179 
1081.119815  	81.974066 
1082.084240  	81.951259 
1083.048664  	81.948301 
1084.013089  	81.974593 
1084.977513  	81.962709 
1085.941937  	81.828899 
1086.906362  	81.683737 
1087.870786  	81.634830 
1088.835211  	81.574115 
1089.799635  	81.469067 
1090.764060  	81.380512 
1091.728484  	81.357961 
1092.692909  	81.321448 
1093.657333  	81.255223 
1094.621758  	81.173879 
1095.586182  	81.153233 
1096.550606  	81.145927 
1097.515031  	81.108319 
1098.479455  	81.066143 
1099.443880  	81.039227 
1100.408304  	80.993595 
1101.372729  	80.947159 
1102.337153  	80.928028 
1103.301578  	80.916508 
1104.266002  	80.936630 
1105.230427  	80.963481 
1106.194851  	80.975111 
1107.159275  	80.999621 
1108.123700  	80.984249 
1109.088124  	80.961684 
1110.052549  	80.961633 
1111.016973  	80.952437 
1111.981398  	80.960828 
1112.945822  	80.987092 
1113.910247  	81.027632 
1114.874671  	81.120798 
1115.839096  	81.214002 
1116.803520  	81.280627 
1117.767945  	81.287004 
1118.732369  	81.313607 
1119.696793  	81.402027 
1120.661218  	81.428227 
1121.625642  	81.371499 
1122.590067  	81.333037 
1123.554491  	81.304240 
1124.518916  	81.262784 
1125.483340  	81.222823 
1126.447765  	81.209564 
1127.412189  	81.188593 
1128.376614  	81.108629 
1129.341038  	80.986402 
1130.305462  	80.853688 
1131.269887  	80.680898 
1132.234311  	80.413010 
1133.198736  	80.067631 
1134.163160  	79.694681 
1135.127585  	79.283017 
1136.092009  	78.816545 
1137.056434  	78.410317 
1138.020858  	78.183725 
1138.985283  	78.096686 
1139.949707  	78.075639 
1140.914131  	78.144602 
1141.878556  	78.240954 
1142.842980  	78.250753 
1143.807405  	78.235104 
1144.771829  	78.237425 
1145.736254  	78.219236 
1146.700678  	78.198142 
1147.665103  	78.196449 
1148.629527  	78.234457 
1149.593952  	78.355782 
1150.558376  	78.519552 
1151.522800  	78.693028 
1152.487225  	78.895251 
1153.451649  	79.056450 
1154.416074  	79.194284 
1155.380498  	79.317862 
1156.344923  	79.418275 
1157.309347  	79.494196 
1158.273772  	79.534063 
1159.238196  	79.514687 
1160.202621  	79.514497 
1161.167045  	79.498206 
1162.131469  	79.420881 
1163.095894  	79.307246 
1164.060318  	79.219666 
1165.024743  	79.146695 
1165.989167  	79.030237 
1166.953592  	78.913000 
1167.918016  	78.771797 
1168.882441  	78.584990 
1169.846865  	78.306534 
1170.811290  	77.954250 
1171.775714  	77.560697 
1172.740138  	77.130585 
1173.704563  	76.622686 
1174.668987  	76.074461 
1175.633412  	75.600690 
1176.597836  	75.189200 
1177.562261  	74.819962 
1178.526685  	74.559473 
1179.491110  	74.499913 
1180.455534  	74.580048 
1181.419959  	74.810071 
1182.384383  	75.062525 
1183.348808  	75.305412 
1184.313232  	75.536860 
1185.277656  	75.676408 
1186.242081  	75.731138 
1187.206505  	75.697350 
1188.170930  	75.581808 
1189.135354  	75.286282 
1190.099779  	74.843702 
1191.064203  	74.318139 
1192.028628  	73.626018 
1192.993052  	72.773954 
1193.957477  	71.864481 
1194.921901  	70.998908 
1195.886325  	70.299100 
1196.850750  	69.879282 
1197.815174  	69.927565 
1198.779599  	70.472962 
1199.744023  	71.377186 
1200.708448  	72.422518 
1201.672872  	73.530541 
1202.637297  	74.639809 
1203.601721  	75.578398 
1204.566146  	76.334911 
1205.530570  	77.019731 
1206.494994  	77.610047 
1207.459419  	78.082235 
1208.423843  	78.409108 
1209.388268  	78.659725 
1210.352692  	78.872781 
1211.317117  	78.965898 
1212.281541  	79.005036 
1213.245966  	79.096423 
1214.210390  	79.130161 
1215.174815  	79.075132 
1216.139239  	79.009709 
1217.103663  	78.942756 
1218.068088  	78.844341 
1219.032512  	78.625907 
1219.996937  	78.334776 
1220.961361  	78.002757 
1221.925786  	77.617308 
1222.890210  	77.223653 
1223.854635  	76.932683 
1224.819059  	76.809381 
1225.783484  	76.953669 
1226.747908  	77.213412 
1227.712332  	77.381660 
1228.676757  	77.411605 
1229.641181  	77.336794 
1230.605606  	77.184370 
1231.570030  	76.979869 
1232.534455  	76.794840 
1233.498879  	76.655712 
1234.463304  	76.485471 
1235.427728  	76.313336 
1236.392153  	76.175398 
1237.356577  	76.070028 
1238.321002  	75.973094 
1239.285426  	75.891346 
1240.249850  	75.817260 
1241.214275  	75.738358 
1242.178699  	75.631379 
1243.143124  	75.480691 
1244.107548  	75.331018 
1245.071973  	75.266497 
1246.036397  	75.150697 
1247.000822  	74.992043 
1247.965246  	74.861352 
1248.929671  	74.741328 
1249.894095  	74.604290 
1250.858519  	74.475556 
1251.822944  	74.348459 
1252.787368  	74.192750 
1253.751793  	74.022107 
1254.716217  	73.821323 
1255.680642  	73.646211 
1256.645066  	73.488488 
1257.609491  	73.252660 
1258.573915  	72.953513 
1259.538340  	72.581313 
1260.502764  	72.226791 
1261.467188  	72.046811 
1262.431613  	71.796428 
1263.396037  	71.439790 
1264.360462  	71.112118 
1265.324886  	70.786057 
1266.289311  	70.427992 
1267.253735  	70.130313 
1268.218160  	69.836166 
1269.182584  	69.491497 
1270.147009  	69.152929 
1271.111433  	68.949399 
1272.075857  	68.794397 
1273.040282  	68.785668 
1274.004706  	68.814665 
1274.969131  	68.933242 
1275.933555  	69.179080 
1276.897980  	69.569993 
1277.862404  	70.127852 
1278.826829  	70.783884 
1279.791253  	71.438706 
1280.755678  	72.151693 
1281.720102  	72.901209 
1282.684526  	73.601193 
1283.648951  	74.228485 
1284.613375  	74.783946 
1285.577800  	75.308236 
1286.542224  	75.712896 
1287.506649  	75.932549 
1288.471073  	76.223175 
1289.435498  	76.639276 
1290.399922  	76.917208 
1291.364347  	77.120282 
1292.328771  	77.326437 
1293.293195  	77.481100 
1294.257620  	77.606644 
1295.222044  	77.657562 
1296.186469  	77.616911 
1297.150893  	77.620777 
1298.115318  	77.719208 
1299.079742  	77.696762 
1300.044167  	77.657910 
1301.008591  	77.650959 
1301.973016  	77.662684 
1302.937440  	77.661325 
1303.901865  	77.711290 
1304.866289  	77.788518 
1305.830713  	77.846633 
1306.795138  	77.908209 
1307.759562  	77.939113 
1308.723987  	78.032080 
1309.688411  	78.217170 
1310.652836  	78.298077 
1311.617260  	78.252701 
1312.581685  	77.980968 
1313.546109  	78.038617 
1314.510534  	78.211144 
1315.474958  	78.398779 
1316.439382  	78.321920 
1317.403807  	78.186850 
1318.368231  	78.176154 
1319.332656  	78.062073 
1320.297080  	78.330518 
1321.261505  	78.526384 
1322.225929  	78.613097 
1323.190354  	78.529233 
1324.154778  	78.506369 
1325.119203  	78.471426 
1326.083627  	78.406421 
1327.048051  	78.324968 
1328.012476  	78.251640 
1328.976900  	78.186466 
1329.941325  	78.142779 
1330.905749  	78.150742 
1331.870174  	78.177539 
1332.834598  	78.130254 
1333.799023  	78.064346 
1334.763447  	77.978742 
1335.727872  	77.658186 
1336.692296  	77.110457 
1337.656720  	76.943633 
1338.621145  	76.266904 
1339.585569  	75.594683 
1340.549994  	75.809444 
1341.514418  	76.817223 
1342.478843  	77.241625 
1343.443267  	77.162276 
1344.407692  	77.070001 
1345.372116  	76.983716 
1346.336541  	76.868643 
1347.300965  	76.756729 
1348.265389  	76.574103 
1349.229814  	76.268753 
1350.194238  	76.135705 
1351.158663  	76.047176 
1352.123087  	75.843810 
1353.087512  	75.629021 
1354.051936  	75.263209 
1355.016361  	74.835013 
1355.980785  	74.835545 
1356.945210  	74.739609 
1357.909634  	74.435410 
1358.874059  	74.243863 
1359.838483  	74.034240 
1360.802907  	73.270032 
1361.767332  	72.651291 
1362.731756  	71.800682 
1363.696181  	71.762735 
1364.660605  	72.672079 
1365.625030  	72.718727 
1366.589454  	72.536827 
1367.553879  	72.137281 
1368.518303  	71.538012 
1369.482728  	71.468324 
1370.447152  	71.733523 
1371.411576  	71.772118 
1372.376001  	71.753026 
1373.340425  	71.353749 
1374.304850  	71.241286 
1375.269274  	72.036301 
1376.233699  	73.106897 
1377.198123  	73.567470 
1378.162548  	73.716071 
1379.126972  	74.199746 
1380.091397  	74.705596 
1381.055821  	75.179594 
1382.020245  	75.473246 
1382.984670  	75.704688 
1383.949094  	75.930067 
1384.913519  	76.119959 
1385.877943  	75.907014 
1386.842368  	75.155572 
1387.806792  	75.215364 
1388.771217  	76.405096 
1389.735641  	76.969929 
1390.700066  	77.137286 
1391.664490  	77.367864 
1392.628914  	77.617922 
1393.593339  	77.263231 
1394.557763  	76.347457 
1395.522188  	76.420567 
1396.486612  	77.213566 
1397.451037  	77.269616 
1398.415461  	76.727849 
1399.379886  	76.658065 
1400.344310  	77.477155 
1401.308735  	77.854081 
1402.273159  	77.723350 
1403.237583  	77.435172 
1404.202008  	76.675865 
1405.166432  	75.733700 
1406.130857  	75.925486 
1407.095281  	75.882120 
1408.059706  	75.293984 
1409.024130  	74.479363 
1409.988555  	73.351659 
1410.952979  	72.165500 
1411.917404  	70.791536 
1412.881828  	69.612854 
1413.846252  	68.331953 
1414.810677  	67.047493 
1415.775101  	65.999651 
1416.739526  	65.577102 
1417.703950  	66.006127 
1418.668375  	66.547787 
1419.632799  	68.020701 
1420.597224  	70.908841 
1421.561648  	72.017576 
1422.526073  	72.624860 
1423.490497  	72.270142 
1424.454922  	72.528158 
1425.419346  	73.765589 
1426.383770  	74.278617 
1427.348195  	74.337629 
1428.312619  	74.116660 
1429.277044  	73.624381 
1430.241468  	73.230473 
1431.205893  	73.524894 
1432.170317  	73.366506 
1433.134742  	73.005959 
1434.099166  	73.041258 
1435.063591  	72.745062 
1436.028015  	71.465038 
1436.992439  	70.850840 
1437.956864  	72.261157 
1438.921288  	72.807123 
1439.885713  	72.939919 
1440.850137  	73.022407 
1441.814562  	73.104424 
1442.778986  	73.199985 
1443.743411  	73.224949 
1444.707835  	73.184914 
1445.672260  	73.114806 
1446.636684  	72.920248 
1447.601108  	72.186118 
1448.565533  	72.102034 
1449.529957  	72.666046 
1450.494382  	72.565454 
1451.458806  	71.867388 
1452.423231  	71.226784 
1453.387655  	71.207121 
1454.352080  	70.472992 
1455.316504  	69.184410 
1456.280929  	68.035797 
1457.245353  	67.100882 
1458.209777  	66.815784 
1459.174202  	67.019567 
1460.138626  	67.458845 
1461.103051  	67.273438 
1462.067475  	66.432057 
1463.031900  	65.724275 
1463.996324  	64.984768 
1464.960749  	64.585959 
1465.925173  	66.020605 
1466.889598  	67.354629 
1467.854022  	68.468653 
1468.818446  	69.401592 
1469.782871  	69.699027 
1470.747295  	69.057441 
1471.711720  	67.128233 
1472.676144  	65.108082 
1473.640569  	65.055267 
1474.604993  	66.229014 
1475.569418  	66.435419 
1476.533842  	66.947557 
1477.498267  	69.107795 
1478.462691  	70.726263 
1479.427116  	72.031898 
1480.391540  	73.031703 
1481.355964  	73.791575 
1482.320389  	75.307952 
1483.284813  	76.443434 
1484.249238  	77.116080 
1485.213662  	77.264624 
1486.178087  	76.905606 
1487.142511  	76.355438 
1488.106936  	76.397377 
1489.071360  	75.425473 
1490.035785  	73.986471 
1491.000209  	74.890679 
1491.964633  	76.178495 
1492.929058  	76.456711 
1493.893482  	76.123435 
1494.857907  	75.459154 
1495.822331  	74.209750 
1496.786756  	73.508239 
1497.751180  	73.723726 
1498.715605  	72.978625 
1499.680029  	72.875866 
1500.644454  	72.872346 
1501.608878  	72.189964 
1502.573302  	71.832891 
1503.537727  	71.569849 
1504.502151  	70.606743 
1505.466576  	68.648312 
1506.431000  	65.065096 
1507.395425  	63.522421 
1508.359849  	64.481436 
1509.324274  	65.049395 
1510.288698  	65.176516 
1511.253123  	65.323543 
1512.217547  	64.413723 
1513.181971  	64.072844 
1514.146396  	63.592620 
1515.110820  	62.028126 
1516.075245  	60.393939 
1517.039669  	58.618947 
1518.004094  	58.856880 
1518.968518  	58.896596 
1519.932943  	57.353858 
1520.897367  	54.579843 
1521.861792  	53.820046 
1522.826216  	53.880322 
1523.790640  	53.760415 
1524.755065  	52.664988 
1525.719489  	51.447678 
1526.683914  	50.958549 
1527.648338  	50.056677 
1528.612763  	49.641607 
1529.577187  	49.812363 
1530.541612  	49.598387 
1531.506036  	48.871953 
1532.470461  	48.352380 
1533.434885  	47.859075 
1534.399309  	48.808705 
1535.363734  	49.731918 
1536.328158  	50.474119 
1537.292583  	51.010062 
1538.257007  	50.598474 
1539.221432  	49.516789 
1540.185856  	51.086264 
1541.150281  	52.598410 
1542.114705  	53.258057 
1543.079130  	54.536221 
1544.043554  	55.097172 
1545.007979  	55.553960 
1545.972403  	57.482946 
1546.936827  	59.108830 
1547.901252  	59.905346 
1548.865676  	60.101543 
1549.830101  	59.464345 
1550.794525  	60.865122 
1551.758950  	62.422033 
1552.723374  	62.901468 
1553.687799  	62.579365 
1554.652223  	62.738719 
1555.616648  	64.191970 
1556.581072  	64.521872 
1557.545496  	63.646314 
1558.509921  	61.352632 
1559.474345  	61.498373 
1560.438770  	65.108245 
1561.403194  	67.622811 
1562.367619  	68.639332 
1563.332043  	69.273032 
1564.296468  	69.421255 
1565.260892  	69.831593 
1566.225317  	70.959541 
1567.189741  	71.609914 
1568.154165  	71.687505 
1569.118590  	70.872871 
1570.083014  	71.617578 
1571.047439  	73.380339 
1572.011863  	74.103236 
1572.976288  	74.535983 
1573.940712  	74.932127 
1574.905137  	74.866828 
1575.869561  	74.165411 
1576.833986  	74.415579 
1577.798410  	75.617343 
1578.762834  	76.416646 
1579.727259  	76.899504 
1580.691683  	77.178031 
1581.656108  	77.385403 
1582.620532  	77.484483 
1583.584957  	77.581067 
1584.549381  	77.654557 
1585.513806  	77.724900 
1586.478230  	77.698832 
1587.442655  	77.693433 
1588.407079  	77.572349 
1589.371503  	77.294680 
1590.335928  	77.027716 
1591.300352  	76.911171 
1592.264777  	76.666142 
1593.229201  	76.392350 
1594.193626  	75.808770 
1595.158050  	75.393289 
1596.122475  	75.044396 
1597.086899  	74.676856 
1598.051324  	74.235784 
1599.015748  	73.682195 
1599.980173  	72.991155 
1600.944597  	72.136542 
1601.909021  	71.227463 
1602.873446  	70.252716 
1603.837870  	69.344822 
1604.802295  	68.680393 
1605.766719  	67.772822 
1606.731144  	66.682285 
1607.695568  	65.683687 
1608.659993  	64.916738 
1609.624417  	63.817343 
1610.588842  	63.176232 
1611.553266  	62.314536 
1612.517690  	61.265816 
1613.482115  	60.107525 
1614.446539  	58.919715 
1615.410964  	57.434677 
1616.375388  	55.629444 
1617.339813  	54.147041 
1618.304237  	53.908140 
1619.268662  	53.098140 
1620.233086  	52.162598 
1621.197511  	51.160640 
1622.161935  	50.096511 
1623.126359  	48.635500 
1624.090784  	48.150588 
1625.055208  	47.962560 
1626.019633  	47.450722 
1626.984057  	46.522236 
1627.948482  	45.651862 
1628.912906  	45.373598 
1629.877331  	45.151387 
1630.841755  	44.788044 
1631.806180  	44.696269 
1632.770604  	44.794120 
1633.735028  	44.948926 
1634.699453  	44.498878 
1635.663877  	44.915672 
1636.628302  	46.794175 
1637.592726  	47.801241 
1638.557151  	49.499381 
1639.521575  	50.787692 
1640.486000  	51.963743 
1641.450424  	53.331520 
1642.414849  	54.537511 
1643.379273  	55.943647 
1644.343697  	57.081589 
1645.308122  	57.468708 
1646.272546  	57.878126 
1647.236971  	59.009422 
1648.201395  	60.611274 
1649.165820  	63.106063 
1650.130244  	64.523247 
1651.094669  	65.238994 
1652.059093  	64.930309 
1653.023518  	63.347380 
1653.987942  	65.405713 
1654.952366  	68.604274 
1655.916791  	70.620416 
1656.881215  	71.747412 
1657.845640  	72.893559 
1658.810064  	74.053073 
1659.774489  	74.993716 
1660.738913  	75.621256 
1661.703338  	75.937211 
1662.667762  	76.228332 
1663.632187  	77.793056 
1664.596611  	79.142347 
1665.561036  	80.058138 
1666.525460  	80.912771 
1667.489884  	81.252297 
1668.454309  	80.710773 
1669.418733  	80.799845 
1670.383158  	82.448403 
1671.347582  	82.799288 
1672.312007  	83.758192 
1673.276431  	84.863081 
1674.240856  	84.974870 
1675.205280  	84.272880 
1676.169705  	85.326780 
1677.134129  	86.633417 
1678.098553  	87.203672 
1679.062978  	87.197836 
1680.027402  	86.314010 
1680.991827  	86.846334 
1681.956251  	87.938443 
1682.920676  	87.244632 
1683.885100  	84.124072 
1684.849525  	84.448257 
1685.813949  	88.210787 
1686.778374  	89.343824 
1687.742798  	89.144311 
1688.707222  	88.839295 
1689.671647  	89.345718 
1690.636071  	89.741287 
1691.600496  	90.499792 
1692.564920  	90.739747 
1693.529345  	90.670066 
1694.493769  	90.183007 
1695.458194  	88.953042 
1696.422618  	87.991577 
1697.387043  	89.003310 
1698.351467  	89.491721 
1699.315891  	89.190177 
1700.280316  	86.734229 
1701.244740  	88.336979 
1702.209165  	89.821171 
1703.173589  	90.234579 
1704.138014  	89.769726 
1705.102438  	89.577091 
1706.066863  	89.657372 
1707.031287  	89.675925 
1707.995712  	90.527128 
1708.960136  	90.903103 
1709.924560  	90.432312 
1710.888985  	90.404089 
1711.853409  	90.845455 
1712.817834  	90.550150 
1713.782258  	89.647958 
1714.746683  	88.555272 
1715.711107  	88.592821 
1716.675532  	88.789689 
1717.639956  	87.419589 
1718.604381  	87.105266 
1719.568805  	89.240353 
1720.533230  	90.174450 
1721.497654  	90.237706 
1722.462078  	90.058129 
1723.426503  	89.608512 
1724.390927  	89.735255 
1725.355352  	90.124402 
1726.319776  	90.095703 
1727.284201  	90.031478 
1728.248625  	89.933928 
1729.213050  	89.231001 
1730.177474  	87.992928 
1731.141899  	88.752261 
1732.106323  	89.016473 
1733.070747  	87.815095 
1734.035172  	85.663200 
1734.999596  	87.300268 
1735.964021  	89.249991 
1736.928445  	89.779686 
1737.892870  	89.785935 
1738.857294  	89.698840 
1739.821719  	89.115973 
1740.786143  	89.865591 
1741.750568  	90.608992 
1742.714992  	89.998092 
1743.679416  	89.061353 
1744.643841  	89.954407 
1745.608265  	90.598732 
1746.572690  	90.379045 
1747.537114  	89.944606 
1748.501539  	89.631681 
1749.465963  	89.803839 
1750.430388  	90.189096 
1751.394812  	89.417990 
1752.359237  	90.621603 
1753.323661  	91.796206 
1754.288085  	92.261557 
1755.252510  	92.292120 
1756.216934  	91.659749 
1757.181359  	91.001298 
1758.145783  	91.699510 
1759.110208  	92.156505 
1760.074632  	92.349202 
1761.039057  	91.765359 
1762.003481  	90.829705 
1762.967906  	91.804830 
1763.932330  	92.566054 
1764.896754  	92.703125 
1765.861179  	92.727002 
1766.825603  	92.540607 
1767.790028  	91.639471 
1768.754452  	91.327689 
1769.718877  	92.314057 
1770.683301  	92.055021 
1771.647726  	90.998380 
1772.612150  	90.563067 
1773.576575  	91.623980 
1774.540999  	92.262955 
1775.505423  	91.939749 
1776.469848  	92.189696 
1777.434272  	92.869109 
1778.398697  	92.679781 
1779.363121  	92.339206 
1780.327546  	91.862501 
1781.291970  	91.831053 
1782.256395  	92.551569 
1783.220819  	92.873758 
1784.185244  	92.522916 
1785.149668  	91.983101 
1786.114093  	92.491147 
1787.078517  	92.908922 
1788.042941  	92.883443 
1789.007366  	92.832219 
1789.971790  	92.511747 
1790.936215  	91.600857 
1791.900639  	91.182429 
1792.865064  	91.115538 
1793.829488  	91.988758 
1794.793913  	92.458662 
1795.758337  	91.867938 
1796.722762  	91.933707 
1797.687186  	92.690543 
1798.651610  	92.709586 
1799.616035  	92.115210 
1800.580459  	92.068243 
1801.544884  	91.859453 
1802.509308  	91.676075 
1803.473733  	92.457289 
1804.438157  	92.963158 
1805.402582  	92.947801 
1806.367006  	92.908195 
1807.331431  	92.626743 
1808.295855  	92.554706 
1809.260279  	92.870717 
1810.224704  	92.461760 
1811.189128  	92.034857 
1812.153553  	92.357462 
1813.117977  	92.711792 
1814.082402  	93.098501 
1815.046826  	93.138350 
1816.011251  	93.151178 
1816.975675  	92.868187 
1817.940100  	92.700535 
1818.904524  	92.978032 
1819.868948  	93.105063 
1820.833373  	93.018022 
1821.797797  	92.969217 
1822.762222  	92.727553 
1823.726646  	92.715470 
1824.691071  	92.142470 
1825.655495  	91.501285 
1826.619920  	92.491972 
1827.584344  	92.922893 
1828.548769  	92.481450 
1829.513193  	91.299663 
1830.477617  	91.228547 
1831.442042  	92.489909 
1832.406466  	92.868333 
1833.370891  	92.718212 
1834.335315  	92.900767 
1835.299740  	93.091933 
1836.264164  	92.914025 
1837.228589  	92.488783 
1838.193013  	92.656989 
1839.157438  	92.982038 
1840.121862  	92.984476 
1841.086287  	92.959077 
1842.050711  	92.601719 
1843.015135  	92.284873 
1843.979560  	91.547677 
1844.943984  	91.331342 
1845.908409  	92.142314 
1846.872833  	92.440602 
1847.837258  	92.025874 
1848.801682  	92.283967 
1849.766107  	92.824728 
1850.730531  	93.066963 
1851.694956  	93.090249 
1852.659380  	93.029748 
1853.623804  	93.010252 
1854.588229  	93.012638 
1855.552653  	93.007142 
1856.517078  	92.995735 
1857.481502  	92.959042 
1858.445927  	92.813910 
1859.410351  	92.757934 
1860.374776  	92.871846 
1861.339200  	92.742076 
1862.303625  	92.742753 
1863.268049  	92.868934 
1864.232473  	92.936570 
1865.196898  	92.947446 
1866.161322  	92.601883 
1867.125747  	92.137081 
1868.090171  	91.623671 
1869.054596  	91.216774 
1870.019020  	91.702926 
1870.983445  	92.365918 
1871.947869  	92.810350 
1872.912294  	93.058246 
1873.876718  	93.126251 
1874.841142  	93.063784 
1875.805567  	93.029874 
1876.769991  	92.999670 
1877.734416  	93.004102 
1878.698840  	92.947400 
1879.663265  	92.936052 
1880.627689  	93.021594 
1881.592114  	93.002667 
1882.556538  	92.984955 
1883.520963  	93.014017 
1884.485387  	92.868991 
1885.449811  	92.823201 
1886.414236  	93.015139 
1887.378660  	93.082272 
1888.343085  	92.818296 
1889.307509  	92.038942 
1890.271934  	91.975770 
1891.236358  	92.728915 
1892.200783  	92.979936 
1893.165207  	92.975176 
1894.129632  	92.787428 
1895.094056  	92.369999 
1896.058480  	92.527344 
1897.022905  	93.036560 
1897.987329  	93.003946 
1898.951754  	92.935575 
1899.916178  	92.937078 
1900.880603  	93.016981 
1901.845027  	92.916511 
1902.809452  	92.997662 
1903.773876  	92.939865 
1904.738301  	92.872576 
1905.702725  	92.926682 
1906.667150  	92.922502 
1907.631574  	92.569481 
1908.595998  	92.457924 
1909.560423  	92.352598 
1910.524847  	92.384844 
1911.489272  	92.834217 
1912.453696  	92.936378 
1913.418121  	92.867255 
1914.382545  	92.805439 
1915.346970  	92.830212 
1916.311394  	92.913712 
1917.275819  	92.521866 
1918.240243  	91.859504 
1919.204667  	92.443542 
1920.169092  	92.860494 
1921.133516  	92.819704 
1922.097941  	92.341285 
1923.062365  	91.746396 
1924.026790  	92.487487 
1924.991214  	93.058161 
1925.955639  	92.982699 
1926.920063  	93.002789 
1927.884488  	93.120080 
1928.848912  	93.197181 
1929.813336  	93.272093 
1930.777761  	93.265993 
1931.742185  	93.234701 
1932.706610  	93.165984 
1933.671034  	93.272302 
1934.635459  	93.318101 
1935.599883  	93.306158 
1936.564308  	93.307839 
1937.528732  	93.216739 
1938.493157  	93.183870 
1939.457581  	93.415482 
1940.422005  	93.249660 
1941.386430  	92.654999 
1942.350854  	91.693173 
1943.315279  	91.930795 
1944.279703  	92.888880 
1945.244128  	92.986649 
1946.208552  	92.911066 
1947.172977  	92.991842 
1948.137401  	93.057385 
1949.101826  	93.085301 
1950.066250  	93.190738 
1951.030674  	93.234387 
1951.995099  	93.297960 
1952.959523  	93.350213 
1953.923948  	93.136919 
1954.888372  	93.135787 
1955.852797  	93.333259 
1956.817221  	93.644325 
1957.781646  	93.671142 
1958.746070  	93.512598 
1959.710495  	93.394411 
1960.674919  	93.290986 
1961.639344  	93.322211 
1962.603768  	93.186738 
1963.568192  	93.067389 
1964.532617  	93.380394 
1965.497041  	93.662906 
1966.461466  	93.600253 
1967.425890  	93.135020 
1968.390315  	93.326988 
1969.354739  	93.684821 
1970.319164  	93.594236 
1971.283588  	93.629327 
1972.248013  	93.659638 
1973.212437  	93.716566 
1974.176861  	93.814019 
1975.141286  	93.661738 
1976.105710  	93.536018 
1977.070135  	93.554208 
1978.034559  	93.616621 
1978.998984  	93.026939 
1979.963408  	92.715424 
1980.927833  	92.878783 
1981.892257  	93.080366 
1982.856682  	93.183863 
1983.821106  	93.272669 
1984.785530  	93.330355 
1985.749955  	93.371229 
1986.714379  	93.308341 
1987.678804  	93.035439 
1988.643228  	92.911697 
1989.607653  	93.184991 
1990.572077  	93.073293 
1991.536502  	92.630809 
1992.500926  	92.369622 
1993.465351  	92.792882 
1994.429775  	93.108334 
1995.394199  	93.211665 
1996.358624  	93.222436 
1997.323048  	93.302367 
1998.287473  	93.157074 
1999.251897  	93.241425 
2000.216322  	93.645347 
2001.180746  	93.953742 
2002.145171  	93.862595 
2003.109595  	93.986910 
2004.074020  	94.166436 
2005.038444  	94.178713 
2006.002868  	93.682507 
2006.967293  	93.302144 
2007.931717  	93.209922 
2008.896142  	93.424013 
2009.860566  	93.470248 
2010.824991  	93.641094 
2011.789415  	93.792877 
2012.753840  	93.760267 
2013.718264  	93.566977 
2014.682689  	93.400356 
2015.647113  	93.374255 
2016.611537  	93.258152 
2017.575962  	93.076741 
2018.540386  	93.210892 
2019.504811  	93.447206 
2020.469235  	93.663966 
2021.433660  	93.583431 
2022.398084  	93.427791 
2023.362509  	93.260041 
2024.326933  	93.302968 
2025.291358  	93.314881 
2026.255782  	93.186590 
2027.220207  	93.135665 
2028.184631  	93.203466 
2029.149055  	93.390088 
2030.113480  	93.628135 
2031.077904  	93.608444 
2032.042329  	93.396376 
2033.006753  	93.318382 
2033.971178  	93.316725 
2034.935602  	93.396124 
2035.900027  	93.716781 
2036.864451  	93.364535 
2037.828876  	93.134567 
2038.793300  	93.180366 
2039.757724  	93.100204 
2040.722149  	92.914605 
2041.686573  	92.629504 
2042.650998  	92.578727 
2043.615422  	92.779991 
2044.579847  	93.027041 
2045.544271  	93.248766 
2046.508696  	93.359970 
2047.473120  	93.356535 
2048.437545  	93.291494 
2049.401969  	93.359691 
2050.366393  	93.038943 
2051.330818  	92.905280 
2052.295242  	93.123564 
2053.259667  	93.270601 
2054.224091  	93.251462 
2055.188516  	93.113530 
2056.152940  	93.004707 
2057.117365  	92.902639 
2058.081789  	92.807608 
2059.046214  	92.994822 
2060.010638  	92.948297 
2060.975062  	92.849307 
2061.939487  	92.910784 
2062.903911  	92.983239 
2063.868336  	92.985539 
2064.832760  	92.866360 
2065.797185  	92.844630 
2066.761609  	92.745153 
2067.726034  	92.759413 
2068.690458  	92.964421 
2069.654883  	92.910901 
2070.619307  	92.790829 
2071.583731  	92.778990 
2072.548156  	92.834403 
2073.512580  	92.794830 
2074.477005  	92.618962 
2075.441429  	92.738248 
2076.405854  	92.795049 
2077.370278  	92.696696 
2078.334703  	92.790806 
2079.299127  	92.798395 
2080.263552  	92.700853 
2081.227976  	92.628382 
2082.192401  	92.665129 
2083.156825  	92.539477 
2084.121249  	92.571098 
2085.085674  	92.837957 
2086.050098  	92.950416 
2087.014523  	92.884625 
2087.978947  	92.872409 
2088.943372  	92.821245 
2089.907796  	92.727905 
2090.872221  	92.779796 
2091.836645  	93.094814 
2092.801070  	93.117999 
2093.765494  	93.124173 
2094.729918  	93.094803 
2095.694343  	92.954177 
2096.658767  	92.837110 
2097.623192  	92.790334 
2098.587616  	92.764267 
2099.552041  	92.793042 
2100.516465  	92.781280 
2101.480890  	92.891264 
2102.445314  	92.862001 
2103.409739  	92.763454 
2104.374163  	92.788752 
2105.338587  	92.757923 
2106.303012  	92.752441 
2107.267436  	92.706678 
2108.231861  	92.645768 
2109.196285  	92.706357 
2110.160710  	92.820421 
2111.125134  	92.951896 
2112.089559  	92.795033 
2113.053983  	92.701711 
2114.018408  	92.712487 
2114.982832  	92.709500 
2115.947256  	92.679922 
2116.911681  	92.717052 
2117.876105  	92.798142 
2118.840530  	92.883807 
2119.804954  	92.927546 
2120.769379  	92.871986 
2121.733803  	92.826902 
2122.698228  	93.053032 
2123.662652  	93.129083 
2124.627077  	93.113611 
2125.591501  	93.201630 
2126.555925  	93.399161 
2127.520350  	93.278477 
2128.484774  	93.222710 
2129.449199  	93.395994 
2130.413623  	93.419336 
2131.378048  	93.355515 
2132.342472  	93.499212 
2133.306897  	93.689047 
2134.271321  	93.639885 
2135.235746  	93.221521 
2136.200170  	92.978104 
2137.164594  	93.447323 
2138.129019  	93.733890 
2139.093443  	93.519369 
2140.057868  	93.426978 
2141.022292  	93.278756 
2141.986717  	93.197321 
2142.951141  	93.271921 
2143.915566  	93.435770 
2144.879990  	93.333434 
2145.844415  	93.392330 
2146.808839  	93.431353 
2147.773264  	93.506346 
2148.737688  	93.613457 
2149.702112  	93.579646 
2150.666537  	93.425832 
2151.630961  	93.618591 
2152.595386  	93.949894 
2153.559810  	94.066205 
2154.524235  	94.299251 
2155.488659  	94.488888 
2156.453084  	94.562487 
2157.417508  	94.201434 
2158.381933  	93.864893 
2159.346357  	93.521187 
2160.310781  	93.246243 
2161.275206  	92.998005 
2162.239630  	92.958214 
2163.204055  	93.238049 
2164.168479  	93.305363 
2165.132904  	93.273538 
2166.097328  	93.138988 
2167.061753  	93.282505 
2168.026177  	93.051750 
2168.990602  	92.942220 
2169.955026  	93.089634 
2170.919450  	93.432364 
2171.883875  	93.452407 
2172.848299  	93.464808 
2173.812724  	93.328147 
2174.777148  	93.294567 
2175.741573  	93.085036 
2176.705997  	92.965163 
2177.670422  	92.914029 
2178.634846  	93.264651 
2179.599271  	93.363564 
2180.563695  	93.299062 
2181.528119  	93.364865 
2182.492544  	93.100341 
2183.456968  	92.690338 
2184.421393  	92.650375 
2185.385817  	92.960794 
2186.350242  	93.083087 
2187.314666  	92.749130 
2188.279091  	92.624499 
2189.243515  	92.802882 
2190.207940  	93.034905 
2191.172364  	93.253206 
2192.136788  	93.298422 
2193.101213  	93.184480 
2194.065637  	93.005578 
2195.030062  	92.674484 
2195.994486  	92.488230 
2196.958911  	92.622767 
2197.923335  	92.850512 
2198.887760  	92.959168 
2199.852184  	93.121940 
2200.816609  	93.162775 
2201.781033  	93.086628 
2202.745458  	93.152928 
2203.709882  	93.056375 
2204.674306  	92.839118 
2205.638731  	92.796149 
2206.603155  	92.786246 
2207.567580  	92.932215 
2208.532004  	92.971885 
2209.496429  	92.978165 
2210.460853  	92.844929 
2211.425278  	92.853233 
2212.389702  	92.822430 
2213.354127  	92.707178 
2214.318551  	92.656091 
2215.282975  	92.684695 
2216.247400  	92.825578 
2217.211824  	92.942318 
2218.176249  	92.882545 
2219.140673  	92.882740 
2220.105098  	92.780773 
2221.069522  	92.876580 
2222.033947  	93.022889 
2222.998371  	92.909778 
2223.962796  	92.732848 
2224.927220  	92.877326 
2225.891644  	92.861714 
2226.856069  	92.685730 
2227.820493  	92.685204 
2228.784918  	92.776502 
2229.749342  	92.724165 
2230.713767  	92.735842 
2231.678191  	92.690564 
2232.642616  	92.646185 
2233.607040  	92.715574 
2234.571465  	92.704923 
2235.535889  	92.669001 
2236.500313  	92.864955 
2237.464738  	92.918337 
2238.429162  	92.885710 
2239.393587  	92.797033 
2240.358011  	92.725402 
2241.322436  	92.832330 
2242.286860  	92.734369 
2243.251285  	92.601582 
2244.215709  	92.636959 
2245.180134  	92.573089 
2246.144558  	92.488204 
2247.108982  	92.558968 
2248.073407  	92.781971 
2249.037831  	92.804156 
2250.002256  	92.630637 
2250.966680  	92.635119 
2251.931105  	92.746576 
2252.895529  	92.685381 
2253.859954  	92.735042 
2254.824378  	92.769450 
2255.788803  	92.725023 
2256.753227  	92.644408 
2257.717651  	92.635450 
2258.682076  	92.575277 
2259.646500  	92.617415 
2260.610925  	92.519256 
2261.575349  	92.508266 
2262.539774  	92.515849 
2263.504198  	92.497314 
2264.468623  	92.528080 
2265.433047  	92.604282 
2266.397472  	92.551475 
2267.361896  	92.564790 
2268.326321  	92.594109 
2269.290745  	92.617983 
2270.255169  	92.638971 
2271.219594  	92.670376 
2272.184018  	92.621083 
2273.148443  	92.550205 
2274.112867  	92.522758 
2275.077292  	92.525196 
2276.041716  	92.460710 
2277.006141  	92.437313 
2277.970565  	92.424180 
2278.934990  	92.425386 
2279.899414  	92.427075 
2280.863838  	92.428066 
2281.828263  	92.388439 
2282.792687  	92.304410 
2283.757112  	92.254514 
2284.721536  	92.289216 
2285.685961  	92.295315 
2286.650385  	92.303836 
2287.614810  	92.258395 
2288.579234  	92.252615 
2289.543659  	92.239921 
2290.508083  	92.307953 
2291.472507  	92.281418 
2292.436932  	92.258228 
2293.401356  	92.223866 
2294.365781  	92.141320 
2295.330205  	92.153942 
2296.294630  	92.139982 
2297.259054  	92.130486 
2298.223479  	92.048430 
2299.187903  	92.050819 
2300.152328  	92.134296 
2301.116752  	92.125237 
2302.081176  	92.103032 
2303.045601  	91.980958 
2304.010025  	92.077894 
2304.974450  	91.897934 
2305.938874  	91.872006 
2306.903299  	91.827644 
2307.867723  	91.864175 
2308.832148  	91.666727 
2309.796572  	91.650927 
2310.760997  	91.754765 
2311.725421  	91.782475 
2312.689845  	91.884668 
2313.654270  	91.889857 
2314.618694  	91.932624 
2315.583119  	92.021192 
2316.547543  	92.077671 
2317.511968  	92.017587 
2318.476392  	91.936557 
2319.440817  	91.880475 
2320.405241  	91.904582 
2321.369666  	91.970656 
2322.334090  	92.040631 
2323.298515  	92.058899 
2324.262939  	92.014674 
2325.227363  	92.373121 
2326.191788  	92.758504 
2327.156212  	92.957407 
2328.120637  	92.939570 
2329.085061  	92.980119 
2330.049486  	93.036870 
2331.013910  	93.040729 
2331.978335  	93.093762 
2332.942759  	93.271600 
2333.907184  	93.423938 
2334.871608  	93.533619 
2335.836032  	93.685640 
2336.800457  	93.808061 
2337.764881  	93.822588 
2338.729306  	93.849885 
2339.693730  	93.705720 
2340.658155  	93.769759 
2341.622579  	93.872802 
2342.587004  	93.714535 
2343.551428  	93.479764 
2344.515853  	93.303055 
2345.480277  	93.210511 
2346.444701  	93.036431 
2347.409126  	92.844831 
2348.373550  	92.531857 
2349.337975  	92.387688 
2350.302399  	92.591410 
2351.266824  	92.949293 
2352.231248  	93.377969 
2353.195673  	93.569858 
2354.160097  	93.596502 
2355.124522  	93.683996 
2356.088946  	93.918234 
2357.053370  	94.042549 
2358.017795  	94.192100 
2358.982219  	94.194134 
2359.946644  	94.405646 
2360.911068  	94.422798 
2361.875493  	94.185774 
2362.839917  	94.112360 
2363.804342  	94.171032 
2364.768766  	94.139551 
2365.733191  	94.119332 
2366.697615  	93.934796 
2367.662039  	93.730910 
2368.626464  	93.493654 
2369.590888  	93.259861 
2370.555313  	93.090297 
2371.519737  	92.945752 
2372.484162  	92.795510 
2373.448586  	92.758911 
2374.413011  	92.609594 
2375.377435  	92.430578 
2376.341860  	92.309335 
2377.306284  	92.185549 
2378.270708  	92.094131 
2379.235133  	92.020355 
2380.199557  	92.081645 
2381.163982  	92.157448 
2382.128406  	92.205850 
2383.092831  	92.258048 
2384.057255  	92.288289 
2385.021680  	92.381431 
2385.986104  	92.496190 
2386.950529  	92.595126 
2387.914953  	92.634006 
2388.879378  	92.640718 
2389.843802  	92.692595 
2390.808226  	92.687262 
2391.772651  	92.659379 
2392.737075  	92.677349 
2393.701500  	92.679304 
2394.665924  	92.660859 
2395.630349  	92.672787 
2396.594773  	92.708631 
2397.559198  	92.708813 
2398.523622  	92.719805 
2399.488047  	92.745759 
2400.452471  	92.716105 
2401.416895  	92.663033 
2402.381320  	92.651632 
2403.345744  	92.689149 
2404.310169  	92.732028 
2405.274593  	92.682751 
2406.239018  	92.641827 
2407.203442  	92.646600 
2408.167867  	92.646898 
2409.132291  	92.631671 
2410.096716  	92.623955 
2411.061140  	92.584079 
2412.025564  	92.573558 
2412.989989  	92.605841 
2413.954413  	92.625709 
2414.918838  	92.662448 
2415.883262  	92.658125 
2416.847687  	92.621144 
2417.812111  	92.626644 
2418.776536  	92.619420 
2419.740960  	92.628268 
2420.705385  	92.666325 
2421.669809  	92.651765 
2422.634233  	92.637341 
2423.598658  	92.635386 
2424.563082  	92.643949 
2425.527507  	92.698822 
2426.491931  	92.635475 
2427.456356  	92.552859 
2428.420780  	92.585536 
2429.385205  	92.600122 
2430.349629  	92.575177 
2431.314054  	92.550483 
2432.278478  	92.589528 
2433.242902  	92.627315 
2434.207327  	92.589504 
2435.171751  	92.600904 
2436.136176  	92.635610 
2437.100600  	92.641539 
2438.065025  	92.610471 
2439.029449  	92.621329 
2439.993874  	92.634868 
2440.958298  	92.617961 
2441.922723  	92.544485 
2442.887147  	92.533487 
2443.851572  	92.588304 
2444.815996  	92.570397 
2445.780420  	92.533577 
2446.744845  	92.482967 
2447.709269  	92.478488 
2448.673694  	92.554317 
2449.638118  	92.601803 
2450.602543  	92.579681 
2451.566967  	92.526039 
2452.531392  	92.509773 
2453.495816  	92.456500 
2454.460241  	92.486054 
2455.424665  	92.506511 
2456.389089  	92.486411 
2457.353514  	92.480784 
2458.317938  	92.483446 
2459.282363  	92.464480 
2460.246787  	92.445623 
2461.211212  	92.421888 
2462.175636  	92.453975 
2463.140061  	92.470557 
2464.104485  	92.513192 
2465.068910  	92.532262 
2466.033334  	92.477116 
2466.997758  	92.449538 
2467.962183  	92.502500 
2468.926607  	92.493521 
2469.891032  	92.483977 
2470.855456  	92.464644 
2471.819881  	92.451955 
2472.784305  	92.485386 
2473.748730  	92.516227 
2474.713154  	92.513511 
2475.677579  	92.511334 
2476.642003  	92.456563 
2477.606427  	92.464323 
2478.570852  	92.519011 
2479.535276  	92.522341 
2480.499701  	92.466567 
2481.464125  	92.489534 
2482.428550  	92.521893 
2483.392974  	92.518968 
2484.357399  	92.585421 
2485.321823  	92.557941 
2486.286248  	92.440668 
2487.250672  	92.436568 
2488.215096  	92.471832 
2489.179521  	92.456177 
2490.143945  	92.398599 
2491.108370  	92.343855 
2492.072794  	92.381916 
2493.037219  	92.433562 
2494.001643  	92.429582 
2494.966068  	92.470623 
2495.930492  	92.554866 
2496.894917  	92.550340 
2497.859341  	92.507438 
2498.823765  	92.457924 
2499.788190  	92.458022 
2500.752614  	92.471108 
2501.717039  	92.434412 
2502.681463  	92.440307 
2503.645888  	92.448088 
2504.610312  	92.385766 
2505.574737  	92.374371 
2506.539161  	92.451788 
2507.503586  	92.491098 
2508.468010  	92.476465 
2509.432435  	92.424854 
2510.396859  	92.413193 
2511.361283  	92.434172 
2512.325708  	92.412646 
2513.290132  	92.395954 
2514.254557  	92.395002 
2515.218981  	92.394353 
2516.183406  	92.406176 
2517.147830  	92.458228 
2518.112255  	92.456921 
2519.076679  	92.405682 
2520.041104  	92.398878 
2521.005528  	92.351927 
2521.969952  	92.253686 
2522.934377  	92.280695 
2523.898801  	92.401195 
2524.863226  	92.411838 
2525.827650  	92.301050 
2526.792075  	92.294535 
2527.756499  	92.363290 
2528.720924  	92.338285 
2529.685348  	92.329479 
2530.649773  	92.376979 
2531.614197  	92.391386 
2532.578621  	92.362387 
2533.543046  	92.377410 
2534.507470  	92.337961 
2535.471895  	92.301407 
2536.436319  	92.308535 
2537.400744  	92.326159 
2538.365168  	92.297311 
2539.329593  	92.296270 
2540.294017  	92.312993 
2541.258442  	92.358859 
2542.222866  	92.387655 
2543.187290  	92.344569 
2544.151715  	92.329945 
2545.116139  	92.326221 
2546.080564  	92.296089 
2547.044988  	92.241978 
2548.009413  	92.217565 
2548.973837  	92.262031 
2549.938262  	92.278621 
2550.902686  	92.274976 
2551.867111  	92.268399 
2552.831535  	92.247210 
2553.795959  	92.208627 
2554.760384  	92.218996 
2555.724808  	92.163696 
2556.689233  	92.177873 
2557.653657  	92.208182 
2558.618082  	92.198855 
2559.582506  	92.270537 
2560.546931  	92.298077 
2561.511355  	92.200896 
2562.475780  	92.144480 
2563.440204  	92.148610 
2564.404629  	92.203099 
2565.369053  	92.235093 
2566.333477  	92.215819 
2567.297902  	92.222305 
2568.262326  	92.210618 
2569.226751  	92.123640 
2570.191175  	92.084494 
2571.155600  	92.126919 
2572.120024  	92.136352 
2573.084449  	92.142442 
2574.048873  	92.077609 
2575.013298  	91.982202 
2575.977722  	91.980453 
2576.942146  	92.007547 
2577.906571  	92.045899 
2578.870995  	92.058345 
2579.835420  	92.031646 
2580.799844  	92.021190 
2581.764269  	91.997705 
2582.728693  	92.001726 
2583.693118  	92.022849 
2584.657542  	92.034110 
2585.621967  	92.043675 
2586.586391  	92.005334 
2587.550815  	92.024025 
2588.515240  	91.995900 
2589.479664  	91.984412 
2590.444089  	91.983372 
2591.408513  	92.025235 
2592.372938  	92.011458 
2593.337362  	91.961513 
2594.301787  	91.927413 
2595.266211  	91.906683 
2596.230636  	91.932968 
2597.195060  	91.993393 
2598.159484  	91.972905 
2599.123909  	91.945286 
2600.088333  	91.951689 
2601.052758  	91.944044 
2602.017182  	91.913420 
2602.981607  	91.907897 
2603.946031  	91.914489 
2604.910456  	91.917082 
2605.874880  	91.933482 
2606.839305  	91.932405 
2607.803729  	91.901838 
2608.768153  	91.880928 
2609.732578  	91.881914 
2610.697002  	91.894726 
2611.661427  	91.903887 
2612.625851  	91.910365 
2613.590276  	91.932610 
2614.554700  	91.906369 
2615.519125  	91.847854 
2616.483549  	91.866271 
2617.447974  	91.890965 
2618.412398  	91.924383 
2619.376822  	91.918902 
2620.341247  	91.877828 
2621.305671  	91.839248 
2622.270096  	91.824228 
2623.234520  	91.850536 
2624.198945  	91.873801 
2625.163369  	91.897427 
2626.127794  	91.901925 
2627.092218  	91.877745 
2628.056643  	91.871805 
2629.021067  	91.885738 
2629.985492  	91.902785 
2630.949916  	91.915984 
2631.914340  	91.862958 
2632.878765  	91.819937 
2633.843189  	91.838004 
2634.807614  	91.825398 
2635.772038  	91.815231 
2636.736463  	91.811797 
2637.700887  	91.807591 
2638.665312  	91.801671 
2639.629736  	91.787472 
2640.594161  	91.822791 
2641.558585  	91.836743 
2642.523009  	91.767917 
2643.487434  	91.784891 
2644.451858  	91.806242 
2645.416283  	91.782608 
2646.380707  	91.763973 
2647.345132  	91.772375 
2648.309556  	91.773799 
2649.273981  	91.740199 
2650.238405  	91.749473 
2651.202830  	91.775925 
2652.167254  	91.753778 
2653.131678  	91.731516 
2654.096103  	91.702680 
2655.060527  	91.701803 
2656.024952  	91.714781 
2656.989376  	91.713370 
2657.953801  	91.703796 
2658.918225  	91.722837 
2659.882650  	91.727101 
2660.847074  	91.726308 
2661.811499  	91.765857 
2662.775923  	91.778987 
2663.740347  	91.774123 
2664.704772  	91.772705 
2665.669196  	91.796195 
2666.633621  	91.800795 
2667.598045  	91.770539 
2668.562470  	91.760873 
2669.526894  	91.760053 
2670.491319  	91.750799 
2671.455743  	91.770046 
2672.420168  	91.779949 
2673.384592  	91.773091 
2674.349016  	91.761139 
2675.313441  	91.747191 
2676.277865  	91.739143 
2677.242290  	91.737479 
2678.206714  	91.718524 
2679.171139  	91.702175 
2680.135563  	91.716781 
2681.099988  	91.747167 
2682.064412  	91.748097 
2683.028837  	91.713683 
2683.993261  	91.694969 
2684.957686  	91.692972 
2685.922110  	91.702542 
2686.886534  	91.690637 
2687.850959  	91.673823 
2688.815383  	91.684527 
2689.779808  	91.672687 
2690.744232  	91.657366 
2691.708657  	91.668374 
2692.673081  	91.654052 
2693.637506  	91.634230 
2694.601930  	91.632276 
2695.566355  	91.641611 
2696.530779  	91.627243 
2697.495203  	91.613324 
2698.459628  	91.618664 
2699.424052  	91.618955 
2700.388477  	91.589527 
2701.352901  	91.553324 
2702.317326  	91.551163 
2703.281750  	91.589720 
2704.246175  	91.610961 
2705.210599  	91.586415 
2706.175024  	91.565582 
2707.139448  	91.550435 
2708.103872  	91.541285 
2709.068297  	91.561944 
2710.032721  	91.546012 
2710.997146  	91.527418 
2711.961570  	91.532985 
2712.925995  	91.542328 
2713.890419  	91.515135 
2714.854844  	91.492936 
2715.819268  	91.494568 
2716.783693  	91.486199 
2717.748117  	91.461421 
2718.712541  	91.452406 
2719.676966  	91.442203 
2720.641390  	91.424373 
2721.605815  	91.434639 
2722.570239  	91.418556 
2723.534664  	91.390016 
2724.499088  	91.361210 
2725.463513  	91.340993 
2726.427937  	91.329590 
2727.392362  	91.319836 
2728.356786  	91.309651 
2729.321210  	91.271774 
2730.285635  	91.256724 
2731.250059  	91.224034 
2732.214484  	91.216684 
2733.178908  	91.205481 
2734.143333  	91.164035 
2735.107757  	91.133217 
2736.072182  	91.169029 
2737.036606  	91.165193 
2738.001031  	91.118084 
2738.965455  	91.077535 
2739.929879  	91.051867 
2740.894304  	91.043122 
2741.858728  	91.062528 
2742.823153  	91.050467 
2743.787577  	91.044638 
2744.752002  	91.049198 
2745.716426  	90.998230 
2746.680851  	90.963452 
2747.645275  	90.962603 
2748.609700  	90.963411 
2749.574124  	90.971716 
2750.538549  	90.979282 
2751.502973  	90.956327 
2752.467397  	90.957205 
2753.431822  	90.942323 
2754.396246  	90.930185 
2755.360671  	90.929518 
2756.325095  	90.911022 
2757.289520  	90.885085 
2758.253944  	90.897771 
2759.218369  	90.917643 
2760.182793  	90.883863 
2761.147218  	90.844743 
2762.111642  	90.836448 
2763.076066  	90.830670 
2764.040491  	90.819563 
2765.004915  	90.806731 
2765.969340  	90.806907 
2766.933764  	90.823098 
2767.898189  	90.806904 
2768.862613  	90.768034 
2769.827038  	90.733967 
2770.791462  	90.733700 
2771.755887  	90.724450 
2772.720311  	90.703881 
2773.684735  	90.690446 
2774.649160  	90.670543 
2775.613584  	90.656134 
2776.578009  	90.654226 
2777.542433  	90.642281 
2778.506858  	90.639309 
2779.471282  	90.623517 
2780.435707  	90.604117 
2781.400131  	90.563445 
2782.364556  	90.538488 
2783.328980  	90.554024 
2784.293404  	90.545075 
2785.257829  	90.508215 
2786.222253  	90.482966 
2787.186678  	90.469078 
2788.151102  	90.414180 
2789.115527  	90.421066 
2790.079951  	90.428065 
2791.044376  	90.385489 
2792.008800  	90.330871 
2792.973225  	90.287895 
2793.937649  	90.272156 
2794.902073  	90.242176 
2795.866498  	90.209824 
2796.830922  	90.183509 
2797.795347  	90.172558 
2798.759771  	90.119078 
2799.724196  	90.027639 
2800.688620  	89.992442 
2801.653045  	89.978502 
2802.617469  	89.929803 
2803.581894  	89.925888 
2804.546318  	89.914026 
2805.510743  	89.839251 
2806.475167  	89.763764 
2807.439591  	89.736298 
2808.404016  	89.699336 
2809.368440  	89.663893 
2810.332865  	89.651655 
2811.297289  	89.575920 
2812.261714  	89.485087 
2813.226138  	89.447386 
2814.190563  	89.381172 
2815.154987  	89.352527 
2816.119412  	89.305373 
2817.083836  	89.214741 
2818.048260  	89.128514 
2819.012685  	89.054533 
2819.977109  	89.022794 
2820.941534  	88.961785 
2821.905958  	88.876145 
2822.870383  	88.768655 
2823.834807  	88.690274 
2824.799232  	88.615883 
2825.763656  	88.567075 
2826.728081  	88.510768 
2827.692505  	88.444811 
2828.656929  	88.383912 
2829.621354  	88.317884 
2830.585778  	88.232482 
2831.550203  	88.134612 
2832.514627  	88.003481 
2833.479052  	87.855121 
2834.443476  	87.698891 
2835.407901  	87.551953 
2836.372325  	87.375374 
2837.336750  	87.137540 
2838.301174  	86.871890 
2839.265598  	86.569815 
2840.230023  	86.195954 
2841.194447  	85.762223 
2842.158872  	85.273312 
2843.123296  	84.678328 
2844.087721  	83.934874 
2845.052145  	83.024210 
2846.016570  	81.986347 
2846.980994  	80.828069 
2847.945419  	79.627067 
2848.909843  	78.568034 
2849.874267  	77.799530 
2850.838692  	77.416885 
2851.803116  	77.325405 
2852.767541  	77.297623 
2853.731965  	77.260913 
2854.696390  	77.216427 
2855.660814  	77.166134 
2856.625239  	77.125748 
2857.589663  	77.093173 
2858.554088  	77.100444 
2859.518512  	77.177796 
2860.482936  	77.315466 
2861.447361  	77.489734 
2862.411785  	77.757551 
2863.376210  	78.056578 
2864.340634  	78.285208 
2865.305059  	78.505727 
2866.269483  	78.772003 
2867.233908  	78.985942 
2868.198332  	79.120329 
2869.162757  	79.246041 
2870.127181  	79.373854 
2871.091606  	79.478370 
2872.056030  	79.581103 
2873.020454  	79.728412 
2873.984879  	79.922064 
2874.949303  	80.136579 
2875.913728  	80.366255 
2876.878152  	80.656542 
2877.842577  	80.961838 
2878.807001  	81.277526 
2879.771426  	81.657269 
2880.735850  	81.992687 
2881.700275  	82.282501 
2882.664699  	82.541679 
2883.629123  	82.753038 
2884.593548  	82.955854 
2885.557972  	83.085884 
2886.522397  	83.137624 
2887.486821  	83.180692 
2888.451246  	83.179116 
2889.415670  	83.096653 
2890.380095  	82.974370 
2891.344519  	82.846316 
2892.308944  	82.713628 
2893.273368  	82.537811 
2894.237792  	82.317457 
2895.202217  	82.038234 
2896.166641  	81.777402 
2897.131066  	81.482399 
2898.095490  	81.188530 
2899.059915  	80.876855 
2900.024339  	80.500370 
2900.988764  	80.149342 
2901.953188  	79.819809 
2902.917613  	79.446962 
2903.882037  	79.048113 
2904.846461  	78.674360 
2905.810886  	78.299220 
2906.775310  	77.908278 
2907.739735  	77.502762 
2908.704159  	77.068140 
2909.668584  	76.656687 
2910.633008  	76.206406 
2911.597433  	75.693099 
2912.561857  	75.104059 
2913.526282  	74.401626 
2914.490706  	73.675432 
2915.455130  	72.978229 
2916.419555  	72.363731 
2917.383979  	71.893069 
2918.348404  	71.535506 
2919.312828  	71.303652 
2920.277253  	71.175614 
2921.241677  	71.099241 
2922.206102  	71.035943 
2923.170526  	70.987640 
2924.134951  	70.968092 
2925.099375  	70.921929 
2926.063800  	70.859214 
2927.028224  	70.798115 
2927.992648  	70.709368 
2928.957073  	70.623428 
2929.921497  	70.539726 
2930.885922  	70.501849 
2931.850346  	70.536747 
2932.814771  	70.650092 
2933.779195  	70.811179 
2934.743620  	71.067545 
2935.708044  	71.384877 
2936.672469  	71.785162 
2937.636893  	72.255298 
2938.601317  	72.803322 
2939.565742  	73.374632 
2940.530166  	73.944973 
2941.494591  	74.489796 
2942.459015  	75.018746 
2943.423440  	75.530955 
2944.387864  	75.989375 
2945.352289  	76.454631 
2946.316713  	77.017988 
2947.281138  	77.617357 
2948.245562  	78.253962 
2949.209986  	78.914965 
2950.174411  	79.560821 
2951.138835  	80.235929 
2952.103260  	80.851982 
2953.067684  	81.429889 
2954.032109  	81.995941 
2954.996533  	82.558332 
2955.960958  	83.066788 
2956.925382  	83.513140 
2957.889807  	83.962023 
2958.854231  	84.343802 
2959.818655  	84.659586 
2960.783080  	85.010219 
2961.747504  	85.354846 
2962.711929  	85.681737 
2963.676353  	85.950161 
2964.640778  	86.216716 
2965.605202  	86.477858 
2966.569627  	86.731977 
2967.534051  	87.075470 
2968.498476  	87.395711 
2969.462900  	87.634503 
2970.427324  	87.880311 
2971.391749  	88.114739 
2972.356173  	88.329592 
2973.320598  	88.565699 
2974.285022  	88.779416 
2975.249447  	88.943301 
2976.213871  	89.126111 
2977.178296  	89.308077 
2978.142720  	89.446504 
2979.107145  	89.602740 
2980.071569  	89.799953 
2981.035993  	89.912964 
2982.000418  	90.020404 
2982.964842  	90.136217 
2983.929267  	90.234455 
2984.893691  	90.337731 
2985.858116  	90.375918 
2986.822540  	90.455022 
2987.786965  	90.549886 
2988.751389  	90.608027 
2989.715814  	90.652263 
2990.680238  	90.699594 
2991.644663  	90.758922 
2992.609087  	90.797498 
2993.573511  	90.816421 
2994.537936  	90.836984 
2995.502360  	90.899254 
2996.466785  	90.924007 
2997.431209  	90.946885 
2998.395634  	90.977245 
2999.360058  	90.963911 
3000.324483  	90.986963 
3001.288907  	90.975082 
3002.253332  	90.949532 
3003.217756  	90.949301 
3004.182180  	90.895760 
3005.146605  	90.846514 
3006.111029  	90.899679 
3007.075454  	90.969916 
3008.039878  	90.959124 
3009.004303  	90.946097 
3009.968727  	90.929075 
3010.933152  	90.870471 
3011.897576  	90.815652 
3012.862001  	90.734324 
3013.826425  	90.805506 
3014.790849  	90.902391 
3015.755274  	90.858248 
3016.719698  	90.817858 
3017.684123  	90.823035 
3018.648547  	90.783684 
3019.612972  	90.718618 
3020.577396  	90.678617 
3021.541821  	90.656956 
3022.506245  	90.595837 
3023.470670  	90.534772 
3024.435094  	90.530893 
3025.399518  	90.491050 
3026.363943  	90.426468 
3027.328367  	90.399453 
3028.292792  	90.371564 
3029.257216  	90.351778 
3030.221641  	90.243082 
3031.186065  	90.066816 
3032.150490  	90.008449 
3033.114914  	90.076760 
3034.079339  	90.031483 
3035.043763  	89.969179 
3036.008187  	89.929871 
3036.972612  	89.874588 
3037.937036  	89.799992 
3038.901461  	89.723139 
3039.865885  	89.646555 
3040.830310  	89.591985 
3041.794734  	89.553233 
3042.759159  	89.476915 
3043.723583  	89.399206 
3044.688008  	89.298106 
3045.652432  	89.200986 
3046.616857  	89.100168 
3047.581281  	88.926397 
3048.545705  	88.775949 
3049.510130  	88.665395 
3050.474554  	88.574353 
3051.438979  	88.517832 
3052.403403  	88.443145 
3053.367828  	88.332162 
3054.332252  	88.222813 
3055.296677  	88.133288 
3056.261101  	87.971511 
3057.225526  	87.869076 
3058.189950  	87.930916 
3059.154374  	87.905618 
3060.118799  	87.838089 
3061.083223  	87.830660 
3062.047648  	87.837577 
3063.012072  	87.749144 
3063.976497  	87.631241 
3064.940921  	87.587667 
3065.905346  	87.663338 
3066.869770  	87.656160 
3067.834195  	87.664982 
3068.798619  	87.701785 
3069.763043  	87.668490 
3070.727468  	87.634315 
3071.691892  	87.677671 
3072.656317  	87.640526 
3073.620741  	87.646663 
3074.585166  	87.678431 
3075.549590  	87.692945 
3076.514015  	87.713137 
3077.478439  	87.712328 
3078.442864  	87.700765 
3079.407288  	87.695900 
3080.371712  	87.693852 
3081.336137  	87.740630 
3082.300561  	87.725213 
3083.264986  	87.771579 
3084.229410  	87.834136 
3085.193835  	87.817342 
3086.158259  	87.801263 
3087.122684  	87.854835 
3088.087108  	87.925031 
3089.051533  	87.974325 
3090.015957  	87.993793 
3090.980381  	88.067097 
3091.944806  	88.098236 
3092.909230  	88.114266 
3093.873655  	88.124919 
3094.838079  	88.157138 
3095.802504  	88.180664 
3096.766928  	88.272275 
3097.731353  	88.340713 
3098.695777  	88.405686 
3099.660202  	88.483069 
3100.624626  	88.534158 
3101.589050  	88.488043 
3102.553475  	88.543327 
3103.517899  	88.643573 
3104.482324  	88.698284 
3105.446748  	88.726706 
3106.411173  	88.776412 
3107.375597  	88.843816 
3108.340022  	88.889478 
3109.304446  	88.949208 
3110.268871  	88.986154 
3111.233295  	89.019424 
3112.197720  	89.049258 
3113.162144  	89.111826 
3114.126568  	89.195391 
3115.090993  	89.190417 
3116.055417  	89.170325 
3117.019842  	89.217610 
3117.984266  	89.265456 
3118.948691  	89.236024 
3119.913115  	89.353097 
3120.877540  	89.415718 
3121.841964  	89.333620 
3122.806389  	89.241645 
3123.770813  	89.300204 
3124.735237  	89.325879 
3125.699662  	89.308654 
3126.664086  	89.307119 
3127.628511  	89.393778 
3128.592935  	89.418464 
3129.557360  	89.384395 
3130.521784  	89.368419 
3131.486209  	89.353107 
3132.450633  	89.309951 
3133.415058  	89.252756 
3134.379482  	89.355141 
3135.343906  	89.387690 
3136.308331  	89.331081 
3137.272755  	89.327874 
3138.237180  	89.348286 
3139.201604  	89.357660 
3140.166029  	89.324901 
3141.130453  	89.309160 
3142.094878  	89.233427 
3143.059302  	89.169260 
3144.023727  	89.153419 
3144.988151  	89.147129 
3145.952575  	89.081272 
3146.917000  	89.014166 
3147.881424  	89.031856 
3148.845849  	89.073626 
3149.810273  	89.001935 
3150.774698  	88.968626 
3151.739122  	88.919547 
3152.703547  	88.876013 
3153.667971  	88.888901 
3154.632396  	88.859165 
3155.596820  	88.783366 
3156.561244  	88.649722 
3157.525669  	88.597723 
3158.490093  	88.608320 
3159.454518  	88.560887 
3160.418942  	88.490994 
3161.383367  	88.458204 
3162.347791  	88.398036 
3163.312216  	88.293067 
3164.276640  	88.249056 
3165.241065  	88.216475 
3166.205489  	88.150464 
3167.169914  	88.056718 
3168.134338  	87.978196 
3169.098762  	87.906245 
3170.063187  	87.807539 
3171.027611  	87.711555 
3171.992036  	87.714855 
3172.956460  	87.655351 
3173.920885  	87.533464 
3174.885309  	87.459378 
3175.849734  	87.431967 
3176.814158  	87.347029 
3177.778583  	87.157278 
3178.743007  	87.058862 
3179.707431  	87.064668 
3180.671856  	87.032744 
3181.636280  	87.030207 
3182.600705  	86.988035 
3183.565129  	86.880902 
3184.529554  	86.784695 
3185.493978  	86.737932 
3186.458403  	86.692751 
3187.422827  	86.641457 
3188.387252  	86.562244 
3189.351676  	86.554134 
3190.316100  	86.547044 
3191.280525  	86.456212 
3192.244949  	86.366368 
3193.209374  	86.308847 
3194.173798  	86.207812 
3195.138223  	86.169424 
3196.102647  	86.070070 
3197.067072  	85.960559 
3198.031496  	85.902936 
3198.995921  	85.949918 
3199.960345  	85.928280 
3200.924769  	85.903457 
3201.889194  	85.884467 
3202.853618  	85.805328 
3203.818043  	85.670658 
3204.782467  	85.630719 
3205.746892  	85.631513 
3206.711316  	85.543850 
3207.675741  	85.479204 
3208.640165  	85.462604 
3209.604590  	85.413479 
3210.569014  	85.375112 
3211.533438  	85.360472 
3212.497863  	85.292767 
3213.462287  	85.191226 
3214.426712  	85.103936 
3215.391136  	85.069082 
3216.355561  	85.045759 
3217.319985  	84.956650 
3218.284410  	84.840307 
3219.248834  	84.757300 
3220.213259  	84.723453 
3221.177683  	84.680334 
3222.142107  	84.581733 
3223.106532  	84.510561 
3224.070956  	84.422328 
3225.035381  	84.306956 
3225.999805  	84.236212 
3226.964230  	84.106223 
3227.928654  	83.964126 
3228.893079  	83.914030 
3229.857503  	83.829092 
3230.821928  	83.607002 
3231.786352  	83.495024 
3232.750777  	83.414955 
3233.715201  	83.308032 
3234.679625  	83.126953 
3235.644050  	82.934374 
3236.608474  	82.768898 
3237.572899  	82.609542 
3238.537323  	82.454871 
3239.501748  	82.302100 
3240.466172  	82.109944 
3241.430597  	81.976161 
3242.395021  	81.832892 
3243.359446  	81.645431 
3244.323870  	81.395436 
3245.288294  	81.140028 
3246.252719  	81.044747 
3247.217143  	80.954152 
3248.181568  	80.746850 
3249.145992  	80.505531 
3250.110417  	80.292939 
3251.074841  	80.073990 
3252.039266  	79.821159 
3253.003690  	79.610838 
3253.968115  	79.304948 
3254.932539  	79.021442 
3255.896963  	78.796908 
3256.861388  	78.534064 
3257.825812  	78.351808 
3258.790237  	78.137503 
3259.754661  	77.882059 
3260.719086  	77.584682 
3261.683510  	77.314112 
3262.647935  	77.080977 
3263.612359  	76.836342 
3264.576784  	76.575274 
3265.541208  	76.273557 
3266.505632  	76.045022 
3267.470057  	75.849291 
3268.434481  	75.561307 
3269.398906  	75.237181 
3270.363330  	74.969903 
3271.327755  	74.735050 
3272.292179  	74.440611 
3273.256604  	74.059635 
3274.221028  	73.736047 
3275.185453  	73.491848 
3276.149877  	73.175312 
3277.114301  	72.822348 
3278.078726  	72.448596 
3279.043150  	72.072467 
3280.007575  	71.762645 
3280.971999  	71.429237 
3281.936424  	71.098988 
3282.900848  	70.761652 
3283.865273  	70.381797 
3284.829697  	70.026856 
3285.794122  	69.704872 
3286.758546  	69.338618 
3287.722971  	68.955603 
3288.687395  	68.637859 
3289.651819  	68.378462 
3290.616244  	68.092565 
3291.580668  	67.877976 
3292.545093  	67.695195 
3293.509517  	67.573537 
3294.473942  	67.487474 
3295.438366  	67.384068 
3296.402791  	67.292724 
3297.367215  	67.333625 
3298.331640  	67.432279 
3299.296064  	67.589283 
3300.260488  	67.768935 
3301.224913  	68.036032 
3302.189337  	68.330171 
3303.153762  	68.653312 
3304.118186  	69.031085 
3305.082611  	69.450788 
3306.047035  	69.953290 
3307.011460  	70.527191 
3307.975884  	71.002931 
3308.940309  	71.475471 
3309.904733  	72.086052 
3310.869157  	72.718513 
3311.833582  	73.308603 
3312.798006  	73.909500 
3313.762431  	74.532820 
3314.726855  	75.204355 
3315.691280  	75.809715 
3316.655704  	76.328234 
3317.620129  	76.791729 
3318.584553  	77.320863 
3319.548978  	77.828768 
3320.513402  	78.324613 
3321.477826  	78.787555 
3322.442251  	79.165182 
3323.406675  	79.585275 
3324.371100  	80.013999 
3325.335524  	80.334820 
3326.299949  	80.701553 
3327.264373  	80.995145 
3328.228798  	81.252355 
3329.193222  	81.512979 
3330.157647  	81.799851 
3331.122071  	82.104178 
3332.086495  	82.436743 
3333.050920  	82.686450 
3334.015344  	82.876618 
3334.979769  	83.037887 
3335.944193  	83.292217 
3336.908618  	83.422141 
3337.873042  	83.599248 
3338.837467  	83.916343 
3339.801891  	84.110245 
3340.766316  	84.221485 
3341.730740  	84.366996 
3342.695164  	84.513366 
3343.659589  	84.777968 
3344.624013  	85.065775 
3345.588438  	85.175248 
3346.552862  	85.242498 
3347.517287  	85.353017 
3348.481711  	85.485190 
3349.446136  	85.649782 
3350.410560  	85.821912 
3351.374985  	86.009635 
3352.339409  	86.151856 
3353.303834  	86.182587 
3354.268258  	86.237781 
3355.232682  	86.322627 
3356.197107  	86.325587 
3357.161531  	86.414912 
3358.125956  	86.581745 
3359.090380  	86.696145 
3360.054805  	86.674951 
3361.019229  	86.643534 
3361.983654  	86.713232 
3362.948078  	86.874645 
3363.912503  	86.993675 
3364.876927  	87.034001 
3365.841351  	87.093372 
3366.805776  	87.180947 
3367.770200  	87.181535 
3368.734625  	87.198244 
3369.699049  	87.307853 
3370.663474  	87.432053 
3371.627898  	87.461026 
3372.592323  	87.527034 
3373.556747  	87.583274 
3374.521172  	87.671342 
3375.485596  	87.711913 
3376.450020  	87.697006 
3377.414445  	87.741299 
3378.378869  	87.828109 
3379.343294  	87.903370 
3380.307718  	87.958449 
3381.272143  	88.039385 
3382.236567  	88.017355 
3383.200992  	87.974457 
3384.165416  	87.972174 
3385.129841  	87.936916 
3386.094265  	87.985923 
3387.058689  	88.125513 
3388.023114  	88.236044 
3388.987538  	88.248917 
3389.951963  	88.195300 
3390.916387  	88.154713 
3391.880812  	88.121587 
3392.845236  	88.002253 
3393.809661  	88.165539 
3394.774085  	88.386988 
3395.738510  	88.422881 
3396.702934  	88.356739 
3397.667358  	88.229095 
3398.631783  	88.401882 
3399.596207  	88.570507 
3400.560632  	88.496959 
3401.525056  	88.408403 
3402.489481  	88.489645 
3403.453905  	88.503703 
3404.418330  	88.494655 
3405.382754  	88.639824 
3406.347179  	88.709455 
3407.311603  	88.653840 
3408.276028  	88.612615 
3409.240452  	88.554549 
3410.204876  	88.555772 
3411.169301  	88.638570 
3412.133725  	88.714642 
3413.098150  	88.816310 
3414.062574  	88.857341 
3415.026999  	88.816033 
3415.991423  	88.702984 
3416.955848  	88.750581 
3417.920272  	88.793121 
3418.884697  	88.798700 
3419.849121  	88.598590 
3420.813545  	88.322511 
3421.777970  	88.453014 
3422.742394  	88.703079 
3423.706819  	88.856122 
3424.671243  	88.958744 
3425.635668  	89.020796 
3426.600092  	89.032697 
3427.564517  	89.010497 
3428.528941  	89.057176 
3429.493366  	89.086931 
3430.457790  	89.015574 
3431.422214  	89.033999 
3432.386639  	89.105697 
3433.351063  	89.106700 
3434.315488  	89.144423 
3435.279912  	89.185497 
3436.244337  	89.269466 
3437.208761  	89.304823 
3438.173186  	89.268690 
3439.137610  	89.226711 
3440.102035  	89.236345 
3441.066459  	89.249219 
3442.030883  	89.197521 
3442.995308  	89.015536 
3443.959732  	89.168972 
3444.924157  	89.306649 
3445.888581  	89.276721 
3446.853006  	88.854310 
3447.817430  	88.543162 
3448.781855  	89.123922 
3449.746279  	89.460408 
3450.710704  	89.473470 
3451.675128  	89.510876 
3452.639552  	89.558997 
3453.603977  	89.564249 
3454.568401  	89.549952 
3455.532826  	89.543599 
3456.497250  	89.524027 
3457.461675  	89.474372 
3458.426099  	89.445253 
3459.390524  	89.495424 
3460.354948  	89.543978 
3461.319373  	89.442332 
3462.283797  	89.377617 
3463.248221  	89.388703 
3464.212646  	89.601532 
3465.177070  	89.686792 
3466.141495  	89.621691 
3467.105919  	89.422316 
3468.070344  	89.500624 
3469.034768  	89.690818 
3469.999193  	89.722469 
3470.963617  	89.760200 
3471.928042  	89.793455 
3472.892466  	89.796294 
3473.856891  	89.791897 
3474.821315  	89.724378 
3475.785739  	89.790622 
3476.750164  	89.920498 
3477.714588  	89.948456 
3478.679013  	89.948089 
3479.643437  	89.861085 
3480.607862  	89.565993 
3481.572286  	89.411347 
3482.536711  	89.343684 
3483.501135  	89.686578 
3484.465560  	89.987875 
3485.429984  	89.922975 
3486.394408  	89.894416 
3487.358833  	89.862704 
3488.323257  	89.662733 
3489.287682  	89.717065 
3490.252106  	90.008823 
3491.216531  	90.018031 
3492.180955  	90.087270 
3493.145380  	90.233620 
3494.109804  	90.241229 
3495.074229  	90.093806 
3496.038653  	89.905046 
3497.003077  	89.817585 
3497.967502  	90.036580 
3498.931926  	90.222385 
3499.896351  	90.159571 
3500.860775  	90.059431 
3501.825200  	89.715240 
3502.789624  	89.275155 
3503.754049  	89.236309 
3504.718473  	89.614927 
3505.682898  	89.997861 
3506.647322  	90.279025 
3507.611746  	90.414427 
3508.576171  	90.170428 
3509.540595  	89.574570 
3510.505020  	89.683524 
3511.469444  	90.157237 
3512.433869  	90.266220 
3513.398293  	90.380296 
3514.362718  	90.514416 
3515.327142  	90.668692 
3516.291567  	90.722373 
3517.255991  	90.616690 
3518.220415  	90.524406 
3519.184840  	90.509968 
3520.149264  	90.570325 
3521.113689  	90.694133 
3522.078113  	90.524134 
3523.042538  	89.771378 
3524.006962  	89.439086 
3524.971387  	89.907135 
3525.935811  	90.085802 
3526.900236  	90.050519 
3527.864660  	89.933944 
3528.829085  	90.054201 
3529.793509  	90.287753 
3530.757933  	90.593940 
3531.722358  	90.663211 
3532.686782  	90.969451 
3533.651207  	91.144651 
3534.615631  	91.153795 
3535.580056  	90.897923 
3536.544480  	90.338135 
3537.508905  	90.528460 
3538.473329  	91.137082 
3539.437754  	91.163672 
3540.402178  	91.159382 
3541.366602  	91.179531 
3542.331027  	91.271476 
3543.295451  	91.082025 
3544.259876  	90.720506 
3545.224300  	89.930514 
3546.188725  	89.673133 
3547.153149  	89.761861 
3548.117574  	90.273769 
3549.081998  	91.041799 
3550.046423  	91.317164 
3551.010847  	91.341500 
3551.975271  	90.818915 
3552.939696  	90.456875 
3553.904120  	90.807648 
3554.868545  	91.272662 
3555.832969  	91.708179 
3556.797394  	91.661254 
3557.761818  	91.642917 
3558.726243  	91.778234 
3559.690667  	91.399342 
3560.655092  	90.868561 
3561.619516  	91.296357 
3562.583940  	91.395478 
3563.548365  	91.279614 
3564.512789  	91.152971 
3565.477214  	90.430006 
3566.441638  	88.367975 
3567.406063  	88.193204 
3568.370487  	88.752917 
3569.334912  	90.173822 
3570.299336  	91.287362 
3571.263761  	91.502592 
3572.228185  	91.905078 
3573.192609  	91.992419 
3574.157034  	91.853445 
3575.121458  	91.804701 
3576.085883  	91.898432 
3577.050307  	91.786956 
3578.014732  	91.804124 
3578.979156  	91.970800 
3579.943581  	91.609670 
3580.908005  	91.503840 
3581.872430  	91.977230 
3582.836854  	92.059868 
3583.801278  	91.895206 
3584.765703  	91.974330 
3585.730127  	91.668801 
3586.694552  	90.095167 
3587.658976  	89.047440 
3588.623401  	89.499087 
3589.587825  	90.538584 
3590.552250  	91.876470 
3591.516674  	92.280901 
3592.481099  	92.170553 
3593.445523  	91.426967 
3594.409948  	91.416328 
3595.374372  	91.156714 
3596.338796  	90.957907 
3597.303221  	91.810536 
3598.267645  	91.934457 
3599.232070  	91.596867 
3600.196494  	91.693811 
3601.160919  	91.406141 
3602.125343  	91.722349 
3603.089768  	92.084115 
3604.054192  	92.408126 
3605.018617  	92.616865 
3605.983041  	92.476371 
3606.947465  	91.393558 
3607.911890  	90.750800 
3608.876314  	91.078379 
3609.840739  	90.760796 
3610.805163  	91.696347 
3611.769588  	91.948390 
3612.734012  	90.783478 
3613.698437  	90.696274 
3614.662861  	91.010817 
3615.627286  	91.108067 
3616.591710  	92.080423 
3617.556134  	91.612480 
3618.520559  	90.643566 
3619.484983  	90.609274 
3620.449408  	90.633028 
3621.413832  	91.375921 
3622.378257  	92.144674 
3623.342681  	92.593583 
3624.307106  	92.804721 
3625.271530  	92.825938 
3626.235955  	92.329044 
3627.200379  	92.068667 
3628.164803  	91.315405 
3629.129228  	88.750929 
3630.093652  	89.012109 
3631.058077  	91.297598 
3632.022501  	92.365828 
3632.986926  	92.559084 
3633.951350  	91.853399 
3634.915775  	92.064753 
3635.880199  	92.800386 
3636.844624  	93.008350 
3637.809048  	92.824296 
3638.773472  	92.711415 
3639.737897  	92.981548 
3640.702321  	93.051332 
3641.666746  	92.762363 
3642.631170  	92.364411 
3643.595595  	92.600732 
3644.560019  	92.975563 
3645.524444  	92.716799 
3646.488868  	91.752657 
3647.453293  	89.902709 
3648.417717  	89.917473 
3649.382142  	89.950423 
3650.346566  	89.113920 
3651.310990  	89.316795 
3652.275415  	91.225014 
3653.239839  	92.581563 
3654.204264  	93.030034 
3655.168688  	92.951687 
3656.133113  	92.082821 
3657.097537  	91.597018 
3658.061962  	92.748092 
3659.026386  	93.128186 
3659.990811  	93.009290 
3660.955235  	93.129260 
3661.919659  	93.367910 
3662.884084  	93.408801 
3663.848508  	93.398661 
3664.812933  	93.334902 
3665.777357  	93.345709 
3666.741782  	93.375001 
3667.706206  	93.327052 
3668.670631  	92.424219 
3669.635055  	91.196937 
3670.599480  	90.683019 
3671.563904  	90.916616 
3672.528328  	92.416598 
3673.492753  	92.908414 
3674.457177  	91.893036 
3675.421602  	89.050658 
3676.386026  	89.180861 
3677.350451  	91.102487 
3678.314875  	92.053963 
3679.279300  	92.167121 
3680.243724  	92.121455 
3681.208149  	92.979111 
3682.172573  	93.439118 
3683.136997  	93.433177 
3684.101422  	93.269543 
3685.065846  	93.153700 
3686.030271  	93.347005 
3686.994695  	93.248785 
3687.959120  	92.591368 
3688.923544  	91.451837 
3689.887969  	91.723718 
3690.852393  	91.379639 
3691.816818  	91.111225 
3692.781242  	92.619788 
3693.745666  	93.213703 
3694.710091  	93.314158 
3695.674515  	93.386469 
3696.638940  	93.262373 
3697.603364  	93.370606 
3698.567789  	93.613081 
3699.532213  	93.477584 
3700.496638  	93.415020 
3701.461062  	92.758309 
3702.425487  	92.058900 
3703.389911  	92.987568 
3704.354335  	93.545073 
3705.318760  	93.416848 
3706.283184  	93.335953 
3707.247609  	93.435224 
3708.212033  	93.471796 
3709.176458  	92.906166 
3710.140882  	92.091773 
3711.105307  	91.867924 
3712.069731  	91.059213 
3713.034156  	90.912190 
3713.998580  	92.350031 
3714.963005  	92.586699 
3715.927429  	92.835720 
3716.891853  	93.416962 
3717.856278  	93.508553 
3718.820702  	92.913798 
3719.785127  	92.578251 
3720.749551  	93.200960 
3721.713976  	92.877018 
3722.678400  	91.451193 
3723.642825  	91.977592 
3724.607249  	92.504115 
3725.571674  	91.836347 
3726.536098  	91.557858 
3727.500522  	91.761262 
3728.464947  	92.742222 
3729.429371  	93.394803 
3730.393796  	93.322653 
3731.358220  	93.005989 
3732.322645  	92.202987 
3733.287069  	92.048778 
3734.251494  	91.682915 
3735.215918  	88.715158 
3736.180343  	88.720396 
3737.144767  	90.415370 
3738.109191  	91.443954 
3739.073616  	91.926985 
3740.038040  	92.487746 
3741.002465  	92.197078 
3741.966889  	92.200241 
3742.931314  	92.794953 
3743.895738  	92.093372 
3744.860163  	88.787853 
3745.824587  	90.293260 
3746.789012  	91.735340 
3747.753436  	91.912903 
3748.717860  	91.867023 
3749.682285  	91.314997 
3750.646709  	90.840136 
3751.611134  	90.845420 
3752.575558  	89.827471 
3753.539983  	91.095654 
3754.504407  	92.275600 
3755.468832  	92.934368 
3756.433256  	92.725289 
3757.397681  	92.541844 
3758.362105  	92.773724 
3759.326529  	92.015693 
3760.290954  	91.490868 
3761.255378  	92.801953 
3762.219803  	93.320982 
3763.184227  	93.365004 
3764.148652  	93.366840 
3765.113076  	93.043979 
3766.077501  	92.176390 
3767.041925  	92.680498 
3768.006350  	93.338066 
3768.970774  	93.165122 
3769.935199  	92.145189 
3770.899623  	92.016884 
3771.864047  	92.981510 
3772.828472  	93.437882 
3773.792896  	93.543452 
3774.757321  	93.602393 
3775.721745  	93.704339 
3776.686170  	93.774921 
3777.650594  	93.662509 
3778.615019  	93.257022 
3779.579443  	92.446399 
3780.543868  	92.447847 
3781.508292  	93.340917 
3782.472716  	93.511175 
3783.437141  	93.526426 
3784.401565  	93.197496 
3785.365990  	92.659905 
3786.330414  	92.953145 
3787.294839  	93.331152 
3788.259263  	93.543537 
3789.223688  	93.613090 
3790.188112  	93.589371 
3791.152537  	93.703402 
3792.116961  	93.716107 
3793.081385  	93.734893 
3794.045810  	93.760508 
3795.010234  	93.636148 
3795.974659  	93.132946 
3796.939083  	92.230666 
3797.903508  	92.436532 
3798.867932  	93.039016 
3799.832357  	93.165028 
3800.796781  	92.353739 
3801.761206  	90.814043 
3802.725630  	91.041404 
3803.690054  	92.175597 
3804.654479  	93.155018 
3805.618903  	93.353338 
3806.583328  	92.823884 
3807.547752  	91.980662 
3808.512177  	92.806813 
3809.476601  	93.349233 
3810.441026  	93.425987 
3811.405450  	93.553246 
3812.369875  	93.655719 
3813.334299  	93.672459 
3814.298723  	93.571181 
3815.263148  	93.087785 
3816.227572  	91.676042 
3817.191997  	91.723813 
3818.156421  	92.814659 
3819.120846  	92.873227 
3820.085270  	92.204215 
3821.049695  	90.746424 
3822.014119  	90.396195 
3822.978544  	91.990118 
3823.942968  	92.731900 
3824.907392  	93.010956 
3825.871817  	92.986254 
3826.836241  	92.424110 
3827.800666  	92.462964 
3828.765090  	93.167628 
3829.729515  	93.514729 
3830.693939  	93.416594 
3831.658364  	92.646900 
3832.622788  	92.478330 
3833.587213  	93.194404 
3834.551637  	92.926451 
3835.516062  	92.167886 
3836.480486  	92.668351 
3837.444910  	92.474610 
3838.409335  	91.134938 
3839.373759  	91.487585 
3840.338184  	91.227954 
3841.302608  	91.210696 
3842.267033  	92.482205 
3843.231457  	92.742841 
3844.195882  	91.959699 
3845.160306  	92.653334 
3846.124731  	93.307410 
3847.089155  	93.468029 
3848.053579  	93.503089 
3849.018004  	93.322164 
3849.982428  	92.821595 
3850.946853  	92.754610 
3851.911277  	92.029871 
3852.875702  	90.264526 
3853.840126  	89.839601 
3854.804551  	90.055292 
3855.768975  	91.789397 
3856.733400  	92.193794 
3857.697824  	91.812498 
3858.662248  	92.780818 
3859.626673  	93.470421 
3860.591097  	93.496204 
3861.555522  	92.925060 
3862.519946  	92.223878 
3863.484371  	92.533662 
3864.448795  	91.943464 
3865.413220  	90.768927 
3866.377644  	92.003441 
3867.342069  	93.150488 
3868.306493  	93.186822 
3869.270917  	92.019236 
3870.235342  	89.990671 
3871.199766  	91.072995 
3872.164191  	92.434911 
3873.128615  	92.846035 
3874.093040  	91.642997 
3875.057464  	91.439803 
3876.021889  	93.093569 
3876.986313  	93.603014 
3877.950738  	93.630440 
3878.915162  	93.528763 
3879.879586  	92.648727 
3880.844011  	90.726534 
3881.808435  	91.728612 
3882.772860  	92.879516 
3883.737284  	92.613006 
3884.701709  	92.550152 
3885.666133  	91.903195 
3886.630558  	91.258273 
3887.594982  	92.828291 
3888.559407  	93.487694 
3889.523831  	93.463432 
3890.488256  	93.079136 
3891.452680  	91.938409 
3892.417104  	91.689864 
3893.381529  	92.667155 
3894.345953  	92.681724 
3895.310378  	92.959510 
3896.274802  	93.500509 
3897.239227  	93.549001 
3898.203651  	92.905887 
3899.168076  	91.886071 
3900.132500  	91.626433 
3901.096925  	92.401292 
3902.061349  	91.286976 
3903.025773  	91.101181 
3903.990198  	91.660708 
3904.954622  	91.136028 
3905.919047  	91.421738 
3906.883471  	92.283894 
3907.847896  	93.310581 
3908.812320  	93.647881 
3909.776745  	93.691903 
3910.741169  	93.716856 
3911.705594  	93.687159 
3912.670018  	93.649998 
3913.634442  	93.627236 
3914.598867  	93.640999 
3915.563291  	93.531039 
3916.527716  	92.705510 
3917.492140  	91.892780 
3918.456565  	92.677304 
3919.420989  	93.060361 
3920.385414  	92.411773 
3921.349838  	92.843182 
3922.314263  	93.570513 
3923.278687  	93.267586 
3924.243111  	92.425661 
3925.207536  	91.905764 
3926.171960  	92.621344 
3927.136385  	93.505098 
3928.100809  	93.581407 
3929.065234  	93.333470 
3930.029658  	92.999433 
3930.994083  	92.817275 
3931.958507  	92.468900 
3932.922932  	92.002262 
3933.887356  	92.722210 
3934.851780  	93.196486 
3935.816205  	93.512262 
3936.780629  	93.668466 
3937.745054  	93.589270 
3938.709478  	93.377598 
3939.673903  	93.538645 
3940.638327  	93.628943 
3941.602752  	93.456090 
3942.567176  	92.572821 
3943.531601  	92.053757 
3944.496025  	92.901306 
3945.460449  	93.380996 
3946.424874  	93.509215 
3947.389298  	92.965003 
3948.353723  	92.504255 
3949.318147  	92.780864 
3950.282572  	92.544655 
3951.246996  	92.908739 
3952.211421  	93.509324 
3953.175845  	93.446410 
3954.140270  	93.486652 
3955.104694  	93.572336 
3956.069119  	93.546401 
3957.033543  	93.411587 
3957.997967  	93.385237 
3958.962392  	93.475332 
3959.926816  	93.557284 
3960.891241  	93.516066 
3961.855665  	93.074979 
3962.820090  	93.006469 
3963.784514  	93.523980 
3964.748939  	93.589084 
3965.713363  	93.625095 
3966.677788  	93.708997 
3967.642212  	93.700059 
3968.606636  	93.525659 
3969.571061  	93.321723 
3970.535485  	93.448121 
3971.499910  	93.545527 
3972.464334  	93.358629 
3973.428759  	93.441172 
3974.393183  	93.543549 
3975.357608  	93.362557 
3976.322032  	93.215595 
3977.286457  	93.414104 
3978.250881  	93.654187 
3979.215305  	93.670180 
3980.179730  	93.631729 
3981.144154  	93.596919 
3982.108579  	93.534976 
3983.073003  	93.547994 
3984.037428  	93.658109 
3985.001852  	93.676407 
3985.966277  	93.644677 
3986.930701  	93.666102 
3987.895126  	93.657892 
3988.859550  	93.641121 
3989.823974  	93.540457 
3990.788399  	93.322965 
3991.752823  	93.417773 
3992.717248  	93.596165 
3993.681672  	93.575826 
3994.646097  	93.460480 
3995.610521  	93.372695 
3996.574946  	93.569887 
3997.539370  	93.675120 
3998.503795  	93.644748 
3999.468219  	93.614294 
4000.432643  	93.671259 
4001.397068  	93.696131 
4002.361492  	93.656247 
4003.325917  	93.608986 
4004.290341  	93.633242 
4005.254766  	93.621240 
4006.219190  	93.601008 
4007.183615  	93.587874 
4008.148039  	93.535880 
4009.112464  	93.409432 
4010.076888  	93.499601 
4011.041313  	93.581862 
4012.005737  	93.635944 
4012.970161  	93.603859 
4013.934586  	93.580378 
4014.899010  	93.614340 
4015.863435  	93.607254 
4016.827859  	93.616733 
4017.792284  	93.655394 
4018.756708  	93.697968 
4019.721133  	93.625101 
4020.685557  	93.602966 
4021.649982  	93.647661 
4022.614406  	93.642491 
4023.578830  	93.608678 
4024.543255  	93.618106 
4025.507679  	93.572234 
4026.472104  	93.585526 
4027.436528  	93.665762 
4028.400953  	93.663552 
4029.365377  	93.648259 
4030.329802  	93.658647 
4031.294226  	93.666421 
4032.258651  	93.666611 
4033.223075  	93.709199 
4034.187499  	93.741925 
4035.151924  	93.703425 
4036.116348  	93.669447 
4037.080773  	93.706718 
4038.045197  	93.724812 
4039.009622  	93.671008 
4039.974046  	93.691334 
4040.938471  	93.767123 
4041.902895  	93.778650 
4042.867320  	93.764538 
4043.831744  	93.615845 
4044.796168  	93.515618 
4045.760593  	93.551655 
4046.725017  	93.647643 
4047.689442  	93.661813 
4048.653866  	93.679942 
4049.618291  	93.740802 
4050.582715  	93.763542 
4051.547140  	93.755531 
4052.511564  	93.754715 
4053.475989  	93.745726 
4054.440413  	93.689948 
4055.404837  	93.649296 
4056.369262  	93.684480 
4057.333686  	93.728392 
4058.298111  	93.711164 
4059.262535  	93.712374 
4060.226960  	93.690982 
4061.191384  	93.629254 
4062.155809  	93.670944 
4063.120233  	93.737360 
4064.084658  	93.727166 
4065.049082  	93.741155 
4066.013506  	93.779501 
4066.977931  	93.736277 
4067.942355  	93.695780 
4068.906780  	93.738921 
4069.871204  	93.738656 
4070.835629  	93.727880 
4071.800053  	93.748273 
4072.764478  	93.715414 
4073.728902  	93.658376 
4074.693327  	93.674503 
4075.657751  	93.742607 
4076.622176  	93.764281 
4077.586600  	93.749222 
4078.551024  	93.727125 
4079.515449  	93.704695 
4080.479873  	93.716343 
4081.444298  	93.759347 
4082.408722  	93.761071 
4083.373147  	93.722721 
4084.337571  	93.692830 
4085.301996  	93.678553 
4086.266420  	93.672684 
4087.230845  	93.693295 
4088.195269  	93.701421 
4089.159693  	93.711384 
4090.124118  	93.737754 
4091.088542  	93.772531 
4092.052967  	93.787718 
4093.017391  	93.810855 
4093.981816  	93.793671 
4094.946240  	93.764372 
4095.910665  	93.765298 
4096.875089  	93.809954 
4097.839514  	93.776951 
4098.803938  	93.675313 
4099.768362  	93.686874 
4100.732787  	93.727921 
4101.697211  	93.719567 
4102.661636  	93.692271 
4103.626060  	93.700692 
4104.590485  	93.714412 
4105.554909  	93.683537 
4106.519334  	93.661745 
4107.483758  	93.644938 
4108.448183  	93.693394 
4109.412607  	93.739457 
4110.377031  	93.711637 
4111.341456  	93.715923 
4112.305880  	93.737802 
4113.270305  	93.752340 
4114.234729  	93.737182 
4115.199154  	93.731178 
4116.163578  	93.732553 
4117.128003  	93.725741 
4118.092427  	93.706291 
4119.056852  	93.665214 
4120.021276  	93.661188 
4120.985700  	93.716025 
4121.950125  	93.731573 
4122.914549  	93.677338 
4123.878974  	93.687428 
4124.843398  	93.744754 
4125.807823  	93.781434 
4126.772247  	93.701695 
4127.736672  	93.662364 
4128.701096  	93.715496 
4129.665521  	93.748766 
4130.629945  	93.737726 
4131.594370  	93.760036 
4132.558794  	93.812689 
4133.523218  	93.762601 
4134.487643  	93.705991 
4135.452067  	93.689942 
4136.416492  	93.698542 
4137.380916  	93.705125 
4138.345341  	93.704999 
4139.309765  	93.684421 
4140.274190  	93.721789 
4141.238614  	93.714451 
4142.203039  	93.698020 
4143.167463  	93.773122 
4144.131887  	93.742640 
4145.096312  	93.740817 
4146.060736  	93.743200 
4147.025161  	93.741486 
4147.989585  	93.697940 
4148.954010  	93.650603 
4149.918434  	93.682148 
4150.882859  	93.712820 
4151.847283  	93.739438 
4152.811708  	93.716703 
4153.776132  	93.705834 
4154.740556  	93.748986 
4155.704981  	93.743628 
4156.669405  	93.696710 
4157.633830  	93.694683 
4158.598254  	93.739182 
4159.562679  	93.745119 
4160.527103  	93.675625 
4161.491528  	93.646001 
4162.455952  	93.686101 
4163.420377  	93.716845 
4164.384801  	93.705573 
4165.349225  	93.711819 
4166.313650  	93.710674 
4167.278074  	93.709286 
4168.242499  	93.699382 
4169.206923  	93.676753 
4170.171348  	93.701798 
4171.135772  	93.735137 
4172.100197  	93.725473 
4173.064621  	93.666906 
4174.029046  	93.672438 
4174.993470  	93.693147 
4175.957894  	93.738388 
4176.922319  	93.767717 
4177.886743  	93.747821 
4178.851168  	93.727616 
4179.815592  	93.667470 
4180.780017  	93.651810 
4181.744441  	93.705259 
4182.708866  	93.735884 
4183.673290  	93.752430 
4184.637715  	93.745498 
4185.602139  	93.703129 
4186.566563  	93.659984 
4187.530988  	93.686519 
4188.495412  	93.731572 
4189.459837  	93.753552 
4190.424261  	93.745826 
4191.388686  	93.740433 
4192.353110  	93.788488 
4193.317535  	93.751475 
4194.281959  	93.686634 
4195.246384  	93.712257 
4196.210808  	93.701563 
4197.175233  	93.709811 
4198.139657  	93.703091 
4199.104081  	93.719192 
4200.068506  	93.712884 
4201.032930  	93.681211 
4201.997355  	93.710745 
4202.961779  	93.763926 
4203.926204  	93.742030 
4204.890628  	93.726289 
4205.855053  	93.709251 
4206.819477  	93.662197 
4207.783902  	93.669881 
4208.748326  	93.689223 
4209.712750  	93.713441 
4210.677175  	93.742785 
4211.641599  	93.730418 
4212.606024  	93.762580 
4213.570448  	93.790170 
4214.534873  	93.725950 
4215.499297  	93.617109 
4216.463722  	93.661015 
4217.428146  	93.652526 
4218.392571  	93.630722 
4219.356995  	93.693162 
4220.321419  	93.734674 
4221.285844  	93.757844 
4222.250268  	93.764236 
4223.214693  	93.666292 
4224.179117  	93.652239 
4225.143542  	93.725224 
4226.107966  	93.763433 
4227.072391  	93.784007 
4228.036815  	93.709458 
4229.001240  	93.699236 
4229.965664  	93.736621 
4230.930088  	93.727701 
4231.894513  	93.747489 
4232.858937  	93.758685 
4233.823362  	93.771752 
4234.787786  	93.781685 
4235.752211  	93.752469 
4236.716635  	93.765513 
4237.681060  	93.798053 
4238.645484  	93.748771 
4239.609909  	93.666419 
4240.574333  	93.687729 
4241.538757  	93.760982 
4242.503182  	93.796760 
4243.467606  	93.781049 
4244.432031  	93.715847 
4245.396455  	93.732637 
4246.360880  	93.771260 
4247.325304  	93.745765 
4248.289729  	93.758550 
4249.254153  	93.789889 
4250.218578  	93.796819 
4251.183002  	93.812071 
4252.147427  	93.792079 
4253.111851  	93.774922 
4254.076275  	93.712954 
4255.040700  	93.683218 
4256.005124  	93.696765 
4256.969549  	93.753678 
4257.933973  	93.748775 
4258.898398  	93.749314 
4259.862822  	93.731047 
4260.827247  	93.758161 
4261.791671  	93.780273 
4262.756096  	93.745402 
4263.720520  	93.712883 
4264.684944  	93.661378 
4265.649369  	93.663717 
4266.613793  	93.723516 
4267.578218  	93.741773 
4268.542642  	93.732508 
4269.507067  	93.739392 
4270.471491  	93.779483 
4271.435916  	93.813594 
4272.400340  	93.764328 
4273.364765  	93.741523 
4274.329189  	93.741245 
4275.293613  	93.735449 
4276.258038  	93.732228 
4277.222462  	93.753752 
4278.186887  	93.745835 
4279.151311  	93.687352 
4280.115736  	93.643155 
4281.080160  	93.699445 
4282.044585  	93.750501 
4283.009009  	93.719450 
4283.973434  	93.738935 
4284.937858  	93.746281 
4285.902282  	93.687952 
4286.866707  	93.698053 
4287.831131  	93.779262 
4288.795556  	93.867932 
4289.759980  	93.852100 
4290.724405  	93.789462 
4291.688829  	93.786243 
4292.653254  	93.768309 
4293.617678  	93.844917 
4294.582103  	93.910812 
4295.546527  	93.870872 
4296.510951  	93.812858 
4297.475376  	93.852273 
4298.439800  	93.820577 
4299.404225  	93.792661 
4300.368649  	93.810822 
4301.333074  	93.768419 
4302.297498  	93.719880 
4303.261923  	93.724875 
4304.226347  	93.773429 
4305.190772  	93.897995 
4306.155196  	93.874477 
4307.119620  	93.796878 
4308.084045  	93.785466 
4309.048469  	93.813739 
4310.012894  	93.824711 
4310.977318  	93.792102 
4311.941743  	93.778655 
4312.906167  	93.832377 
4313.870592  	93.824737 
4314.835016  	93.819780 
4315.799441  	93.818093 
4316.763865  	93.783796 
4317.728290  	93.776051 
4318.692714  	93.788335 
4319.657138  	93.751789 
4320.621563  	93.697544 
4321.585987  	93.710783 
4322.550412  	93.742133 
4323.514836  	93.691775 
4324.479261  	93.652036 
4325.443685  	93.664758 
4326.408110  	93.743851 
4327.372534  	93.809395 
4328.336959  	93.847617 
4329.301383  	93.779037 
4330.265807  	93.754103 
4331.230232  	93.827019 
4332.194656  	93.787518 
4333.159081  	93.724398 
4334.123505  	93.696113 
4335.087930  	93.714705 
4336.052354  	93.728800 
4337.016779  	93.761659 
4337.981203  	93.771805 
4338.945628  	93.745483 
4339.910052  	93.670033 
4340.874476  	93.660113 
4341.838901  	93.743994 
4342.803325  	93.780353 
4343.767750  	93.695361 
4344.732174  	93.628056 
4345.696599  	93.640888 
4346.661023  	93.695691 
4347.625448  	93.668225 
4348.589872  	93.643415 
4349.554297  	93.679812 
4350.518721  	93.748053 
4351.483145  	93.719504 
4352.447570  	93.655629 
4353.411994  	93.698252 
4354.376419  	93.693459 
4355.340843  	93.666310 
4356.305268  	93.680945 
4357.269692  	93.728499 
4358.234117  	93.730071 
4359.198541  	93.689898 
4360.162966  	93.719230 
4361.127390  	93.725776 
4362.091814  	93.701730 
4363.056239  	93.672575 
4364.020663  	93.677763 
4364.985088  	93.717289 
4365.949512  	93.688245 
4366.913937  	93.671600 
4367.878361  	93.723656 
4368.842786  	93.722897 
4369.807210  	93.746301 
4370.771635  	93.742071 
4371.736059  	93.695328 
4372.700484  	93.697741 
4373.664908  	93.746432 
4374.629332  	93.756044 
4375.593757  	93.724283 
4376.558181  	93.731836 
4377.522606  	93.739132 
4378.487030  	93.704851 
4379.451455  	93.729173 
4380.415879  	93.767246 
4381.380304  	93.756202 
4382.344728  	93.779614 
4383.309153  	93.828348 
4384.273577  	93.847039 
4385.238001  	93.822466 
4386.202426  	93.777582 
4387.166850  	93.803943 
4388.131275  	93.795462 
4389.095699  	93.734518 
4390.060124  	93.736750 
4391.024548  	93.797874 
4391.988973  	93.886009 
4392.953397  	93.904403 
4393.917822  	93.851355 
4394.882246  	93.841140 
4395.846670  	93.824993 
4396.811095  	93.832427 
4397.775519  	93.864108 
4398.739944  	93.846360 
4399.704368  	93.857334 
4400.668793  	93.938630 
4401.633217  	93.833501 
4402.597642  	93.797473 
4403.562066  	93.921544 
4404.526491  	93.936280 
4405.490915  	93.910258 
4406.455339  	93.843419 
4407.419764  	93.802356 
4408.384188  	93.842964 
4409.348613  	93.903905 
4410.313037  	93.901362 
4411.277462  	93.878427 
4412.241886  	93.916845 
4413.206311  	93.927001 
4414.170735  	93.968997 
4415.135160  	93.966470 
4416.099584  	93.887113 
4417.064008  	93.852161 
4418.028433  	93.803239 
4418.992857  	93.779710 
4419.957282  	93.846989 
4420.921706  	93.876542 
4421.886131  	93.892166 
4422.850555  	93.919421 
4423.814980  	93.907036 
4424.779404  	93.914776 
4425.743829  	93.911708 
4426.708253  	93.859260 
4427.672677  	93.838522 
4428.637102  	93.898735 
4429.601526  	93.914145 
4430.565951  	93.868976 
4431.530375  	93.825348 
4432.494800  	93.817734 
4433.459224  	93.808729 
4434.423649  	93.816783 
4435.388073  	93.861385 
4436.352498  	93.973527 
4437.316922  	94.017334 
4438.281347  	93.975044 
4439.245771  	93.924474 
4440.210195  	93.944793 
4441.174620  	93.988215 
4442.139044  	93.936985 
4443.103469  	93.962635 
4444.067893  	93.957117 
4445.032318  	93.929263 
4445.996742  	93.930815 
4446.961167  	93.926872 
4447.925591  	93.902879 
4448.890016  	93.892990 
4449.854440  	93.853886 
4450.818864  	93.868273 
4451.783289  	93.903967 
4452.747713  	93.934564 
4453.712138  	93.958764 
4454.676562  	93.914484 
4455.640987  	93.950215 
4456.605411  	93.965387 
4457.569836  	93.927143 
4458.534260  	93.913252 
4459.498685  	93.909218 
4460.463109  	93.922272 
4461.427533  	93.848304 
4462.391958  	93.815228 
4463.356382  	93.828363 
4464.320807  	93.853065 
4465.285231  	93.850362 
4466.249656  	93.860214 
4467.214080  	93.860944 
4468.178505  	93.856751 
4469.142929  	93.922130 
4470.107354  	93.986160 
4471.071778  	93.951751 
4472.036202  	93.984739 
4473.000627  	94.017665 
4473.965051  	93.917983 
4474.929476  	93.850618 
4475.893900  	93.878085 
4476.858325  	93.913731 
4477.822749  	93.956939 
4478.787174  	93.971531 
4479.751598  	93.990568 
4480.716023  	93.927912 
4481.680447  	93.867296 
4482.644871  	93.844267 
4483.609296  	93.853589 
4484.573720  	93.933166 
4485.538145  	93.976763 
4486.502569  	93.949654 
4487.466994  	93.941998 
4488.431418  	94.039776 
4489.395843  	93.994066 
4490.360267  	93.913477 
4491.324692  	93.907850 
4492.289116  	93.874325 
4493.253541  	93.917900 
4494.217965  	93.973304 
4495.182389  	93.964323 
4496.146814  	93.942317 
4497.111238  	93.932791 
4498.075663  	93.901060 
4499.040087  	93.916712 
4500.004512  	93.969279 
4500.968936  	93.970460 
4501.933361  	93.940545 
4502.897785  	93.986658 
4503.862210  	93.995325 
4504.826634  	93.912220 
4505.791058  	93.856366 
4506.755483  	93.873596 
4507.719907  	93.893985 
4508.684332  	93.916144 
4509.648756  	93.868220 
4510.613181  	93.813751 
4511.577605  	93.906142 
4512.542030  	93.990397 
4513.506454  	94.007851 
4514.470879  	93.955588 
4515.435303  	93.864793 
4516.399727  	93.837139 
4517.364152  	93.856050 
4518.328576  	93.930006 
4519.293001  	94.002068 
4520.257425  	93.955555 
4521.221850  	93.788378 
4522.186274  	93.818269 
4523.150699  	93.904137 
4524.115123  	93.863649 
4525.079548  	93.830216 
4526.043972  	93.867214 
4527.008396  	93.886819 
4527.972821  	93.843625 
4528.937245  	93.840465 
4529.901670  	93.922842 
4530.866094  	93.972429 
4531.830519  	93.951702 
4532.794943  	93.938486 
4533.759368  	93.962469 
4534.723792  	93.936538 
4535.688217  	93.854818 
4536.652641  	93.858805 
4537.617065  	93.928174 
4538.581490  	93.963799 
4539.545914  	93.934050 
4540.510339  	93.921003 
4541.474763  	93.905049 
4542.439188  	93.864398 
4543.403612  	93.887067 
4544.368037  	93.898618 
4545.332461  	93.872335 
4546.296886  	93.946658 
4547.261310  	93.933129 
4548.225734  	93.884664 
4549.190159  	93.932025 
4550.154583  	93.973154 
4551.119008  	93.906582 
4552.083432  	93.880513 
4553.047857  	93.938168 
4554.012281  	93.957986 
4554.976706  	93.917167 
4555.941130  	93.892639 
4556.905555  	93.863861 
4557.869979  	93.938162 
4558.834404  	93.983899 
4559.798828  	93.878765 
4560.763252  	93.778452 
4561.727677  	93.758687 
4562.692101  	93.808620 
4563.656526  	93.968702 
4564.620950  	93.995305 
4565.585375  	93.852291 
4566.549799  	93.827676 
4567.514224  	93.866513 
4568.478648  	93.866496 
4569.443073  	93.910167 
4570.407497  	93.948217 
4571.371921  	93.948357 
4572.336346  	93.924507 
4573.300770  	93.903488 
4574.265195  	93.926034 
4575.229619  	93.969615 
4576.194044  	93.923227 
4577.158468  	93.883910 
4578.122893  	93.920561 
4579.087317  	93.877842 
4580.051742  	93.797134 
4581.016166  	93.875836 
4581.980590  	93.949950 
4582.945015  	93.933874 
4583.909439  	93.914739 
4584.873864  	93.906965 
4585.838288  	93.846962 
4586.802713  	93.870079 
4587.767137  	93.865515 
4588.731562  	93.891409 
4589.695986  	93.910386 
4590.660411  	93.899536 
4591.624835  	93.867169 
4592.589259  	93.840417 
4593.553684  	93.852966 
4594.518108  	93.759730 
4595.482533  	93.741969 
4596.446957  	93.798998 
4597.411382  	93.777445 
4598.375806  	93.823560 
4599.340231  	93.895918 
4600.304655  	93.867929 
4601.269080  	93.818750 
4602.233504  	93.847598 
4603.197928  	93.886066 
4604.162353  	93.924970 
4605.126777  	93.918699 
4606.091202  	93.948094 
4607.055626  	94.029033 
4608.020051  	93.995950 
4608.984475  	93.987311 
4609.948900  	93.984850 
4610.913324  	93.930349 
4611.877749  	93.926390 
4612.842173  	93.920764 
4613.806598  	93.919318 
4614.771022  	93.879956 
4615.735446  	93.866392 
4616.699871  	93.910054 
4617.664295  	93.851085 
4618.628720  	93.828887 
4619.593144  	93.872914 
4620.557569  	93.944540 
4621.521993  	93.886398 
4622.486418  	93.859960 
4623.450842  	93.943145 
4624.415267  	93.898325 
4625.379691  	93.943240 
4626.344115  	93.983325 
4627.308540  	93.961507 
4628.272964  	93.860761 
4629.237389  	93.808648 
4630.201813  	93.856615 
4631.166238  	93.908126 
4632.130662  	93.922586 
4633.095087  	93.867887 
4634.059511  	93.863529 
4635.023936  	93.984330 
4635.988360  	93.998675 
4636.952784  	93.949117 
4637.917209  	93.952161 
4638.881633  	93.818925 
4639.846058  	93.731236 
4640.810482  	93.829462 
4641.774907  	93.852751 
4642.739331  	93.764550 
4643.703756  	93.778212 
4644.668180  	93.830505 
4645.632605  	93.731349 
4646.597029  	93.789075 
4647.561453  	93.927816 
4648.525878  	93.957337 
4649.490302  	93.976193 
4650.454727  	93.968089 
4651.419151  	93.893794 
4652.383576  	93.875554 
4653.348000  	93.907670 
4654.312425  	93.971054 
4655.276849  	94.020715 
4656.241274  	93.942477 
4657.205698  	93.901851 
4658.170122  	93.919094 
4659.134547  	93.862661 
4660.098971  	93.764684 
4661.063396  	93.827024 
4662.027820  	93.952725 
4662.992245  	93.895890 
4663.956669  	93.847161 
4664.921094  	93.910969 
4665.885518  	93.938983 
4666.849943  	93.928700 
4667.814367  	93.915319 
4668.778791  	94.001200 
4669.743216  	93.998132 
4670.707640  	93.918245 
4671.672065  	93.912930 
4672.636489  	93.911486 
4673.600914  	93.882199 
4674.565338  	93.863514 
4675.529763  	93.893437 
4676.494187  	93.959062 
4677.458612  	94.044482 
4678.423036  	94.115518 
4679.387461  	94.106243 
4680.351885  	93.996296 
4681.316309  	93.890492 
4682.280734  	93.852624 
4683.245158  	93.792265 
4684.209583  	93.864295 
4685.174007  	93.956220 
4686.138432  	93.921334 
4687.102856  	93.952489 
4688.067281  	93.959656 
4689.031705  	93.860806 
4689.996130  	93.898013 
4690.960554  	94.014357 
4691.924978  	93.966106 
4692.889403  	93.857045 
4693.853827  	93.845198 
4694.818252  	93.872992 
4695.782676  	93.921365 
4696.747101  	93.888228 
4697.711525  	93.831728 
4698.675950  	93.866522 
4699.640374  	93.878658 