##TITLE=No Description
##DATA TYPE=INFRARED SPECTRUM
##XUNITS=1/CM
##YUNITS=%T
400.236149  	101.370882 
401.200574  	94.896154 
402.164998  	79.122287 
403.129423  	80.106566 
404.093847  	80.341690 
405.058272  	81.362210 
406.022696  	77.259855 
406.987120  	75.556805 
407.951545  	92.118889 
408.915969  	86.796436 
409.880394  	84.039648 
410.844818  	95.223645 
411.809243  	106.625799 
412.773667  	101.682978 
413.738092  	87.752174 
414.702516  	79.562321 
415.666941  	77.608751 
416.631365  	80.384122 
417.595789  	81.341184 
418.560214  	79.957836 
419.524638  	75.711115 
420.489063  	82.662222 
421.453487  	83.054333 
422.417912  	82.120840 
423.382336  	84.797303 
424.346761  	84.187171 
425.311185  	80.079651 
426.275610  	77.991609 
427.240034  	79.128581 
428.204458  	81.522550 
429.168883  	84.126492 
430.133307  	83.224261 
431.097732  	80.868159 
432.062156  	78.765423 
433.026581  	77.194118 
433.991005  	79.641142 
434.955430  	81.951837 
435.919854  	79.167871 
436.884279  	76.979296 
437.848703  	78.172020 
438.813127  	79.090506 
439.777552  	79.732096 
440.741976  	79.541321 
441.706401  	79.407488 
442.670825  	79.411527 
443.635250  	79.485595 
444.599674  	79.035091 
445.564099  	78.900087 
446.528523  	79.407869 
447.492948  	79.957455 
448.457372  	79.956385 
449.421796  	78.139191 
450.386221  	76.676075 
451.350645  	77.604918 
452.315070  	78.203349 
453.279494  	77.968028 
454.243919  	77.037056 
455.208343  	76.455111 
456.172768  	75.913706 
457.137192  	75.954626 
458.101617  	75.017157 
459.066041  	74.869049 
460.030466  	75.299366 
460.994890  	76.563109 
461.959314  	76.887633 
462.923739  	76.730677 
463.888163  	75.662809 
464.852588  	74.728908 
465.817012  	75.572119 
466.781437  	75.407336 
467.745861  	74.177008 
468.710286  	74.236310 
469.674710  	73.838957 
470.639135  	73.835811 
471.603559  	73.719433 
472.567983  	73.816116 
473.532408  	74.381910 
474.496832  	74.380809 
475.461257  	74.111318 
476.425681  	73.615969 
477.390106  	73.817985 
478.354530  	74.407102 
479.318955  	74.266749 
480.283379  	73.818783 
481.247804  	73.711572 
482.212228  	73.661434 
483.176652  	73.691233 
484.141077  	73.712441 
485.105501  	73.976500 
486.069926  	73.822713 
487.034350  	73.744162 
487.998775  	73.677685 
488.963199  	73.699221 
489.927624  	73.667320 
490.892048  	72.651296 
491.856473  	72.156998 
492.820897  	73.410742 
493.785321  	73.868356 
494.749746  	72.562720 
495.714170  	72.061129 
496.678595  	72.319715 
497.643019  	72.783907 
498.607444  	72.930492 
499.571868  	72.589847 
500.536293  	72.537049 
501.500717  	71.825673 
502.465142  	70.631036 
503.429566  	71.114246 
504.393990  	71.333577 
505.358415  	71.567703 
506.322839  	71.713845 
507.287264  	71.568521 
508.251688  	71.959221 
509.216113  	72.029970 
510.180537  	71.526835 
511.144962  	71.607013 
512.109386  	71.690581 
513.073811  	71.161281 
514.038235  	70.729377 
515.002660  	70.700932 
515.967084  	70.222409 
516.931508  	69.973988 
517.895933  	70.200444 
518.860357  	70.043228 
519.824782  	69.450705 
520.789206  	69.937363 
521.753631  	70.178635 
522.718055  	69.806735 
523.682480  	69.666462 
524.646904  	69.412864 
525.611329  	68.915806 
526.575753  	68.631024 
527.540177  	68.882819 
528.504602  	68.853572 
529.469026  	68.656623 
530.433451  	68.738027 
531.397875  	68.472734 
532.362300  	68.108107 
533.326724  	68.507249 
534.291149  	68.542441 
535.255573  	68.440103 
536.219998  	68.750565 
537.184422  	69.540581 
538.148846  	69.590801 
539.113271  	69.666274 
540.077695  	69.686762 
541.042120  	70.099880 
542.006544  	70.470005 
542.970969  	70.433118 
543.935393  	70.514601 
544.899818  	70.306868 
545.864242  	70.210588 
546.828667  	70.119908 
547.793091  	69.761317 
548.757515  	69.744028 
549.721940  	70.029848 
550.686364  	70.009550 
551.650789  	70.015227 
552.615213  	69.515448 
553.579638  	69.449333 
554.544062  	69.279886 
555.508487  	69.106898 
556.472911  	68.906895 
557.437336  	68.553520 
558.401760  	68.195043 
559.366184  	68.059430 
560.330609  	67.741260 
561.295033  	67.246106 
562.259458  	66.887290 
563.223882  	66.444280 
564.188307  	66.206782 
565.152731  	66.201527 
566.117156  	65.518580 
567.081580  	64.665459 
568.046005  	64.185183 
569.010429  	63.657037 
569.974853  	63.149553 
570.939278  	62.695405 
571.903702  	62.189573 
572.868127  	61.671600 
573.832551  	61.141426 
574.796976  	60.837461 
575.761400  	60.322302 
576.725825  	60.416261 
577.690249  	60.637295 
578.654674  	60.873960 
579.619098  	61.319776 
580.583523  	61.746953 
581.547947  	62.640651 
582.512371  	63.709829 
583.476796  	64.487188 
584.441220  	65.065699 
585.405645  	65.963619 
586.370069  	67.008571 
587.334494  	67.747916 
588.298918  	68.560186 
589.263343  	68.964419 
590.227767  	69.344130 
591.192192  	69.476909 
592.156616  	69.637473 
593.121040  	70.174076 
594.085465  	70.614147 
595.049889  	70.867037 
596.014314  	71.044017 
596.978738  	71.251361 
597.943163  	71.442789 
598.907587  	71.551714 
599.872012  	71.491347 
600.836436  	71.657365 
601.800861  	71.857771 
602.765285  	71.869142 
603.729709  	72.102031 
604.694134  	72.226187 
605.658558  	72.251660 
606.622983  	72.450581 
607.587407  	72.436894 
608.551832  	72.349338 
609.516256  	72.532862 
610.480681  	72.463907 
611.445105  	72.337971 
612.409530  	72.526686 
613.373954  	72.772108 
614.338378  	72.689350 
615.302803  	72.431090 
616.267227  	72.250440 
617.231652  	72.529171 
618.196076  	72.759448 
619.160501  	72.750249 
620.124925  	72.502558 
621.089350  	72.531480 
622.053774  	72.593218 
623.018199  	72.873627 
623.982623  	72.752671 
624.947047  	72.624864 
625.911472  	72.407788 
626.875896  	72.400665 
627.840321  	72.456252 
628.804745  	72.548191 
629.769170  	72.398711 
630.733594  	72.330609 
631.698019  	72.479396 
632.662443  	72.486503 
633.626868  	72.309106 
634.591292  	72.206436 
635.555717  	71.966090 
636.520141  	72.077632 
637.484565  	72.006325 
638.448990  	71.939428 
639.413414  	71.901431 
640.377839  	71.886080 
641.342263  	71.844358 
642.306688  	71.591277 
643.271112  	71.449036 
644.235537  	71.353995 
645.199961  	71.237669 
646.164386  	71.237001 
647.128810  	71.080648 
648.093234  	70.778168 
649.057659  	70.510767 
650.022083  	70.365217 
650.986508  	70.210709 
651.950932  	70.100993 
652.915357  	69.918390 
653.879781  	69.810599 
654.844206  	69.662835 
655.808630  	69.363972 
656.773055  	69.001366 
657.737479  	68.897672 
658.701903  	68.546003 
659.666328  	68.163056 
660.630752  	67.990338 
661.595177  	67.811117 
662.559601  	67.620580 
663.524026  	67.324033 
664.488450  	67.100252 
665.452875  	66.817663 
666.417299  	66.518298 
667.381724  	66.486394 
668.346148  	65.975178 
669.310572  	65.325236 
670.274997  	65.301840 
671.239421  	65.294093 
672.203846  	65.021241 
673.168270  	64.818063 
674.132695  	64.494617 
675.097119  	64.252871 
676.061544  	64.062848 
677.025968  	63.887961 
677.990393  	63.758514 
678.954817  	63.603054 
679.919241  	63.432303 
680.883666  	63.405742 
681.848090  	63.398734 
682.812515  	63.319769 
683.776939  	63.129362 
684.741364  	63.161384 
685.705788  	63.339384 
686.670213  	63.600464 
687.634637  	63.787593 
688.599062  	63.974465 
689.563486  	64.286659 
690.527910  	64.650007 
691.492335  	65.018282 
692.456759  	65.473990 
693.421184  	65.918625 
694.385608  	66.502789 
695.350033  	67.003222 
696.314457  	67.417196 
697.278882  	67.808219 
698.243306  	68.294238 
699.207731  	68.738054 
700.172155  	69.151509 
701.136580  	69.439852 
702.101004  	69.776838 
703.065428  	70.088496 
704.029853  	70.323825 
704.994277  	70.635363 
705.958702  	71.021067 
706.923126  	71.313444 
707.887551  	71.494424 
708.851975  	71.667284 
709.816400  	71.808177 
710.780824  	71.955317 
711.745249  	72.135536 
712.709673  	72.361217 
713.674097  	72.388985 
714.638522  	72.476086 
715.602946  	72.606887 
716.567371  	72.592315 
717.531795  	72.604507 
718.496220  	72.624161 
719.460644  	72.533220 
720.425069  	72.539211 
721.389493  	72.658103 
722.353918  	72.739125 
723.318342  	72.719261 
724.282766  	72.680746 
725.247191  	72.574075 
726.211615  	72.513525 
727.176040  	72.542266 
728.140464  	72.451799 
729.104889  	72.439581 
730.069313  	72.724738 
731.033738  	73.168494 
731.998162  	73.652473 
732.962587  	74.437830 
733.927011  	75.229715 
734.891435  	75.927756 
735.855860  	76.586197 
736.820284  	77.189532 
737.784709  	77.811274 
738.749133  	78.383881 
739.713558  	78.865040 
740.677982  	79.249227 
741.642407  	79.591584 
742.606831  	79.914762 
743.571256  	80.073587 
744.535680  	80.136207 
745.500104  	80.206514 
746.464529  	80.343999 
747.428953  	80.480726 
748.393378  	80.591659 
749.357802  	80.593022 
750.322227  	80.734790 
751.286651  	80.859168 
752.251076  	80.881582 
753.215500  	80.999261 
754.179925  	81.230249 
755.144349  	81.260497 
756.108774  	81.348966 
757.073198  	81.449814 
758.037622  	81.447073 
759.002047  	81.456122 
759.966471  	81.637097 
760.930896  	81.790761 
761.895320  	81.866716 
762.859745  	81.985168 
763.824169  	82.158636 
764.788594  	82.280181 
765.753018  	82.425948 
766.717443  	82.572986 
767.681867  	82.597854 
768.646291  	82.616078 
769.610716  	82.736463 
770.575140  	82.818935 
771.539565  	82.916495 
772.503989  	82.982294 
773.468414  	83.100148 
774.432838  	83.183315 
775.397263  	83.207984 
776.361687  	83.296999 
777.326112  	83.540094 
778.290536  	83.539197 
779.254960  	83.625246 
780.219385  	83.919973 
781.183809  	84.306741 
782.148234  	84.081300 
783.112658  	84.069588 
784.077083  	84.102896 
785.041507  	83.983814 
786.005932  	84.201539 
786.970356  	84.338337 
787.934781  	84.304911 
788.899205  	84.250796 
789.863629  	84.426002 
790.828054  	84.461742 
791.792478  	84.379551 
792.756903  	84.398893 
793.721327  	84.474953 
794.685752  	84.471399 
795.650176  	84.539501 
796.614601  	84.634666 
797.579025  	84.804017 
798.543450  	84.724129 
799.507874  	84.728341 
800.472298  	85.078036 
801.436723  	85.324364 
802.401147  	85.307797 
803.365572  	85.364335 
804.329996  	85.558032 
805.294421  	85.622762 
806.258845  	85.689400 
807.223270  	85.874169 
808.187694  	85.985269 
809.152119  	86.002338 
810.116543  	86.030380 
811.080967  	86.100219 
812.045392  	86.171936 
813.009816  	86.248585 
813.974241  	86.350937 
814.938665  	86.444235 
815.903090  	86.543860 
816.867514  	86.551241 
817.831939  	86.602085 
818.796363  	86.758482 
819.760788  	86.890177 
820.725212  	86.961136 
821.689637  	86.956675 
822.654061  	86.973440 
823.618485  	87.040883 
824.582910  	87.077883 
825.547334  	87.020559 
826.511759  	87.059385 
827.476183  	87.214962 
828.440608  	87.344862 
829.405032  	87.328690 
830.369457  	87.298948 
831.333881  	87.383383 
832.298306  	87.512083 
833.262730  	87.500466 
834.227154  	87.532740 
835.191579  	87.622948 
836.156003  	87.645505 
837.120428  	87.657490 
838.084852  	87.586787 
839.049277  	87.539551 
840.013701  	87.580984 
840.978126  	87.610434 
841.942550  	87.709390 
842.906975  	87.788109 
843.871399  	87.746266 
844.835823  	87.664449 
845.800248  	87.669292 
846.764672  	87.763746 
847.729097  	87.900641 
848.693521  	87.877581 
849.657946  	87.846178 
850.622370  	87.896308 
851.586795  	87.992664 
852.551219  	87.921810 
853.515644  	87.871185 
854.480068  	87.935654 
855.444492  	87.948335 
856.408917  	87.912868 
857.373341  	87.928659 
858.337766  	88.041433 
859.302190  	88.085913 
860.266615  	88.054165 
861.231039  	88.086949 
862.195464  	88.096942 
863.159888  	88.059481 
864.124313  	88.033485 
865.088737  	88.003022 
866.053161  	88.022935 
867.017586  	88.038602 
867.982010  	88.075791 
868.946435  	88.098713 
869.910859  	88.096248 
870.875284  	88.043123 
871.839708  	88.031232 
872.804133  	88.106496 
873.768557  	88.123177 
874.732982  	88.027065 
875.697406  	87.927686 
876.661831  	87.893317 
877.626255  	87.856209 
878.590679  	87.845911 
879.555104  	87.894206 
880.519528  	87.883035 
881.483953  	87.834293 
882.448377  	87.813459 
883.412802  	87.830141 
884.377226  	87.849850 
885.341651  	87.816601 
886.306075  	87.754177 
887.270500  	87.707617 
888.234924  	87.772151 
889.199348  	87.759054 
890.163773  	87.636560 
891.128197  	87.614375 
892.092622  	87.591920 
893.057046  	87.451959 
894.021471  	87.351351 
894.985895  	87.370657 
895.950320  	87.279268 
896.914744  	87.076508 
897.879169  	86.927429 
898.843593  	86.842483 
899.808017  	86.670828 
900.772442  	86.376058 
901.736866  	85.999068 
902.701291  	85.700603 
903.665715  	85.443366 
904.630140  	85.161426 
905.594564  	84.969741 
906.558989  	85.039926 
907.523413  	85.304011 
908.487838  	85.588009 
909.452262  	85.817808 
910.416686  	86.047707 
911.381111  	86.208171 
912.345535  	86.208892 
913.309960  	86.159620 
914.274384  	86.091526 
915.238809  	85.993560 
916.203233  	85.873312 
917.167658  	85.770344 
918.132082  	85.649922 
919.096507  	85.505205 
920.060931  	85.351647 
921.025355  	85.190778 
921.989780  	85.009102 
922.954204  	84.777028 
923.918629  	84.521067 
924.883053  	84.260213 
925.847478  	83.928153 
926.811902  	83.452884 
927.776327  	82.986126 
928.740751  	82.495394 
929.705176  	81.931201 
930.669600  	81.251033 
931.634024  	80.525312 
932.598449  	79.888103 
933.562873  	79.406502 
934.527298  	79.230753 
935.491722  	79.411236 
936.456147  	80.024648 
937.420571  	80.941135 
938.384996  	81.874739 
939.349420  	82.785186 
940.313845  	83.590644 
941.278269  	84.223623 
942.242694  	84.732909 
943.207118  	85.121050 
944.171542  	85.422303 
945.135967  	85.686843 
946.100391  	85.890868 
947.064816  	86.040060 
948.029240  	86.162711 
948.993665  	86.258088 
949.958089  	86.348391 
950.922514  	86.472612 
951.886938  	86.595822 
952.851363  	86.603579 
953.815787  	86.618766 
954.780211  	86.691265 
955.744636  	86.759269 
956.709060  	86.800066 
957.673485  	86.844200 
958.637909  	86.851050 
959.602334  	86.840576 
960.566758  	86.845408 
961.531183  	86.863469 
962.495607  	86.911878 
963.460032  	86.947758 
964.424456  	86.911360 
965.388880  	86.857921 
966.353305  	86.876372 
967.317729  	86.908414 
968.282154  	86.886223 
969.246578  	86.862238 
970.211003  	86.852760 
971.175427  	86.825114 
972.139852  	86.783740 
973.104276  	86.713981 
974.068701  	86.705124 
975.033125  	86.718284 
975.997549  	86.672407 
976.961974  	86.587222 
977.926398  	86.542999 
978.890823  	86.542050 
979.855247  	86.492779 
980.819672  	86.407545 
981.784096  	86.296932 
982.748521  	86.196176 
983.712945  	86.085923 
984.677370  	85.946500 
985.641794  	85.835123 
986.606218  	85.766736 
987.570643  	85.708073 
988.535067  	85.656277 
989.499492  	85.640946 
990.463916  	85.619245 
991.428341  	85.609072 
992.392765  	85.541181 
993.357190  	85.412135 
994.321614  	85.316038 
995.286039  	85.242897 
996.250463  	85.196735 
997.214888  	85.174993 
998.179312  	85.135894 
999.143736  	85.053413 
1000.108161  	84.963112 
1001.072585  	84.918360 
1002.037010  	84.873481 
1003.001434  	84.806764 
1003.965859  	84.717862 
1004.930283  	84.647639 
1005.894708  	84.568677 
1006.859132  	84.455695 
1007.823557  	84.325574 
1008.787981  	84.217444 
1009.752405  	84.127425 
1010.716830  	84.031773 
1011.681254  	83.964799 
1012.645679  	83.939475 
1013.610103  	83.853342 
1014.574528  	83.763862 
1015.538952  	83.744376 
1016.503377  	83.808910 
1017.467801  	83.818083 
1018.432226  	83.785884 
1019.396650  	83.755308 
1020.361074  	83.732356 
1021.325499  	83.775740 
1022.289923  	83.756289 
1023.254348  	83.696025 
1024.218772  	83.645065 
1025.183197  	83.599420 
1026.147621  	83.518411 
1027.112046  	83.487618 
1028.076470  	83.440587 
1029.040895  	83.316189 
1030.005319  	83.230466 
1030.969743  	83.202192 
1031.934168  	83.196179 
1032.898592  	83.163990 
1033.863017  	83.064264 
1034.827441  	82.948301 
1035.791866  	82.890758 
1036.756290  	82.840527 
1037.720715  	82.734345 
1038.685139  	82.653256 
1039.649564  	82.659673 
1040.613988  	82.667039 
1041.578412  	82.627987 
1042.542837  	82.626609 
1043.507261  	82.743685 
1044.471686  	82.849639 
1045.436110  	82.917859 
1046.400535  	82.997609 
1047.364959  	83.099310 
1048.329384  	83.162282 
1049.293808  	83.181031 
1050.258233  	83.275820 
1051.222657  	83.367499 
1052.187081  	83.371399 
1053.151506  	83.319115 
1054.115930  	83.355126 
1055.080355  	83.384859 
1056.044779  	83.346757 
1057.009204  	83.293204 
1057.973628  	83.245840 
1058.938053  	83.212018 
1059.902477  	83.134435 
1060.866902  	83.054915 
1061.831326  	83.037500 
1062.795751  	82.981354 
1063.760175  	82.914468 
1064.724599  	82.879223 
1065.689024  	82.933777 
1066.653448  	83.083229 
1067.617873  	83.219897 
1068.582297  	83.324563 
1069.546722  	83.463738 
1070.511146  	83.636854 
1071.475571  	83.741663 
1072.439995  	83.808640 
1073.404420  	83.928207 
1074.368844  	83.966157 
1075.333268  	83.943722 
1076.297693  	83.964844 
1077.262117  	83.940613 
1078.226542  	83.927094 
1079.190966  	83.927787 
1080.155391  	83.928641 
1081.119815  	83.914320 
1082.084240  	83.893044 
1083.048664  	83.864433 
1084.013089  	83.849470 
1084.977513  	83.802445 
1085.941937  	83.654967 
1086.906362  	83.538771 
1087.870786  	83.524656 
1088.835211  	83.501576 
1089.799635  	83.405158 
1090.764060  	83.321895 
1091.728484  	83.332535 
1092.692909  	83.376268 
1093.657333  	83.325759 
1094.621758  	83.234992 
1095.586182  	83.223558 
1096.550606  	83.236827 
1097.515031  	83.229280 
1098.479455  	83.242421 
1099.443880  	83.292749 
1100.408304  	83.339847 
1101.372729  	83.331414 
1102.337153  	83.340220 
1103.301578  	83.371706 
1104.266002  	83.382351 
1105.230427  	83.394895 
1106.194851  	83.401645 
1107.159275  	83.404609 
1108.123700  	83.444920 
1109.088124  	83.468704 
1110.052549  	83.454816 
1111.016973  	83.474756 
1111.981398  	83.478996 
1112.945822  	83.484101 
1113.910247  	83.499237 
1114.874671  	83.502064 
1115.839096  	83.474888 
1116.803520  	83.420782 
1117.767945  	83.366204 
1118.732369  	83.348182 
1119.696793  	83.362152 
1120.661218  	83.300540 
1121.625642  	83.156881 
1122.590067  	83.099312 
1123.554491  	83.062755 
1124.518916  	82.950080 
1125.483340  	82.839842 
1126.447765  	82.773374 
1127.412189  	82.717489 
1128.376614  	82.592910 
1129.341038  	82.415660 
1130.305462  	82.266589 
1131.269887  	82.069008 
1132.234311  	81.757163 
1133.198736  	81.377789 
1134.163160  	81.002295 
1135.127585  	80.556499 
1136.092009  	80.074628 
1137.056434  	79.690590 
1138.020858  	79.467171 
1138.985283  	79.360566 
1139.949707  	79.331257 
1140.914131  	79.418578 
1141.878556  	79.540321 
1142.842980  	79.567422 
1143.807405  	79.601738 
1144.771829  	79.658437 
1145.736254  	79.669219 
1146.700678  	79.695701 
1147.665103  	79.726795 
1148.629527  	79.817312 
1149.593952  	80.001220 
1150.558376  	80.199736 
1151.522800  	80.375306 
1152.487225  	80.593010 
1153.451649  	80.813395 
1154.416074  	81.024511 
1155.380498  	81.190616 
1156.344923  	81.356347 
1157.309347  	81.508988 
1158.273772  	81.569789 
1159.238196  	81.559478 
1160.202621  	81.597813 
1161.167045  	81.582740 
1162.131469  	81.482538 
1163.095894  	81.341234 
1164.060318  	81.225790 
1165.024743  	81.085218 
1165.989167  	80.885203 
1166.953592  	80.690710 
1167.918016  	80.464329 
1168.882441  	80.205142 
1169.846865  	79.868018 
1170.811290  	79.459063 
1171.775714  	79.041346 
1172.740138  	78.594129 
1173.704563  	78.052262 
1174.668987  	77.454848 
1175.633412  	76.969109 
1176.597836  	76.536997 
1177.562261  	76.123830 
1178.526685  	75.847281 
1179.491110  	75.765740 
1180.455534  	75.811810 
1181.419959  	75.965024 
1182.384383  	76.188428 
1183.348808  	76.431626 
1184.313232  	76.661646 
1185.277656  	76.793882 
1186.242081  	76.838056 
1187.206505  	76.799560 
1188.170930  	76.665494 
1189.135354  	76.379032 
1190.099779  	75.966437 
1191.064203  	75.459110 
1192.028628  	74.768458 
1192.993052  	73.884393 
1193.957477  	72.966200 
1194.921901  	72.104639 
1195.886325  	71.354631 
1196.850750  	70.855856 
1197.815174  	70.858448 
1198.779599  	71.391893 
1199.744023  	72.259812 
1200.708448  	73.310173 
1201.672872  	74.450562 
1202.637297  	75.562621 
1203.601721  	76.515681 
1204.566146  	77.320400 
1205.530570  	78.018759 
1206.494994  	78.584703 
1207.459419  	79.008081 
1208.423843  	79.307230 
1209.388268  	79.538711 
1210.352692  	79.717834 
1211.317117  	79.781461 
1212.281541  	79.787180 
1213.245966  	79.860758 
1214.210390  	79.882460 
1215.174815  	79.836841 
1216.139239  	79.801124 
1217.103663  	79.749554 
1218.068088  	79.640668 
1219.032512  	79.449333 
1219.996937  	79.211257 
1220.961361  	78.904166 
1221.925786  	78.493762 
1222.890210  	78.067351 
1223.854635  	77.775584 
1224.819059  	77.697404 
1225.783484  	77.855535 
1226.747908  	78.106674 
1227.712332  	78.276619 
1228.676757  	78.333797 
1229.641181  	78.262463 
1230.605606  	78.104274 
1231.570030  	77.915723 
1232.534455  	77.756492 
1233.498879  	77.600077 
1234.463304  	77.439502 
1235.427728  	77.282852 
1236.392153  	77.168687 
1237.356577  	77.071414 
1238.321002  	76.966992 
1239.285426  	76.870164 
1240.249850  	76.786534 
1241.214275  	76.704326 
1242.178699  	76.591356 
1243.143124  	76.442735 
1244.107548  	76.306956 
1245.071973  	76.253847 
1246.036397  	76.165675 
1247.000822  	76.016450 
1247.965246  	75.901433 
1248.929671  	75.787230 
1249.894095  	75.614556 
1250.858519  	75.471932 
1251.822944  	75.308785 
1252.787368  	75.123258 
1253.751793  	74.960876 
1254.716217  	74.764927 
1255.680642  	74.575411 
1256.645066  	74.387586 
1257.609491  	74.155145 
1258.573915  	73.871305 
1259.538340  	73.514979 
1260.502764  	73.155119 
1261.467188  	72.976464 
1262.431613  	72.753815 
1263.396037  	72.433963 
1264.360462  	72.092424 
1265.324886  	71.742781 
1266.289311  	71.383576 
1267.253735  	71.074734 
1268.218160  	70.783523 
1269.182584  	70.457030 
1270.147009  	70.145639 
1271.111433  	69.928833 
1272.075857  	69.743692 
1273.040282  	69.730590 
1274.004706  	69.754213 
1274.969131  	69.869250 
1275.933555  	70.138847 
1276.897980  	70.558039 
1277.862404  	71.115320 
1278.826829  	71.769309 
1279.791253  	72.452844 
1280.755678  	73.174437 
1281.720102  	73.921511 
1282.684526  	74.630491 
1283.648951  	75.242282 
1284.613375  	75.777864 
1285.577800  	76.292668 
1286.542224  	76.707563 
1287.506649  	76.940918 
1288.471073  	77.232652 
1289.435498  	77.613378 
1290.399922  	77.876319 
1291.364347  	78.098098 
1292.328771  	78.315880 
1293.293195  	78.469332 
1294.257620  	78.555350 
1295.222044  	78.587037 
1296.186469  	78.562392 
1297.150893  	78.591798 
1298.115318  	78.729549 
1299.079742  	78.737345 
1300.044167  	78.684884 
1301.008591  	78.662329 
1301.973016  	78.685392 
1302.937440  	78.712544 
1303.901865  	78.772541 
1304.866289  	78.882138 
1305.830713  	78.993836 
1306.795138  	79.080024 
1307.759562  	79.115780 
1308.723987  	79.232123 
1309.688411  	79.468467 
1310.652836  	79.578117 
1311.617260  	79.531931 
1312.581685  	79.258505 
1313.546109  	79.349133 
1314.510534  	79.541239 
1315.474958  	79.722261 
1316.439382  	79.652842 
1317.403807  	79.521080 
1318.368231  	79.446129 
1319.332656  	79.299350 
1320.297080  	79.546678 
1321.261505  	79.668104 
1322.225929  	79.720159 
1323.190354  	79.622853 
1324.154778  	79.567190 
1325.119203  	79.522596 
1326.083627  	79.449020 
1327.048051  	79.378535 
1328.012476  	79.348299 
1328.976900  	79.303221 
1329.941325  	79.259955 
1330.905749  	79.300359 
1331.870174  	79.364308 
1332.834598  	79.333098 
1333.799023  	79.297316 
1334.763447  	79.239731 
1335.727872  	78.946959 
1336.692296  	78.411428 
1337.656720  	78.233823 
1338.621145  	77.588718 
1339.585569  	76.914171 
1340.549994  	77.096781 
1341.514418  	78.088541 
1342.478843  	78.474412 
1343.443267  	78.380907 
1344.407692  	78.267303 
1345.372116  	78.148845 
1346.336541  	78.030529 
1347.300965  	77.896067 
1348.265389  	77.680651 
1349.229814  	77.368644 
1350.194238  	77.235482 
1351.158663  	77.158788 
1352.123087  	76.969920 
1353.087512  	76.768386 
1354.051936  	76.443658 
1355.016361  	76.028794 
1355.980785  	76.026898 
1356.945210  	75.917508 
1357.909634  	75.620745 
1358.874059  	75.462369 
1359.838483  	75.258640 
1360.802907  	74.533351 
1361.767332  	73.926461 
1362.731756  	73.044102 
1363.696181  	73.037590 
1364.660605  	73.950527 
1365.625030  	74.008420 
1366.589454  	73.838480 
1367.553879  	73.436182 
1368.518303  	72.841471 
1369.482728  	72.801188 
1370.447152  	73.087181 
1371.411576  	73.105606 
1372.376001  	73.095100 
1373.340425  	72.689083 
1374.304850  	72.568241 
1375.269274  	73.384531 
1376.233699  	74.486348 
1377.198123  	74.948903 
1378.162548  	75.100125 
1379.126972  	75.534661 
1380.091397  	75.970525 
1381.055821  	76.415972 
1382.020245  	76.676429 
1382.984670  	76.894590 
1383.949094  	77.114565 
1384.913519  	77.270263 
1385.877943  	76.986222 
1386.842368  	76.205649 
1387.806792  	76.333135 
1388.771217  	77.525202 
1389.735641  	78.044699 
1390.700066  	78.197552 
1391.664490  	78.424126 
1392.628914  	78.668748 
1393.593339  	78.284645 
1394.557763  	77.381525 
1395.522188  	77.525050 
1396.486612  	78.308316 
1397.451037  	78.332274 
1398.415461  	77.777417 
1399.379886  	77.747659 
1400.344310  	78.588033 
1401.308735  	78.944157 
1402.273159  	78.825451 
1403.237583  	78.556134 
1404.202008  	77.790177 
1405.166432  	76.892718 
1406.130857  	77.126401 
1407.095281  	77.100817 
1408.059706  	76.526676 
1409.024130  	75.746395 
1409.988555  	74.695608 
1410.952979  	73.530043 
1411.917404  	72.177808 
1412.881828  	71.040798 
1413.846252  	69.785988 
1414.810677  	68.510297 
1415.775101  	67.424221 
1416.739526  	66.991256 
1417.703950  	67.474151 
1418.668375  	68.032953 
1419.632799  	69.578943 
1420.597224  	72.537183 
1421.561648  	73.628729 
1422.526073  	74.218147 
1423.490497  	73.865308 
1424.454922  	74.177407 
1425.419346  	75.420417 
1426.383770  	75.916919 
1427.348195  	75.989868 
1428.312619  	75.735814 
1429.277044  	75.194995 
1430.241468  	74.829417 
1431.205893  	75.139600 
1432.170317  	74.934118 
1433.134742  	74.557207 
1434.099166  	74.598406 
1435.063591  	74.268271 
1436.028015  	72.907039 
1436.992439  	72.335827 
1437.956864  	73.827927 
1438.921288  	74.338089 
1439.885713  	74.467921 
1440.850137  	74.570664 
1441.814562  	74.660967 
1442.778986  	74.763271 
1443.743411  	74.803781 
1444.707835  	74.809892 
1445.672260  	74.761602 
1446.636684  	74.525802 
1447.601108  	73.751457 
1448.565533  	73.733384 
1449.529957  	74.322833 
1450.494382  	74.227111 
1451.458806  	73.562363 
1452.423231  	72.968207 
1453.387655  	72.988969 
1454.352080  	72.273998 
1455.316504  	70.978006 
1456.280929  	69.782547 
1457.245353  	68.906199 
1458.209777  	68.660071 
1459.174202  	68.896469 
1460.138626  	69.402775 
1461.103051  	69.322856 
1462.067475  	68.614675 
1463.031900  	67.905628 
1463.996324  	67.019864 
1464.960749  	66.436366 
1465.925173  	67.796752 
1466.889598  	69.103431 
1467.854022  	70.212174 
1468.818446  	71.123408 
1469.782871  	71.398524 
1470.747295  	70.735724 
1471.711720  	68.818088 
1472.676144  	67.008513 
1473.640569  	66.909879 
1474.604993  	67.740933 
1475.569418  	67.732771 
1476.533842  	68.193189 
1477.498267  	70.276450 
1478.462691  	71.766022 
1479.427116  	73.046295 
1480.391540  	74.046785 
1481.355964  	74.801885 
1482.320389  	76.330562 
1483.284813  	77.430803 
1484.249238  	78.060773 
1485.213662  	78.184268 
1486.178087  	77.762244 
1487.142511  	77.211245 
1488.106936  	77.288173 
1489.071360  	76.251484 
1490.035785  	74.811995 
1491.000209  	75.799924 
1491.964633  	76.988194 
1492.929058  	77.199837 
1493.893482  	76.890285 
1494.857907  	76.222599 
1495.822331  	74.918119 
1496.786756  	74.287475 
1497.751180  	74.460321 
1498.715605  	73.666299 
1499.680029  	73.589450 
1500.644454  	73.523795 
1501.608878  	72.805869 
1502.573302  	72.476401 
1503.537727  	72.266602 
1504.502151  	71.291781 
1505.466576  	69.294764 
1506.431000  	65.773820 
1507.395425  	64.294662 
1508.359849  	65.199966 
1509.324274  	65.748035 
1510.288698  	65.927545 
1511.253123  	66.052117 
1512.217547  	65.124979 
1513.181971  	64.788129 
1514.146396  	64.257324 
1515.110820  	62.682779 
1516.075245  	61.010827 
1517.039669  	59.157828 
1518.004094  	59.454422 
1518.968518  	59.460769 
1519.932943  	57.867702 
1520.897367  	55.110144 
1521.861792  	54.339716 
1522.826216  	54.305194 
1523.790640  	54.112939 
1524.755065  	52.940669 
1525.719489  	51.762259 
1526.683914  	51.282588 
1527.648338  	50.342591 
1528.612763  	49.916948 
1529.577187  	50.032285 
1530.541612  	49.751135 
1531.506036  	49.038885 
1532.470461  	48.563116 
1533.434885  	48.095747 
1534.399309  	49.043123 
1535.363734  	49.976151 
1536.328158  	50.764364 
1537.292583  	51.349216 
1538.257007  	50.947580 
1539.221432  	49.842637 
1540.185856  	51.523260 
1541.150281  	53.055792 
1542.114705  	53.748225 
1543.079130  	55.082983 
1544.043554  	55.634030 
1545.007979  	56.090828 
1545.972403  	58.097699 
1546.936827  	59.734998 
1547.901252  	60.533780 
1548.865676  	60.730368 
1549.830101  	60.116851 
1550.794525  	61.490514 
1551.758950  	63.035192 
1552.723374  	63.540204 
1553.687799  	63.226198 
1554.652223  	63.404229 
1555.616648  	64.860742 
1556.581072  	65.146474 
1557.545496  	64.256920 
1558.509921  	62.169827 
1559.474345  	62.266067 
1560.438770  	65.842746 
1561.403194  	68.263864 
1562.367619  	69.224091 
1563.332043  	69.865318 
1564.296468  	70.011645 
1565.260892  	70.431290 
1566.225317  	71.543125 
1567.189741  	72.192179 
1568.154165  	72.285287 
1569.118590  	71.484018 
1570.083014  	72.300478 
1571.047439  	74.012047 
1572.011863  	74.681641 
1572.976288  	75.114615 
1573.940712  	75.512272 
1574.905137  	75.408244 
1575.869561  	74.657255 
1576.833986  	75.045407 
1577.798410  	76.273053 
1578.762834  	77.024701 
1579.727259  	77.487550 
1580.691683  	77.731313 
1581.656108  	77.909653 
1582.620532  	78.009632 
1583.584957  	78.132648 
1584.549381  	78.214817 
1585.513806  	78.261612 
1586.478230  	78.222796 
1587.442655  	78.193258 
1588.407079  	78.079036 
1589.371503  	77.860109 
1590.335928  	77.624821 
1591.300352  	77.475718 
1592.264777  	77.226551 
1593.229201  	76.950290 
1594.193626  	76.343515 
1595.158050  	75.938891 
1596.122475  	75.584674 
1597.086899  	75.190729 
1598.051324  	74.707636 
1599.015748  	74.110331 
1599.980173  	73.409285 
1600.944597  	72.586341 
1601.909021  	71.706629 
1602.873446  	70.729711 
1603.837870  	69.821729 
1604.802295  	69.138250 
1605.766719  	68.190136 
1606.731144  	67.108574 
1607.695568  	66.151696 
1608.659993  	65.354788 
1609.624417  	64.243733 
1610.588842  	63.628516 
1611.553266  	62.752293 
1612.517690  	61.682711 
1613.482115  	60.553255 
1614.446539  	59.392757 
1615.410964  	57.885796 
1616.375388  	56.060568 
1617.339813  	54.652631 
1618.304237  	54.418511 
1619.268662  	53.613797 
1620.233086  	52.714914 
1621.197511  	51.771774 
1622.161935  	50.750976 
1623.126359  	49.320134 
1624.090784  	48.845989 
1625.055208  	48.754927 
1626.019633  	48.268979 
1626.984057  	47.378710 
1627.948482  	46.557494 
1628.912906  	46.307409 
1629.877331  	46.107522 
1630.841755  	45.739276 
1631.806180  	45.671058 
1632.770604  	45.823441 
1633.735028  	45.997494 
1634.699453  	45.520340 
1635.663877  	45.949754 
1636.628302  	47.828205 
1637.592726  	48.857777 
1638.557151  	50.614625 
1639.521575  	51.996051 
1640.486000  	53.217591 
1641.450424  	54.610512 
1642.414849  	55.869464 
1643.379273  	57.328782 
1644.343697  	58.487722 
1645.308122  	58.864973 
1646.272546  	59.321749 
1647.236971  	60.552155 
1648.201395  	62.230165 
1649.165820  	64.736144 
1650.130244  	66.134872 
1651.094669  	66.852910 
1652.059093  	66.589048 
1653.023518  	65.117469 
1653.987942  	67.182148 
1654.952366  	70.291555 
1655.916791  	72.273887 
1656.881215  	73.404197 
1657.845640  	74.564831 
1658.810064  	75.679672 
1659.774489  	76.625013 
1660.738913  	77.292202 
1661.703338  	77.604016 
1662.667762  	77.882642 
1663.632187  	79.416644 
1664.596611  	80.718071 
1665.561036  	81.622078 
1666.525460  	82.472487 
1667.489884  	82.777525 
1668.454309  	82.190420 
1669.418733  	82.336889 
1670.383158  	83.949942 
1671.347582  	84.214896 
1672.312007  	85.198084 
1673.276431  	86.293770 
1674.240856  	86.339627 
1675.205280  	85.618875 
1676.169705  	86.734036 
1677.134129  	87.938305 
1678.098553  	88.442636 
1679.062978  	88.415705 
1680.027402  	87.487047 
1680.991827  	88.029151 
1681.956251  	89.086910 
1682.920676  	88.331799 
1683.885100  	85.261812 
1684.849525  	85.663536 
1685.813949  	89.280032 
1686.778374  	90.286838 
1687.742798  	90.052803 
1688.707222  	89.785974 
1689.671647  	90.208467 
1690.636071  	90.554131 
1691.600496  	91.326160 
1692.564920  	91.562208 
1693.529345  	91.519584 
1694.493769  	91.005209 
1695.458194  	89.691733 
1696.422618  	88.887811 
1697.387043  	89.926613 
1698.351467  	90.332053 
1699.315891  	89.865683 
1700.280316  	87.467094 
1701.244740  	89.472767 
1702.209165  	90.704194 
1703.173589  	90.990135 
1704.138014  	90.517029 
1705.102438  	90.333540 
1706.066863  	90.344141 
1707.031287  	90.440319 
1707.995712  	91.333470 
1708.960136  	91.655222 
1709.924560  	91.184773 
1710.888985  	91.211042 
1711.853409  	91.655682 
1712.817834  	91.356931 
1713.782258  	90.454929 
1714.746683  	89.390974 
1715.711107  	89.542943 
1716.675532  	89.618001 
1717.639956  	88.117647 
1718.604381  	88.072535 
1719.568805  	90.279043 
1720.533230  	91.178900 
1721.497654  	91.294284 
1722.462078  	91.175961 
1723.426503  	90.766580 
1724.390927  	90.935087 
1725.355352  	91.322634 
1726.319776  	91.290525 
1727.284201  	91.261469 
1728.248625  	91.183432 
1729.213050  	90.427597 
1730.177474  	89.217609 
1731.141899  	90.050032 
1732.106323  	90.268983 
1733.070747  	88.983080 
1734.035172  	86.825118 
1734.999596  	88.517375 
1735.964021  	90.380288 
1736.928445  	90.856151 
1737.892870  	90.874652 
1738.857294  	90.633514 
1739.821719  	89.944172 
1740.786143  	90.798829 
1741.750568  	91.409063 
1742.714992  	90.691628 
1743.679416  	89.793567 
1744.643841  	90.651251 
1745.608265  	91.175946 
1746.572690  	90.920369 
1747.537114  	90.440174 
1748.501539  	90.120123 
1749.465963  	90.310397 
1750.430388  	90.578397 
1751.394812  	89.814697 
1752.359237  	91.085439 
1753.323661  	92.127953 
1754.288085  	92.550573 
1755.252510  	92.595065 
1756.216934  	91.956296 
1757.181359  	91.333673 
1758.145783  	91.987300 
1759.110208  	92.393789 
1760.074632  	92.600641 
1761.039057  	91.977952 
1762.003481  	91.112284 
1762.967906  	92.071564 
1763.932330  	92.714470 
1764.896754  	92.836854 
1765.861179  	92.915261 
1766.825603  	92.677674 
1767.790028  	91.704409 
1768.754452  	91.499995 
1769.718877  	92.463540 
1770.683301  	92.128550 
1771.647726  	91.131324 
1772.612150  	90.761204 
1773.576575  	91.916168 
1774.540999  	92.459531 
1775.505423  	92.069819 
1776.469848  	92.367895 
1777.434272  	92.998543 
1778.398697  	92.772941 
1779.363121  	92.458251 
1780.327546  	92.012527 
1781.291970  	91.988516 
1782.256395  	92.689440 
1783.220819  	92.996885 
1784.185244  	92.610775 
1785.149668  	92.110625 
1786.114093  	92.669453 
1787.078517  	93.041456 
1788.042941  	93.020375 
1789.007366  	92.984581 
1789.971790  	92.612505 
1790.936215  	91.658853 
1791.900639  	91.193499 
1792.865064  	91.217171 
1793.829488  	92.233390 
1794.793913  	92.595230 
1795.758337  	91.937309 
1796.722762  	92.039319 
1797.687186  	92.773483 
1798.651610  	92.741695 
1799.616035  	92.107615 
1800.580459  	92.116734 
1801.544884  	91.916781 
1802.509308  	91.797213 
1803.473733  	92.587748 
1804.438157  	93.036669 
1805.402582  	93.001634 
1806.367006  	92.964162 
1807.331431  	92.679646 
1808.295855  	92.649226 
1809.260279  	92.929876 
1810.224704  	92.473882 
1811.189128  	92.114360 
1812.153553  	92.422063 
1813.117977  	92.742297 
1814.082402  	93.118245 
1815.046826  	93.144498 
1816.011251  	93.166141 
1816.975675  	92.874575 
1817.940100  	92.726204 
1818.904524  	93.019486 
1819.868948  	93.122454 
1820.833373  	93.006998 
1821.797797  	92.936315 
1822.762222  	92.720906 
1823.726646  	92.702672 
1824.691071  	92.089416 
1825.655495  	91.515055 
1826.619920  	92.518833 
1827.584344  	92.875100 
1828.548769  	92.351143 
1829.513193  	91.242194 
1830.477617  	91.417061 
1831.442042  	92.590048 
1832.406466  	92.818007 
1833.370891  	92.672255 
1834.335315  	92.891902 
1835.299740  	93.087604 
1836.264164  	92.884619 
1837.228589  	92.425904 
1838.193013  	92.606184 
1839.157438  	92.914623 
1840.121862  	92.918351 
1841.086287  	92.878174 
1842.050711  	92.538442 
1843.015135  	92.185443 
1843.979560  	91.459385 
1844.943984  	91.426665 
1845.908409  	92.157842 
1846.872833  	92.391008 
1847.837258  	92.006415 
1848.801682  	92.343501 
1849.766107  	92.872022 
1850.730531  	93.017764 
1851.694956  	92.970833 
1852.659380  	92.918190 
1853.623804  	92.980708 
1854.588229  	92.970200 
1855.552653  	92.897485 
1856.517078  	92.890664 
1857.481502  	92.889042 
1858.445927  	92.790699 
1859.410351  	92.715763 
1860.374776  	92.780973 
1861.339200  	92.688936 
1862.303625  	92.759070 
1863.268049  	92.844638 
1864.232473  	92.844800 
1865.196898  	92.792329 
1866.161322  	92.444997 
1867.125747  	92.044956 
1868.090171  	91.506396 
1869.054596  	91.100986 
1870.019020  	91.666769 
1870.983445  	92.354892 
1871.947869  	92.808603 
1872.912294  	93.006951 
1873.876718  	93.031453 
1874.841142  	92.969319 
1875.805567  	92.955920 
1876.769991  	92.961221 
1877.734416  	93.017127 
1878.698840  	92.895288 
1879.663265  	92.729007 
1880.627689  	92.808255 
1881.592114  	92.846707 
1882.556538  	92.808729 
1883.520963  	92.937928 
1884.485387  	92.873874 
1885.449811  	92.808171 
1886.414236  	92.952227 
1887.378660  	92.951496 
1888.343085  	92.648141 
1889.307509  	91.919195 
1890.271934  	91.967679 
1891.236358  	92.644846 
1892.200783  	92.781769 
1893.165207  	92.824439 
1894.129632  	92.639305 
1895.094056  	92.171142 
1896.058480  	92.367694 
1897.022905  	92.818234 
1897.987329  	92.793891 
1898.951754  	92.789917 
1899.916178  	92.872623 
1900.880603  	92.919531 
1901.845027  	92.725152 
1902.809452  	92.770202 
1903.773876  	92.761641 
1904.738301  	92.808087 
1905.702725  	92.854386 
1906.667150  	92.858492 
1907.631574  	92.570771 
1908.595998  	92.500610 
1909.560423  	92.328913 
1910.524847  	92.264417 
1911.489272  	92.686619 
1912.453696  	92.843726 
1913.418121  	92.834220 
1914.382545  	92.838059 
1915.346970  	92.906305 
1916.311394  	92.851139 
1917.275819  	92.372186 
1918.240243  	91.706677 
1919.204667  	92.266339 
1920.169092  	92.677989 
1921.133516  	92.624574 
1922.097941  	92.082500 
1923.062365  	91.522960 
1924.026790  	92.417131 
1924.991214  	92.921273 
1925.955639  	92.814791 
1926.920063  	92.784608 
1927.884488  	92.905119 
1928.848912  	92.981880 
1929.813336  	92.952140 
1930.777761  	92.890325 
1931.742185  	92.871836 
1932.706610  	92.896934 
1933.671034  	92.976460 
1934.635459  	93.019242 
1935.599883  	92.942741 
1936.564308  	92.943506 
1937.528732  	92.939781 
1938.493157  	92.911269 
1939.457581  	93.043479 
1940.422005  	92.949617 
1941.386430  	92.535415 
1942.350854  	91.710628 
1943.315279  	91.956694 
1944.279703  	92.623853 
1945.244128  	92.604061 
1946.208552  	92.696574 
1947.172977  	92.820534 
1948.137401  	92.854038 
1949.101826  	92.920199 
1950.066250  	93.123094 
1951.030674  	93.286034 
1951.995099  	93.197536 
1952.959523  	93.151524 
1953.923948  	92.933946 
1954.888372  	92.814713 
1955.852797  	92.899826 
1956.817221  	93.189659 
1957.781646  	93.219534 
1958.746070  	93.114119 
1959.710495  	93.111395 
1960.674919  	93.163617 
1961.639344  	93.051964 
1962.603768  	92.858579 
1963.568192  	92.925663 
1964.532617  	93.328977 
1965.497041  	93.350421 
1966.461466  	93.070455 
1967.425890  	92.846798 
1968.390315  	93.054537 
1969.354739  	92.927896 
1970.319164  	92.876846 
1971.283588  	93.094321 
1972.248013  	93.139769 
1973.212437  	93.054297 
1974.176861  	93.196001 
1975.141286  	93.268017 
1976.105710  	93.358069 
1977.070135  	93.531653 
1978.034559  	93.402274 
1978.998984  	92.895140 
1979.963408  	92.822980 
1980.927833  	92.819369 
1981.892257  	92.867498 
1982.856682  	92.796149 
1983.821106  	92.830575 
1984.785530  	92.779830 
1985.749955  	92.535269 
1986.714379  	92.619271 
1987.678804  	92.513155 
1988.643228  	92.307003 
1989.607653  	92.772996 
1990.572077  	92.898140 
1991.536502  	92.503595 
1992.500926  	92.089665 
1993.465351  	92.287698 
1994.429775  	92.681071 
1995.394199  	93.103042 
1996.358624  	93.079595 
1997.323048  	92.624801 
1998.287473  	92.527629 
1999.251897  	92.856310 
2000.216322  	93.126975 
2001.180746  	93.362162 
2002.145171  	93.321062 
2003.109595  	93.507673 
2004.074020  	93.662410 
2005.038444  	93.638869 
2006.002868  	93.393420 
2006.967293  	93.149262 
2007.931717  	92.925961 
2008.896142  	92.971091 
2009.860566  	93.236337 
2010.824991  	93.348999 
2011.789415  	93.060217 
2012.753840  	93.102543 
2013.718264  	92.971973 
2014.682689  	92.847848 
2015.647113  	92.982282 
2016.611537  	93.010818 
2017.575962  	92.780062 
2018.540386  	92.896452 
2019.504811  	93.248215 
2020.469235  	93.527387 
2021.433660  	93.472588 
2022.398084  	93.406302 
2023.362509  	93.327303 
2024.326933  	93.296205 
2025.291358  	93.171045 
2026.255782  	92.909364 
2027.220207  	93.053864 
2028.184631  	93.367755 
2029.149055  	93.476961 
2030.113480  	93.446333 
2031.077904  	93.438692 
2032.042329  	93.286219 
2033.006753  	92.997305 
2033.971178  	93.060251 
2034.935602  	93.208963 
2035.900027  	93.302807 
2036.864451  	93.168622 
2037.828876  	93.006875 
2038.793300  	92.863339 
2039.757724  	92.527117 
2040.722149  	92.264301 
2041.686573  	92.232694 
2042.650998  	92.439695 
2043.615422  	92.577601 
2044.579847  	92.666053 
2045.544271  	93.030327 
2046.508696  	92.952389 
2047.473120  	92.705328 
2048.437545  	92.863336 
2049.401969  	93.041736 
2050.366393  	92.645051 
2051.330818  	92.634547 
2052.295242  	92.990475 
2053.259667  	93.099848 
2054.224091  	92.868037 
2055.188516  	92.644926 
2056.152940  	92.683903 
2057.117365  	92.612918 
2058.081789  	92.606360 
2059.046214  	92.815311 
2060.010638  	92.685244 
2060.975062  	92.361987 
2061.939487  	92.464434 
2062.903911  	92.642788 
2063.868336  	92.489226 
2064.832760  	92.248784 
2065.797185  	92.338031 
2066.761609  	92.566389 
2067.726034  	92.683087 
2068.690458  	92.866021 
2069.654883  	92.848652 
2070.619307  	92.679584 
2071.583731  	92.515288 
2072.548156  	92.526850 
2073.512580  	92.463011 
2074.477005  	92.510541 
2075.441429  	92.706985 
2076.405854  	92.695945 
2077.370278  	92.575002 
2078.334703  	92.569209 
2079.299127  	92.548460 
2080.263552  	92.464494 
2081.227976  	92.395021 
2082.192401  	92.430354 
2083.156825  	92.429876 
2084.121249  	92.569996 
2085.085674  	92.756691 
2086.050098  	92.767365 
2087.014523  	92.628778 
2087.978947  	92.568267 
2088.943372  	92.617763 
2089.907796  	92.566382 
2090.872221  	92.629824 
2091.836645  	92.789759 
2092.801070  	92.653307 
2093.765494  	92.650968 
2094.729918  	92.712669 
2095.694343  	92.680670 
2096.658767  	92.616084 
2097.623192  	92.705802 
2098.587616  	92.703670 
2099.552041  	92.640333 
2100.516465  	92.516238 
2101.480890  	92.544439 
2102.445314  	92.534489 
2103.409739  	92.523778 
2104.374163  	92.603844 
2105.338587  	92.529452 
2106.303012  	92.417292 
2107.267436  	92.488918 
2108.231861  	92.539669 
2109.196285  	92.493850 
2110.160710  	92.583007 
2111.125134  	92.765345 
2112.089559  	92.723684 
2113.053983  	92.648898 
2114.018408  	92.665524 
2114.982832  	92.611918 
2115.947256  	92.512825 
2116.911681  	92.648073 
2117.876105  	92.757616 
2118.840530  	92.720033 
2119.804954  	92.653086 
2120.769379  	92.591646 
2121.733803  	92.725771 
2122.698228  	92.937945 
2123.662652  	92.837557 
2124.627077  	92.726648 
2125.591501  	92.793330 
2126.555925  	92.972073 
2127.520350  	92.951427 
2128.484774  	92.927282 
2129.449199  	93.105274 
2130.413623  	93.252705 
2131.378048  	93.095614 
2132.342472  	93.133946 
2133.306897  	93.200722 
2134.271321  	93.105595 
2135.235746  	92.864272 
2136.200170  	92.780964 
2137.164594  	92.937379 
2138.129019  	93.137159 
2139.093443  	93.096387 
2140.057868  	93.122445 
2141.022292  	93.189716 
2141.986717  	93.147997 
2142.951141  	93.142854 
2143.915566  	93.206244 
2144.879990  	92.891153 
2145.844415  	92.841110 
2146.808839  	93.060581 
2147.773264  	93.247552 
2148.737688  	93.257264 
2149.702112  	93.297063 
2150.666537  	93.234473 
2151.630961  	93.194878 
2152.595386  	93.393763 
2153.559810  	93.544159 
2154.524235  	93.494598 
2155.488659  	93.671493 
2156.453084  	94.025275 
2157.417508  	94.325472 
2158.381933  	93.862818 
2159.346357  	93.158090 
2160.310781  	92.865648 
2161.275206  	92.876514 
2162.239630  	92.874863 
2163.204055  	93.013086 
2164.168479  	92.881838 
2165.132904  	92.684267 
2166.097328  	92.802898 
2167.061753  	93.021981 
2168.026177  	92.766747 
2168.990602  	92.564977 
2169.955026  	92.707098 
2170.919450  	93.092951 
2171.883875  	92.849581 
2172.848299  	92.751956 
2173.812724  	92.884235 
2174.777148  	92.883548 
2175.741573  	92.636643 
2176.705997  	92.651554 
2177.670422  	92.705406 
2178.634846  	92.688903 
2179.599271  	92.706161 
2180.563695  	92.635387 
2181.528119  	92.784998 
2182.492544  	92.979399 
2183.456968  	92.721824 
2184.421393  	92.468144 
2185.385817  	92.759382 
2186.350242  	93.143756 
2187.314666  	92.749816 
2188.279091  	92.576489 
2189.243515  	92.519232 
2190.207940  	92.659681 
2191.172364  	92.873925 
2192.136788  	92.846667 
2193.101213  	92.700740 
2194.065637  	92.650156 
2195.030062  	92.437450 
2195.994486  	92.304171 
2196.958911  	92.418717 
2197.923335  	92.614984 
2198.887760  	92.576711 
2199.852184  	92.664637 
2200.816609  	92.552045 
2201.781033  	92.492066 
2202.745458  	92.496039 
2203.709882  	92.639848 
2204.674306  	92.662316 
2205.638731  	92.590110 
2206.603155  	92.578761 
2207.567580  	92.662921 
2208.532004  	92.584807 
2209.496429  	92.631867 
2210.460853  	92.659934 
2211.425278  	92.738655 
2212.389702  	92.680311 
2213.354127  	92.540701 
2214.318551  	92.467350 
2215.282975  	92.429633 
2216.247400  	92.563779 
2217.211824  	92.798957 
2218.176249  	92.770558 
2219.140673  	92.641126 
2220.105098  	92.525592 
2221.069522  	92.469217 
2222.033947  	92.535697 
2222.998371  	92.757684 
2223.962796  	92.792496 
2224.927220  	92.758374 
2225.891644  	92.567114 
2226.856069  	92.495132 
2227.820493  	92.505249 
2228.784918  	92.659706 
2229.749342  	92.654725 
2230.713767  	92.670519 
2231.678191  	92.644705 
2232.642616  	92.538282 
2233.607040  	92.711589 
2234.571465  	92.807031 
2235.535889  	92.641440 
2236.500313  	92.554144 
2237.464738  	92.617335 
2238.429162  	92.711056 
2239.393587  	92.657007 
2240.358011  	92.603400 
2241.322436  	92.726228 
2242.286860  	92.690674 
2243.251285  	92.572916 
2244.215709  	92.592270 
2245.180134  	92.490825 
2246.144558  	92.448732 
2247.108982  	92.603448 
2248.073407  	92.762772 
2249.037831  	92.659661 
2250.002256  	92.525190 
2250.966680  	92.535243 
2251.931105  	92.684877 
2252.895529  	92.690354 
2253.859954  	92.685535 
2254.824378  	92.607990 
2255.788803  	92.484913 
2256.753227  	92.463343 
2257.717651  	92.545840 
2258.682076  	92.391953 
2259.646500  	92.332405 
2260.610925  	92.328987 
2261.575349  	92.384151 
2262.539774  	92.450282 
2263.504198  	92.534617 
2264.468623  	92.427435 
2265.433047  	92.434376 
2266.397472  	92.539761 
2267.361896  	92.496883 
2268.326321  	92.419805 
2269.290745  	92.448933 
2270.255169  	92.413417 
2271.219594  	92.454269 
2272.184018  	92.462202 
2273.148443  	92.405131 
2274.112867  	92.418741 
2275.077292  	92.399238 
2276.041716  	92.402010 
2277.006141  	92.423753 
2277.970565  	92.419169 
2278.934990  	92.422013 
2279.899414  	92.405326 
2280.863838  	92.428097 
2281.828263  	92.407260 
2282.792687  	92.342175 
2283.757112  	92.243650 
2284.721536  	92.200437 
2285.685961  	92.213869 
2286.650385  	92.280533 
2287.614810  	92.238145 
2288.579234  	92.213562 
2289.543659  	92.179155 
2290.508083  	92.218119 
2291.472507  	92.202350 
2292.436932  	92.235916 
2293.401356  	92.177331 
2294.365781  	92.106389 
2295.330205  	92.091624 
2296.294630  	92.031399 
2297.259054  	92.026920 
2298.223479  	91.982301 
2299.187903  	92.034509 
2300.152328  	92.122752 
2301.116752  	92.081732 
2302.081176  	92.079890 
2303.045601  	91.963853 
2304.010025  	92.014020 
2304.974450  	91.834103 
2305.938874  	91.812122 
2306.903299  	91.736459 
2307.867723  	91.864722 
2308.832148  	91.737441 
2309.796572  	91.758422 
2310.760997  	91.689585 
2311.725421  	91.686472 
2312.689845  	91.767594 
2313.654270  	91.838475 
2314.618694  	91.915939 
2315.583119  	91.988206 
2316.547543  	92.022342 
2317.511968  	92.038152 
2318.476392  	92.002557 
2319.440817  	91.949757 
2320.405241  	91.936025 
2321.369666  	91.991353 
2322.334090  	92.011304 
2323.298515  	91.984612 
2324.262939  	91.985482 
2325.227363  	92.313722 
2326.191788  	92.675702 
2327.156212  	92.821234 
2328.120637  	92.848996 
2329.085061  	92.850160 
2330.049486  	92.946357 
2331.013910  	92.984016 
2331.978335  	93.094153 
2332.942759  	93.304750 
2333.907184  	93.365392 
2334.871608  	93.354606 
2335.836032  	93.533612 
2336.800457  	93.715039 
2337.764881  	93.689747 
2338.729306  	93.658417 
2339.693730  	93.527129 
2340.658155  	93.582965 
2341.622579  	93.731533 
2342.587004  	93.605702 
2343.551428  	93.446430 
2344.515853  	93.283844 
2345.480277  	93.110358 
2346.444701  	92.908348 
2347.409126  	92.723241 
2348.373550  	92.487887 
2349.337975  	92.334034 
2350.302399  	92.506625 
2351.266824  	92.872551 
2352.231248  	93.247441 
2353.195673  	93.389293 
2354.160097  	93.331872 
2355.124522  	93.386107 
2356.088946  	93.633645 
2357.053370  	93.812183 
2358.017795  	93.912421 
2358.982219  	93.932979 
2359.946644  	94.306062 
2360.911068  	94.503810 
2361.875493  	94.298736 
2362.839917  	94.107501 
2363.804342  	94.119152 
2364.768766  	94.003876 
2365.733191  	94.023222 
2366.697615  	93.855952 
2367.662039  	93.610629 
2368.626464  	93.298048 
2369.590888  	93.099595 
2370.555313  	93.031782 
2371.519737  	92.897786 
2372.484162  	92.716379 
2373.448586  	92.627650 
2374.413011  	92.524534 
2375.377435  	92.352775 
2376.341860  	92.210601 
2377.306284  	92.144582 
2378.270708  	92.059809 
2379.235133  	91.965576 
2380.199557  	91.982230 
2381.163982  	92.040359 
2382.128406  	92.120804 
2383.092831  	92.194409 
2384.057255  	92.245293 
2385.021680  	92.300475 
2385.986104  	92.352344 
2386.950529  	92.413072 
2387.914953  	92.481802 
2388.879378  	92.529781 
2389.843802  	92.583476 
2390.808226  	92.569958 
2391.772651  	92.540663 
2392.737075  	92.581574 
2393.701500  	92.629942 
2394.665924  	92.666983 
2395.630349  	92.656511 
2396.594773  	92.571637 
2397.559198  	92.512882 
2398.523622  	92.580067 
2399.488047  	92.637238 
2400.452471  	92.609004 
2401.416895  	92.564250 
2402.381320  	92.564902 
2403.345744  	92.618049 
2404.310169  	92.621071 
2405.274593  	92.537460 
2406.239018  	92.505132 
2407.203442  	92.548218 
2408.167867  	92.579960 
2409.132291  	92.573261 
2410.096716  	92.558957 
2411.061140  	92.524616 
2412.025564  	92.521322 
2412.989989  	92.490884 
2413.954413  	92.512982 
2414.918838  	92.601867 
2415.883262  	92.612332 
2416.847687  	92.570868 
2417.812111  	92.600961 
2418.776536  	92.571450 
2419.740960  	92.554201 
2420.705385  	92.552286 
2421.669809  	92.503190 
2422.634233  	92.548262 
2423.598658  	92.538315 
2424.563082  	92.524778 
2425.527507  	92.602621 
2426.491931  	92.551696 
2427.456356  	92.470061 
2428.420780  	92.516324 
2429.385205  	92.535048 
2430.349629  	92.526037 
2431.314054  	92.482241 
2432.278478  	92.476329 
2433.242902  	92.520239 
2434.207327  	92.525292 
2435.171751  	92.581477 
2436.136176  	92.641626 
2437.100600  	92.634263 
2438.065025  	92.570133 
2439.029449  	92.572252 
2439.993874  	92.567551 
2440.958298  	92.509822 
2441.922723  	92.472288 
2442.887147  	92.488103 
2443.851572  	92.525974 
2444.815996  	92.512826 
2445.780420  	92.450990 
2446.744845  	92.415410 
2447.709269  	92.398834 
2448.673694  	92.425883 
2449.638118  	92.446487 
2450.602543  	92.459181 
2451.566967  	92.425754 
2452.531392  	92.421460 
2453.495816  	92.408949 
2454.460241  	92.425939 
2455.424665  	92.441554 
2456.389089  	92.429480 
2457.353514  	92.435108 
2458.317938  	92.465085 
2459.282363  	92.463721 
2460.246787  	92.469123 
2461.211212  	92.425049 
2462.175636  	92.433284 
2463.140061  	92.452043 
2464.104485  	92.441892 
2465.068910  	92.460841 
2466.033334  	92.430316 
2466.997758  	92.428123 
2467.962183  	92.490498 
2468.926607  	92.448070 
2469.891032  	92.393954 
2470.855456  	92.386930 
2471.819881  	92.391400 
2472.784305  	92.395212 
2473.748730  	92.415427 
2474.713154  	92.494177 
2475.677579  	92.498326 
2476.642003  	92.406600 
2477.606427  	92.404854 
2478.570852  	92.494650 
2479.535276  	92.538339 
2480.499701  	92.456716 
2481.464125  	92.422727 
2482.428550  	92.466123 
2483.392974  	92.513501 
2484.357399  	92.491485 
2485.321823  	92.417690 
2486.286248  	92.366873 
2487.250672  	92.370736 
2488.215096  	92.401650 
2489.179521  	92.402736 
2490.143945  	92.357934 
2491.108370  	92.275701 
2492.072794  	92.309440 
2493.037219  	92.399946 
2494.001643  	92.438645 
2494.966068  	92.466918 
2495.930492  	92.505000 
2496.894917  	92.498503 
2497.859341  	92.485405 
2498.823765  	92.460287 
2499.788190  	92.423839 
2500.752614  	92.382821 
2501.717039  	92.303527 
2502.681463  	92.297273 
2503.645888  	92.313447 
2504.610312  	92.353024 
2505.574737  	92.389589 
2506.539161  	92.400263 
2507.503586  	92.407733 
2508.468010  	92.412806 
2509.432435  	92.350809 
2510.396859  	92.336131 
2511.361283  	92.359841 
2512.325708  	92.324666 
2513.290132  	92.331239 
2514.254557  	92.388997 
2515.218981  	92.347884 
2516.183406  	92.319563 
2517.147830  	92.375863 
2518.112255  	92.395218 
2519.076679  	92.418793 
2520.041104  	92.422804 
2521.005528  	92.357445 
2521.969952  	92.308253 
2522.934377  	92.292035 
2523.898801  	92.381423 
2524.863226  	92.401802 
2525.827650  	92.305828 
2526.792075  	92.321214 
2527.756499  	92.369494 
2528.720924  	92.352890 
2529.685348  	92.276044 
2530.649773  	92.281100 
2531.614197  	92.284534 
2532.578621  	92.275776 
2533.543046  	92.320196 
2534.507470  	92.345366 
2535.471895  	92.368733 
2536.436319  	92.330333 
2537.400744  	92.326080 
2538.365168  	92.294121 
2539.329593  	92.275530 
2540.294017  	92.262117 
2541.258442  	92.281618 
2542.222866  	92.297063 
2543.187290  	92.314628 
2544.151715  	92.340853 
2545.116139  	92.362328 
2546.080564  	92.313488 
2547.044988  	92.223215 
2548.009413  	92.172628 
2548.973837  	92.247016 
2549.938262  	92.271821 
2550.902686  	92.260273 
2551.867111  	92.274145 
2552.831535  	92.210862 
2553.795959  	92.139012 
2554.760384  	92.167359 
2555.724808  	92.193459 
2556.689233  	92.196456 
2557.653657  	92.184431 
2558.618082  	92.162950 
2559.582506  	92.206018 
2560.546931  	92.220484 
2561.511355  	92.173169 
2562.475780  	92.160077 
2563.440204  	92.123767 
2564.404629  	92.175877 
2565.369053  	92.224239 
2566.333477  	92.225452 
2567.297902  	92.194470 
2568.262326  	92.132570 
2569.226751  	92.034211 
2570.191175  	92.038766 
2571.155600  	92.134040 
2572.120024  	92.155208 
2573.084449  	92.157092 
2574.048873  	92.116938 
2575.013298  	92.052048 
2575.977722  	92.047746 
2576.942146  	92.067875 
2577.906571  	92.031423 
2578.870995  	92.038394 
2579.835420  	92.052259 
2580.799844  	92.054552 
2581.764269  	92.047005 
2582.728693  	92.055217 
2583.693118  	92.033243 
2584.657542  	91.976222 
2585.621967  	91.981063 
2586.586391  	92.004438 
2587.550815  	92.059273 
2588.515240  	92.041847 
2589.479664  	91.966739 
2590.444089  	91.924781 
2591.408513  	91.990658 
2592.372938  	92.038972 
2593.337362  	92.012969 
2594.301787  	91.968630 
2595.266211  	91.939057 
2596.230636  	91.958530 
2597.195060  	92.005075 
2598.159484  	92.014885 
2599.123909  	92.015404 
2600.088333  	91.967789 
2601.052758  	91.948825 
2602.017182  	91.991381 
2602.981607  	91.993660 
2603.946031  	91.942900 
2604.910456  	91.959830 
2605.874880  	91.992992 
2606.839305  	91.974516 
2607.803729  	91.932043 
2608.768153  	91.946322 
2609.732578  	91.953494 
2610.697002  	91.936132 
2611.661427  	91.939279 
2612.625851  	91.978203 
2613.590276  	91.991047 
2614.554700  	91.964472 
2615.519125  	91.925139 
2616.483549  	91.936729 
2617.447974  	91.933561 
2618.412398  	91.956508 
2619.376822  	91.950862 
2620.341247  	91.946890 
2621.305671  	91.931112 
2622.270096  	91.901431 
2623.234520  	91.907192 
2624.198945  	91.941838 
2625.163369  	91.989189 
2626.127794  	91.944071 
2627.092218  	91.886332 
2628.056643  	91.895217 
2629.021067  	91.917642 
2629.985492  	91.965090 
2630.949916  	92.003490 
2631.914340  	91.954893 
2632.878765  	91.889897 
2633.843189  	91.915117 
2634.807614  	91.924610 
2635.772038  	91.915614 
2636.736463  	91.870991 
2637.700887  	91.869403 
2638.665312  	91.887245 
2639.629736  	91.912664 
2640.594161  	91.923221 
2641.558585  	91.925808 
2642.523009  	91.895471 
2643.487434  	91.874042 
2644.451858  	91.883335 
2645.416283  	91.870976 
2646.380707  	91.844704 
2647.345132  	91.822085 
2648.309556  	91.833065 
2649.273981  	91.850790 
2650.238405  	91.863721 
2651.202830  	91.874940 
2652.167254  	91.839581 
2653.131678  	91.816359 
2654.096103  	91.807674 
2655.060527  	91.809749 
2656.024952  	91.818604 
2656.989376  	91.814151 
2657.953801  	91.788409 
2658.918225  	91.807476 
2659.882650  	91.825676 
2660.847074  	91.820723 
2661.811499  	91.814495 
2662.775923  	91.807266 
2663.740347  	91.836117 
2664.704772  	91.854290 
2665.669196  	91.868786 
2666.633621  	91.856421 
2667.598045  	91.818436 
2668.562470  	91.804362 
2669.526894  	91.796294 
2670.491319  	91.801846 
2671.455743  	91.861425 
2672.420168  	91.888995 
2673.384592  	91.860813 
2674.349016  	91.830672 
2675.313441  	91.818311 
2676.277865  	91.820347 
2677.242290  	91.805535 
2678.206714  	91.820106 
2679.171139  	91.814665 
2680.135563  	91.779103 
2681.099988  	91.774171 
2682.064412  	91.786188 
2683.028837  	91.791103 
2683.993261  	91.769554 
2684.957686  	91.757608 
2685.922110  	91.789316 
2686.886534  	91.766256 
2687.850959  	91.718088 
2688.815383  	91.709690 
2689.779808  	91.713861 
2690.744232  	91.717529 
2691.708657  	91.724477 
2692.673081  	91.724910 
2693.637506  	91.713773 
2694.601930  	91.716417 
2695.566355  	91.732710 
2696.530779  	91.716178 
2697.495203  	91.704502 
2698.459628  	91.699488 
2699.424052  	91.692775 
2700.388477  	91.680991 
2701.352901  	91.657290 
2702.317326  	91.630132 
2703.281750  	91.631553 
2704.246175  	91.645836 
2705.210599  	91.641641 
2706.175024  	91.623837 
2707.139448  	91.612897 
2708.103872  	91.610424 
2709.068297  	91.607486 
2710.032721  	91.586599 
2710.997146  	91.581805 
2711.961570  	91.588119 
2712.925995  	91.594132 
2713.890419  	91.597385 
2714.854844  	91.597583 
2715.819268  	91.594188 
2716.783693  	91.583051 
2717.748117  	91.587815 
2718.712541  	91.593014 
2719.676966  	91.566048 
2720.641390  	91.520063 
2721.605815  	91.509508 
2722.570239  	91.496583 
2723.534664  	91.476068 
2724.499088  	91.449911 
2725.463513  	91.422924 
2726.427937  	91.399961 
2727.392362  	91.403187 
2728.356786  	91.393069 
2729.321210  	91.362253 
2730.285635  	91.326279 
2731.250059  	91.295476 
2732.214484  	91.298851 
2733.178908  	91.279928 
2734.143333  	91.265694 
2735.107757  	91.246257 
2736.072182  	91.242948 
2737.036606  	91.254854 
2738.001031  	91.226975 
2738.965455  	91.185401 
2739.929879  	91.178500 
2740.894304  	91.176548 
2741.858728  	91.148969 
2742.823153  	91.104278 
2743.787577  	91.121347 
2744.752002  	91.131911 
2745.716426  	91.094716 
2746.680851  	91.084997 
2747.645275  	91.082768 
2748.609700  	91.060937 
2749.574124  	91.054996 
2750.538549  	91.058496 
2751.502973  	91.036937 
2752.467397  	91.041628 
2753.431822  	91.037344 
2754.396246  	91.021802 
2755.360671  	91.018452 
2756.325095  	91.031345 
2757.289520  	90.995079 
2758.253944  	90.968046 
2759.218369  	90.976745 
2760.182793  	90.960118 
2761.147218  	90.951876 
2762.111642  	90.955049 
2763.076066  	90.956877 
2764.040491  	90.954192 
2765.004915  	90.936183 
2765.969340  	90.933177 
2766.933764  	90.941489 
2767.898189  	90.915445 
2768.862613  	90.899694 
2769.827038  	90.893570 
2770.791462  	90.865745 
2771.755887  	90.807789 
2772.720311  	90.793279 
2773.684735  	90.797577 
2774.649160  	90.789112 
2775.613584  	90.780831 
2776.578009  	90.759742 
2777.542433  	90.762746 
2778.506858  	90.778190 
2779.471282  	90.762617 
2780.435707  	90.745293 
2781.400131  	90.712922 
2782.364556  	90.707313 
2783.328980  	90.695171 
2784.293404  	90.664896 
2785.257829  	90.638540 
2786.222253  	90.626329 
2787.186678  	90.594094 
2788.151102  	90.553220 
2789.115527  	90.575015 
2790.079951  	90.552383 
2791.044376  	90.496392 
2792.008800  	90.476847 
2792.973225  	90.453181 
2793.937649  	90.434998 
2794.902073  	90.400955 
2795.866498  	90.393744 
2796.830922  	90.384132 
2797.795347  	90.344594 
2798.759771  	90.309271 
2799.724196  	90.243127 
2800.688620  	90.162574 
2801.653045  	90.136661 
2802.617469  	90.123254 
2803.581894  	90.141091 
2804.546318  	90.124256 
2805.510743  	90.077439 
2806.475167  	90.014753 
2807.439591  	89.982136 
2808.404016  	89.929687 
2809.368440  	89.895549 
2810.332865  	89.873706 
2811.297289  	89.800407 
2812.261714  	89.746153 
2813.226138  	89.728262 
2814.190563  	89.653957 
2815.154987  	89.614996 
2816.119412  	89.568459 
2817.083836  	89.485441 
2818.048260  	89.416370 
2819.012685  	89.390269 
2819.977109  	89.373409 
2820.941534  	89.284992 
2821.905958  	89.202563 
2822.870383  	89.134793 
2823.834807  	89.082414 
2824.799232  	89.028933 
2825.763656  	88.972832 
2826.728081  	88.935029 
2827.692505  	88.893645 
2828.656929  	88.857114 
2829.621354  	88.832557 
2830.585778  	88.782236 
2831.550203  	88.678546 
2832.514627  	88.528970 
2833.479052  	88.449721 
2834.443476  	88.420356 
2835.407901  	88.328677 
2836.372325  	88.192973 
2837.336750  	88.015413 
2838.301174  	87.777623 
2839.265598  	87.536128 
2840.230023  	87.338340 
2841.194447  	87.108111 
2842.158872  	86.776140 
2843.123296  	86.365818 
2844.087721  	85.898329 
2845.052145  	85.364610 
2846.016570  	84.762532 
2846.980994  	84.101076 
2847.945419  	83.360753 
2848.909843  	82.594672 
2849.874267  	81.918952 
2850.838692  	81.365612 
2851.803116  	80.913175 
2852.767541  	80.484333 
2853.731965  	80.089260 
2854.696390  	79.725578 
2855.660814  	79.384545 
2856.625239  	79.099651 
2857.589663  	78.889613 
2858.554088  	78.779672 
2859.518512  	78.768711 
2860.482936  	78.826825 
2861.447361  	78.921575 
2862.411785  	79.079057 
2863.376210  	79.316488 
2864.340634  	79.531649 
2865.305059  	79.755475 
2866.269483  	79.988672 
2867.233908  	80.186489 
2868.198332  	80.351302 
2869.162757  	80.501024 
2870.127181  	80.628432 
2871.091606  	80.713648 
2872.056030  	80.813178 
2873.020454  	80.980379 
2873.984879  	81.198566 
2874.949303  	81.363315 
2875.913728  	81.579052 
2876.878152  	81.892030 
2877.842577  	82.206374 
2878.807001  	82.566618 
2879.771426  	82.974729 
2880.735850  	83.305146 
2881.700275  	83.628761 
2882.664699  	83.946199 
2883.629123  	84.209573 
2884.593548  	84.444147 
2885.557972  	84.615158 
2886.522397  	84.732549 
2887.486821  	84.801321 
2888.451246  	84.803668 
2889.415670  	84.804360 
2890.380095  	84.762395 
2891.344519  	84.685502 
2892.308944  	84.580745 
2893.273368  	84.400324 
2894.237792  	84.227804 
2895.202217  	84.003999 
2896.166641  	83.772749 
2897.131066  	83.535387 
2898.095490  	83.269608 
2899.059915  	82.995292 
2900.024339  	82.685627 
2900.988764  	82.384235 
2901.953188  	82.107606 
2902.917613  	81.808072 
2903.882037  	81.457732 
2904.846461  	81.121008 
2905.810886  	80.826493 
2906.775310  	80.560096 
2907.739735  	80.281513 
2908.704159  	79.980004 
2909.668584  	79.697364 
2910.633008  	79.412595 
2911.597433  	79.127831 
2912.561857  	78.882423 
2913.526282  	78.574884 
2914.490706  	78.133057 
2915.455130  	77.650277 
2916.419555  	77.203267 
2917.383979  	76.801656 
2918.348404  	76.416577 
2919.312828  	76.099436 
2920.277253  	75.781839 
2921.241677  	75.475763 
2922.206102  	75.198937 
2923.170526  	74.888978 
2924.134951  	74.636165 
2925.099375  	74.365996 
2926.063800  	74.061882 
2927.028224  	73.802029 
2927.992648  	73.555772 
2928.957073  	73.309345 
2929.921497  	73.050436 
2930.885922  	72.824415 
2931.850346  	72.687803 
2932.814771  	72.656649 
2933.779195  	72.663109 
2934.743620  	72.776205 
2935.708044  	72.991729 
2936.672469  	73.314636 
2937.636893  	73.731736 
2938.601317  	74.201496 
2939.565742  	74.690605 
2940.530166  	75.209174 
2941.494591  	75.732926 
2942.459015  	76.230305 
2943.423440  	76.706892 
2944.387864  	77.146824 
2945.352289  	77.596951 
2946.316713  	78.132399 
2947.281138  	78.754395 
2948.245562  	79.428587 
2949.209986  	80.116605 
2950.174411  	80.795980 
2951.138835  	81.498735 
2952.103260  	82.178897 
2953.067684  	82.784799 
2954.032109  	83.312456 
2954.996533  	83.854397 
2955.960958  	84.358944 
2956.925382  	84.814268 
2957.889807  	85.250304 
2958.854231  	85.610936 
2959.818655  	85.945225 
2960.783080  	86.282495 
2961.747504  	86.555173 
2962.711929  	86.840713 
2963.676353  	87.087671 
2964.640778  	87.246691 
2965.605202  	87.460453 
2966.569627  	87.702138 
2967.534051  	87.966260 
2968.498476  	88.254682 
2969.462900  	88.469008 
2970.427324  	88.661209 
2971.391749  	88.874746 
2972.356173  	89.109436 
2973.320598  	89.321173 
2974.285022  	89.461027 
2975.249447  	89.599432 
2976.213871  	89.785972 
2977.178296  	89.960314 
2978.142720  	90.027556 
2979.107145  	90.134867 
2980.071569  	90.285111 
2981.035993  	90.411031 
2982.000418  	90.547551 
2982.964842  	90.640582 
2983.929267  	90.705169 
2984.893691  	90.779943 
2985.858116  	90.836617 
2986.822540  	90.888665 
2987.786965  	90.917692 
2988.751389  	90.960521 
2989.715814  	90.989367 
2990.680238  	91.055537 
2991.644663  	91.125816 
2992.609087  	91.146427 
2993.573511  	91.152779 
2994.537936  	91.132462 
2995.502360  	91.174852 
2996.466785  	91.194244 
2997.431209  	91.193821 
2998.395634  	91.240289 
2999.360058  	91.261323 
3000.324483  	91.263449 
3001.288907  	91.210691 
3002.253332  	91.159214 
3003.217756  	91.194045 
3004.182180  	91.193234 
3005.146605  	91.143207 
3006.111029  	91.206734 
3007.075454  	91.258247 
3008.039878  	91.251158 
3009.004303  	91.253348 
3009.968727  	91.189808 
3010.933152  	91.140674 
3011.897576  	91.071852 
3012.862001  	90.974413 
3013.826425  	91.058495 
3014.790849  	91.121244 
3015.755274  	91.049701 
3016.719698  	91.019118 
3017.684123  	90.994923 
3018.648547  	90.962293 
3019.612972  	90.935249 
3020.577396  	90.931103 
3021.541821  	90.876298 
3022.506245  	90.801212 
3023.470670  	90.805163 
3024.435094  	90.825930 
3025.399518  	90.745841 
3026.363943  	90.646956 
3027.328367  	90.633033 
3028.292792  	90.620752 
3029.257216  	90.632865 
3030.221641  	90.546223 
3031.186065  	90.361734 
3032.150490  	90.253225 
3033.114914  	90.334569 
3034.079339  	90.312458 
3035.043763  	90.244417 
3036.008187  	90.197278 
3036.972612  	90.102500 
3037.937036  	90.007534 
3038.901461  	89.935457 
3039.865885  	89.863344 
3040.830310  	89.820260 
3041.794734  	89.761344 
3042.759159  	89.692407 
3043.723583  	89.619885 
3044.688008  	89.518681 
3045.652432  	89.423781 
3046.616857  	89.306528 
3047.581281  	89.187807 
3048.545705  	89.018791 
3049.510130  	88.902992 
3050.474554  	88.857881 
3051.438979  	88.763191 
3052.403403  	88.650814 
3053.367828  	88.525543 
3054.332252  	88.417717 
3055.296677  	88.345843 
3056.261101  	88.199299 
3057.225526  	88.096154 
3058.189950  	88.104536 
3059.154374  	88.078975 
3060.118799  	88.047700 
3061.083223  	88.006124 
3062.047648  	87.973745 
3063.012072  	87.940734 
3063.976497  	87.860564 
3064.940921  	87.768400 
3065.905346  	87.815915 
3066.869770  	87.818952 
3067.834195  	87.837512 
3068.798619  	87.870864 
3069.763043  	87.882221 
3070.727468  	87.903656 
3071.691892  	87.909871 
3072.656317  	87.864833 
3073.620741  	87.829076 
3074.585166  	87.853879 
3075.549590  	87.894573 
3076.514015  	87.908199 
3077.478439  	87.920338 
3078.442864  	87.917226 
3079.407288  	87.880507 
3080.371712  	87.867775 
3081.336137  	87.912817 
3082.300561  	87.907699 
3083.264986  	87.982840 
3084.229410  	88.053928 
3085.193835  	88.043609 
3086.158259  	88.084963 
3087.122684  	88.116082 
3088.087108  	88.091888 
3089.051533  	88.143330 
3090.015957  	88.184076 
3090.980381  	88.237716 
3091.944806  	88.277467 
3092.909230  	88.310928 
3093.873655  	88.371589 
3094.838079  	88.410617 
3095.802504  	88.397338 
3096.766928  	88.451120 
3097.731353  	88.566887 
3098.695777  	88.648467 
3099.660202  	88.680567 
3100.624626  	88.705512 
3101.589050  	88.702205 
3102.553475  	88.752643 
3103.517899  	88.818469 
3104.482324  	88.932727 
3105.446748  	88.981975 
3106.411173  	89.046814 
3107.375597  	89.123795 
3108.340022  	89.193419 
3109.304446  	89.267740 
3110.268871  	89.268161 
3111.233295  	89.272665 
3112.197720  	89.313352 
3113.162144  	89.364175 
3114.126568  	89.408594 
3115.090993  	89.428813 
3116.055417  	89.446570 
3117.019842  	89.511974 
3117.984266  	89.564778 
3118.948691  	89.498360 
3119.913115  	89.587258 
3120.877540  	89.674257 
3121.841964  	89.596900 
3122.806389  	89.518790 
3123.770813  	89.600984 
3124.735237  	89.640923 
3125.699662  	89.620252 
3126.664086  	89.643833 
3127.628511  	89.705005 
3128.592935  	89.732596 
3129.557360  	89.721314 
3130.521784  	89.697144 
3131.486209  	89.698006 
3132.450633  	89.621337 
3133.415058  	89.570714 
3134.379482  	89.715670 
3135.343906  	89.728879 
3136.308331  	89.624032 
3137.272755  	89.604003 
3138.237180  	89.637298 
3139.201604  	89.662157 
3140.166029  	89.668019 
3141.130453  	89.686666 
3142.094878  	89.603363 
3143.059302  	89.513051 
3144.023727  	89.530665 
3144.988151  	89.594131 
3145.952575  	89.549683 
3146.917000  	89.470379 
3147.881424  	89.447455 
3148.845849  	89.461501 
3149.810273  	89.393337 
3150.774698  	89.373793 
3151.739122  	89.352720 
3152.703547  	89.305536 
3153.667971  	89.235097 
3154.632396  	89.231633 
3155.596820  	89.229108 
3156.561244  	89.137491 
3157.525669  	89.076648 
3158.490093  	89.015919 
3159.454518  	88.984183 
3160.418942  	88.998114 
3161.383367  	88.982215 
3162.347791  	88.894806 
3163.312216  	88.784943 
3164.276640  	88.734788 
3165.241065  	88.688464 
3166.205489  	88.671292 
3167.169914  	88.584358 
3168.134338  	88.495767 
3169.098762  	88.392677 
3170.063187  	88.252938 
3171.027611  	88.221888 
3171.992036  	88.213527 
3172.956460  	88.137847 
3173.920885  	88.049933 
3174.885309  	88.007300 
3175.849734  	87.933177 
3176.814158  	87.781295 
3177.778583  	87.648446 
3178.743007  	87.657432 
3179.707431  	87.705413 
3180.671856  	87.652672 
3181.636280  	87.615980 
3182.600705  	87.510313 
3183.565129  	87.417763 
3184.529554  	87.360221 
3185.493978  	87.323345 
3186.458403  	87.250234 
3187.422827  	87.150088 
3188.387252  	87.077479 
3189.351676  	87.108781 
3190.316100  	87.086336 
3191.280525  	87.002200 
3192.244949  	86.931018 
3193.209374  	86.900541 
3194.173798  	86.824583 
3195.138223  	86.766132 
3196.102647  	86.656929 
3197.067072  	86.524968 
3198.031496  	86.488588 
3198.995921  	86.612704 
3199.960345  	86.648281 
3200.924769  	86.622567 
3201.889194  	86.571816 
3202.853618  	86.491352 
3203.818043  	86.381566 
3204.782467  	86.311429 
3205.746892  	86.308479 
3206.711316  	86.314618 
3207.675741  	86.243881 
3208.640165  	86.107611 
3209.604590  	85.999859 
3210.569014  	86.028782 
3211.533438  	86.071754 
3212.497863  	86.029656 
3213.462287  	85.932559 
3214.426712  	85.783217 
3215.391136  	85.746310 
3216.355561  	85.750766 
3217.319985  	85.695427 
3218.284410  	85.621126 
3219.248834  	85.555502 
3220.213259  	85.517629 
3221.177683  	85.498453 
3222.142107  	85.475895 
3223.106532  	85.358111 
3224.070956  	85.226021 
3225.035381  	85.109497 
3225.999805  	85.007971 
3226.964230  	84.862195 
3227.928654  	84.737969 
3228.893079  	84.688211 
3229.857503  	84.601392 
3230.821928  	84.438468 
3231.786352  	84.330517 
3232.750777  	84.237923 
3233.715201  	84.149634 
3234.679625  	84.042642 
3235.644050  	83.900580 
3236.608474  	83.738427 
3237.572899  	83.622162 
3238.537323  	83.490893 
3239.501748  	83.258129 
3240.466172  	83.037873 
3241.430597  	82.915374 
3242.395021  	82.770269 
3243.359446  	82.541899 
3244.323870  	82.304982 
3245.288294  	82.128945 
3246.252719  	82.035726 
3247.217143  	81.910886 
3248.181568  	81.693350 
3249.145992  	81.483067 
3250.110417  	81.305073 
3251.074841  	81.105853 
3252.039266  	80.878515 
3253.003690  	80.684630 
3253.968115  	80.385461 
3254.932539  	80.102716 
3255.896963  	79.936110 
3256.861388  	79.734755 
3257.825812  	79.518050 
3258.790237  	79.273444 
3259.754661  	79.006773 
3260.719086  	78.771867 
3261.683510  	78.547237 
3262.647935  	78.301263 
3263.612359  	78.065605 
3264.576784  	77.814454 
3265.541208  	77.536583 
3266.505632  	77.287582 
3267.470057  	77.075461 
3268.434481  	76.825764 
3269.398906  	76.502357 
3270.363330  	76.238344 
3271.327755  	75.992345 
3272.292179  	75.685790 
3273.256604  	75.318007 
3274.221028  	75.039368 
3275.185453  	74.838814 
3276.149877  	74.526668 
3277.114301  	74.177166 
3278.078726  	73.885253 
3279.043150  	73.468726 
3280.007575  	73.092716 
3280.971999  	72.771144 
3281.936424  	72.424630 
3282.900848  	72.074581 
3283.865273  	71.705389 
3284.829697  	71.337547 
3285.794122  	71.006546 
3286.758546  	70.625066 
3287.722971  	70.260757 
3288.687395  	69.883883 
3289.651819  	69.624961 
3290.616244  	69.377090 
3291.580668  	69.115702 
3292.545093  	68.886309 
3293.509517  	68.715239 
3294.473942  	68.569410 
3295.438366  	68.470013 
3296.402791  	68.452924 
3297.367215  	68.475794 
3298.331640  	68.525116 
3299.296064  	68.670881 
3300.260488  	68.869707 
3301.224913  	69.187880 
3302.189337  	69.511340 
3303.153762  	69.765545 
3304.118186  	70.068487 
3305.082611  	70.552371 
3306.047035  	71.067408 
3307.011460  	71.608485 
3307.975884  	72.109351 
3308.940309  	72.634891 
3309.904733  	73.277990 
3310.869157  	73.921560 
3311.833582  	74.545849 
3312.798006  	75.185201 
3313.762431  	75.809692 
3314.726855  	76.452777 
3315.691280  	77.067006 
3316.655704  	77.650043 
3317.620129  	78.196208 
3318.584553  	78.760194 
3319.548978  	79.260711 
3320.513402  	79.754767 
3321.477826  	80.269910 
3322.442251  	80.772156 
3323.406675  	81.243153 
3324.371100  	81.655248 
3325.335524  	81.973392 
3326.299949  	82.298511 
3327.264373  	82.599630 
3328.228798  	82.921223 
3329.193222  	83.174240 
3330.157647  	83.467328 
3331.122071  	83.830968 
3332.086495  	84.198579 
3333.050920  	84.410177 
3334.015344  	84.546782 
3334.979769  	84.718008 
3335.944193  	84.962865 
3336.908618  	85.102312 
3337.873042  	85.367197 
3338.837467  	85.687198 
3339.801891  	85.902020 
3340.766316  	86.038598 
3341.730740  	86.116651 
3342.695164  	86.195361 
3343.659589  	86.421024 
3344.624013  	86.696753 
3345.588438  	86.869748 
3346.552862  	86.927774 
3347.517287  	87.000193 
3348.481711  	87.105289 
3349.446136  	87.237085 
3350.410560  	87.356779 
3351.374985  	87.462775 
3352.339409  	87.580440 
3353.303834  	87.704007 
3354.268258  	87.798056 
3355.232682  	87.821974 
3356.197107  	87.771820 
3357.161531  	87.879718 
3358.125956  	88.029467 
3359.090380  	88.123269 
3360.054805  	88.110861 
3361.019229  	88.116159 
3361.983654  	88.131994 
3362.948078  	88.298419 
3363.912503  	88.400551 
3364.876927  	88.352037 
3365.841351  	88.406732 
3366.805776  	88.523164 
3367.770200  	88.526415 
3368.734625  	88.554540 
3369.699049  	88.673169 
3370.663474  	88.859153 
3371.627898  	88.903917 
3372.592323  	88.899338 
3373.556747  	88.908974 
3374.521172  	88.930311 
3375.485596  	88.926286 
3376.450020  	88.949004 
3377.414445  	89.011362 
3378.378869  	89.107251 
3379.343294  	89.136619 
3380.307718  	89.218569 
3381.272143  	89.378193 
3382.236567  	89.358391 
3383.200992  	89.252113 
3384.165416  	89.179384 
3385.129841  	89.124191 
3386.094265  	89.264140 
3387.058689  	89.409360 
3388.023114  	89.425240 
3388.987538  	89.410613 
3389.951963  	89.379869 
3390.916387  	89.410703 
3391.880812  	89.369651 
3392.845236  	89.196641 
3393.809661  	89.243696 
3394.774085  	89.417939 
3395.738510  	89.485265 
3396.702934  	89.497923 
3397.667358  	89.395707 
3398.631783  	89.499662 
3399.596207  	89.623280 
3400.560632  	89.613110 
3401.525056  	89.586346 
3402.489481  	89.626074 
3403.453905  	89.631941 
3404.418330  	89.643560 
3405.382754  	89.748228 
3406.347179  	89.747699 
3407.311603  	89.704252 
3408.276028  	89.686032 
3409.240452  	89.601689 
3410.204876  	89.578415 
3411.169301  	89.711346 
3412.133725  	89.768863 
3413.098150  	89.772024 
3414.062574  	89.768474 
3415.026999  	89.787023 
3415.991423  	89.788293 
3416.955848  	89.818928 
3417.920272  	89.792954 
3418.884697  	89.802055 
3419.849121  	89.628934 
3420.813545  	89.376133 
3421.777970  	89.366983 
3422.742394  	89.508147 
3423.706819  	89.709680 
3424.671243  	89.903729 
3425.635668  	89.913350 
3426.600092  	89.852714 
3427.564517  	89.862933 
3428.528941  	89.852151 
3429.493366  	89.859217 
3430.457790  	89.860065 
3431.422214  	89.859822 
3432.386639  	89.943681 
3433.351063  	89.981412 
3434.315488  	90.017281 
3435.279912  	89.998028 
3436.244337  	89.958189 
3437.208761  	89.926395 
3438.173186  	89.953439 
3439.137610  	90.025703 
3440.102035  	90.048883 
3441.066459  	90.019632 
3442.030883  	89.936738 
3442.995308  	89.734460 
3443.959732  	89.856718 
3444.924157  	89.934300 
3445.888581  	89.920593 
3446.853006  	89.515428 
3447.817430  	89.223313 
3448.781855  	89.777531 
3449.746279  	90.059300 
3450.710704  	90.044868 
3451.675128  	90.093851 
3452.639552  	90.146545 
3453.603977  	90.154684 
3454.568401  	90.132932 
3455.532826  	90.120429 
3456.497250  	90.127682 
3457.461675  	90.086796 
3458.426099  	90.072112 
3459.390524  	90.118350 
3460.354948  	90.135115 
3461.319373  	90.062678 
3462.283797  	90.035636 
3463.248221  	90.027503 
3464.212646  	90.160638 
3465.177070  	90.190440 
3466.141495  	90.117454 
3467.105919  	89.960221 
3468.070344  	90.123810 
3469.034768  	90.370793 
3469.999193  	90.367469 
3470.963617  	90.320978 
3471.928042  	90.311860 
3472.892466  	90.336998 
3473.856891  	90.299999 
3474.821315  	90.186526 
3475.785739  	90.242473 
3476.750164  	90.343971 
3477.714588  	90.363959 
3478.679013  	90.422445 
3479.643437  	90.339475 
3480.607862  	90.025915 
3481.572286  	89.887872 
3482.536711  	89.844834 
3483.501135  	90.181737 
3484.465560  	90.407715 
3485.429984  	90.316698 
3486.394408  	90.355570 
3487.358833  	90.381699 
3488.323257  	90.159602 
3489.287682  	90.201111 
3490.252106  	90.444031 
3491.216531  	90.454876 
3492.180955  	90.522181 
3493.145380  	90.605365 
3494.109804  	90.640221 
3495.074229  	90.503100 
3496.038653  	90.285105 
3497.003077  	90.147794 
3497.967502  	90.334239 
3498.931926  	90.484243 
3499.896351  	90.445929 
3500.860775  	90.396395 
3501.825200  	90.046759 
3502.789624  	89.591011 
3503.754049  	89.610478 
3504.718473  	90.009185 
3505.682898  	90.320344 
3506.647322  	90.619844 
3507.611746  	90.791148 
3508.576171  	90.519736 
3509.540595  	89.890727 
3510.505020  	90.099538 
3511.469444  	90.588191 
3512.433869  	90.587445 
3513.398293  	90.676842 
3514.362718  	90.878492 
3515.327142  	91.017584 
3516.291567  	90.981063 
3517.255991  	90.866459 
3518.220415  	90.775263 
3519.184840  	90.800480 
3520.149264  	90.905411 
3521.113689  	90.989663 
3522.078113  	90.787772 
3523.042538  	90.152042 
3524.006962  	89.826840 
3524.971387  	90.184131 
3525.935811  	90.395285 
3526.900236  	90.348444 
3527.864660  	90.169342 
3528.829085  	90.271874 
3529.793509  	90.544176 
3530.757933  	90.888286 
3531.722358  	90.954572 
3532.686782  	91.212281 
3533.651207  	91.386928 
3534.615631  	91.428940 
3535.580056  	91.170691 
3536.544480  	90.594324 
3537.508905  	90.816847 
3538.473329  	91.415596 
3539.437754  	91.439173 
3540.402178  	91.516427 
3541.366602  	91.572909 
3542.331027  	91.542578 
3543.295451  	91.293115 
3544.259876  	90.924203 
3545.224300  	90.101656 
3546.188725  	89.886503 
3547.153149  	89.917524 
3548.117574  	90.426158 
3549.081998  	91.331237 
3550.046423  	91.622079 
3551.010847  	91.520323 
3551.975271  	90.978843 
3552.939696  	90.670282 
3553.904120  	91.030147 
3554.868545  	91.427593 
3555.832969  	91.829766 
3556.797394  	91.837410 
3557.761818  	91.883095 
3558.726243  	91.934159 
3559.690667  	91.484309 
3560.655092  	91.039663 
3561.619516  	91.516159 
3562.583940  	91.542476 
3563.548365  	91.394820 
3564.512789  	91.397269 
3565.477214  	90.639159 
3566.441638  	88.534287 
3567.406063  	88.447033 
3568.370487  	88.857953 
3569.334912  	90.318285 
3570.299336  	91.454574 
3571.263761  	91.656902 
3572.228185  	92.002773 
3573.192609  	92.008295 
3574.157034  	91.840017 
3575.121458  	91.839044 
3576.085883  	92.032805 
3577.050307  	91.936318 
3578.014732  	91.947171 
3578.979156  	92.034367 
3579.943581  	91.671638 
3580.908005  	91.712257 
3581.872430  	92.121306 
3582.836854  	92.119594 
3583.801278  	92.021241 
3584.765703  	92.077014 
3585.730127  	91.633778 
3586.694552  	90.102018 
3587.658976  	89.218119 
3588.623401  	89.554044 
3589.587825  	90.665994 
3590.552250  	91.955007 
3591.516674  	92.261596 
3592.481099  	92.175778 
3593.445523  	91.557567 
3594.409948  	91.621217 
3595.374372  	91.204387 
3596.338796  	91.046219 
3597.303221  	91.901514 
3598.267645  	91.934272 
3599.232070  	91.641162 
3600.196494  	91.744599 
3601.160919  	91.508598 
3602.125343  	91.815584 
3603.089768  	92.099016 
3604.054192  	92.466380 
3605.018617  	92.688547 
3605.983041  	92.510694 
3606.947465  	91.422910 
3607.911890  	90.912569 
3608.876314  	91.103796 
3609.840739  	90.847705 
3610.805163  	91.948780 
3611.769588  	91.916262 
3612.734012  	90.688708 
3613.698437  	90.892138 
3614.662861  	91.055218 
3615.627286  	91.105796 
3616.591710  	92.066114 
3617.556134  	91.580366 
3618.520559  	90.772266 
3619.484983  	90.604847 
3620.449408  	90.630971 
3621.413832  	91.496349 
3622.378257  	92.257519 
3623.342681  	92.690612 
3624.307106  	92.808055 
3625.271530  	92.727434 
3626.235955  	92.297402 
3627.200379  	92.101736 
3628.164803  	91.160431 
3629.129228  	88.455672 
3630.093652  	89.161180 
3631.058077  	91.466161 
3632.022501  	92.343056 
3632.986926  	92.404666 
3633.951350  	91.736228 
3634.915775  	92.090312 
3635.880199  	92.788428 
3636.844624  	92.922034 
3637.809048  	92.764991 
3638.773472  	92.699057 
3639.737897  	92.953628 
3640.702321  	93.033293 
3641.666746  	92.738082 
3642.631170  	92.319362 
3643.595595  	92.558121 
3644.560019  	92.908552 
3645.524444  	92.635394 
3646.488868  	91.577672 
3647.453293  	89.828879 
3648.417717  	89.997944 
3649.382142  	89.758350 
3650.346566  	88.949134 
3651.310990  	89.226219 
3652.275415  	91.287628 
3653.239839  	92.563539 
3654.204264  	92.977389 
3655.168688  	92.853776 
3656.133113  	91.823883 
3657.097537  	91.579139 
3658.061962  	92.715906 
3659.026386  	92.946679 
3659.990811  	92.862560 
3660.955235  	93.061781 
3661.919659  	93.310977 
3662.884084  	93.365942 
3663.848508  	93.373799 
3664.812933  	93.270761 
3665.777357  	93.261775 
3666.741782  	93.282150 
3667.706206  	93.172348 
3668.670631  	92.224195 
3669.635055  	91.130945 
3670.599480  	90.397805 
3671.563904  	90.920300 
3672.528328  	92.524674 
3673.492753  	92.733231 
3674.457177  	91.497783 
3675.421602  	88.775905 
3676.386026  	89.415068 
3677.350451  	91.264819 
3678.314875  	92.036836 
3679.279300  	92.070370 
3680.243724  	92.182292 
3681.208149  	92.997393 
3682.172573  	93.329042 
3683.136997  	93.354803 
3684.101422  	93.223367 
3685.065846  	93.074780 
3686.030271  	93.213559 
3686.994695  	93.074447 
3687.959120  	92.247686 
3688.923544  	91.350943 
3689.887969  	91.802904 
3690.852393  	91.092340 
3691.816818  	90.983708 
3692.781242  	92.614230 
3693.745666  	93.063897 
3694.710091  	93.167512 
3695.674515  	93.259789 
3696.638940  	93.149833 
3697.603364  	93.266034 
3698.567789  	93.524598 
3699.532213  	93.454190 
3700.496638  	93.367629 
3701.461062  	92.582318 
3702.425487  	92.014798 
3703.389911  	92.986110 
3704.354335  	93.352288 
3705.318760  	93.210238 
3706.283184  	93.254879 
3707.247609  	93.396275 
3708.212033  	93.288123 
3709.176458  	92.574617 
3710.140882  	92.044316 
3711.105307  	91.728389 
3712.069731  	90.550849 
3713.034156  	90.984008 
3713.998580  	92.412819 
3714.963005  	92.429984 
3715.927429  	92.768690 
3716.891853  	93.391747 
3717.856278  	93.383428 
3718.820702  	92.684112 
3719.785127  	92.500461 
3720.749551  	93.167711 
3721.713976  	92.675977 
3722.678400  	91.395940 
3723.642825  	92.139184 
3724.607249  	92.457866 
3725.571674  	91.723889 
3726.536098  	91.459237 
3727.500522  	91.745262 
3728.464947  	92.718058 
3729.429371  	93.260232 
3730.393796  	93.182171 
3731.358220  	92.729631 
3732.322645  	91.891972 
3733.287069  	92.115663 
3734.251494  	91.450175 
3735.215918  	88.341109 
3736.180343  	88.810095 
3737.144767  	90.400608 
3738.109191  	91.383085 
3739.073616  	91.891991 
3740.038040  	92.431125 
3741.002465  	92.062431 
3741.966889  	92.230908 
3742.931314  	92.793394 
3743.895738  	91.769338 
3744.860163  	88.521467 
3745.824587  	90.794417 
3746.789012  	91.797773 
3747.753436  	91.836481 
3748.717860  	91.713292 
3749.682285  	91.141676 
3750.646709  	91.072780 
3751.611134  	90.624219 
3752.575558  	89.525623 
3753.539983  	91.345533 
3754.504407  	92.350967 
3755.468832  	92.804249 
3756.433256  	92.527492 
3757.397681  	92.588948 
3758.362105  	92.785194 
3759.326529  	91.816622 
3760.290954  	91.490567 
3761.255378  	92.911243 
3762.219803  	93.234312 
3763.184227  	93.284276 
3764.148652  	93.359600 
3765.113076  	92.929578 
3766.077501  	92.055029 
3767.041925  	92.742931 
3768.006350  	93.285613 
3768.970774  	92.906822 
3769.935199  	91.903548 
3770.899623  	92.155086 
3771.864047  	92.931902 
3772.828472  	93.239954 
3773.792896  	93.403384 
3774.757321  	93.530334 
3775.721745  	93.640565 
3776.686170  	93.689022 
3777.650594  	93.586039 
3778.615019  	93.139544 
3779.579443  	92.282530 
3780.543868  	92.527459 
3781.508292  	93.345286 
3782.472716  	93.393410 
3783.437141  	93.429584 
3784.401565  	93.055349 
3785.365990  	92.604612 
3786.330414  	92.949283 
3787.294839  	93.295190 
3788.259263  	93.465097 
3789.223688  	93.508795 
3790.188112  	93.533378 
3791.152537  	93.640600 
3792.116961  	93.632527 
3793.081385  	93.613161 
3794.045810  	93.625875 
3795.010234  	93.506909 
3795.974659  	92.937624 
3796.939083  	92.102610 
3797.903508  	92.422647 
3798.867932  	92.938379 
3799.832357  	93.034982 
3800.796781  	92.049629 
3801.761206  	90.574241 
3802.725630  	91.188386 
3803.690054  	92.195984 
3804.654479  	93.127109 
3805.618903  	93.243271 
3806.583328  	92.450053 
3807.547752  	91.745260 
3808.512177  	92.848092 
3809.476601  	93.278120 
3810.441026  	93.357256 
3811.405450  	93.485453 
3812.369875  	93.532624 
3813.334299  	93.568079 
3814.298723  	93.503998 
3815.263148  	92.845360 
3816.227572  	91.352714 
3817.191997  	91.928119 
3818.156421  	92.841841 
3819.120846  	92.766625 
3820.085270  	92.092831 
3821.049695  	90.462406 
3822.014119  	90.385520 
3822.978544  	92.107745 
3823.942968  	92.675285 
3824.907392  	92.927603 
3825.871817  	92.903600 
3826.836241  	92.335652 
3827.800666  	92.423345 
3828.765090  	93.044476 
3829.729515  	93.362089 
3830.693939  	93.238626 
3831.658364  	92.463515 
3832.622788  	92.583598 
3833.587213  	93.197891 
3834.551637  	92.684035 
3835.516062  	92.090006 
3836.480486  	92.641175 
3837.444910  	92.057757 
3838.409335  	90.952676 
3839.373759  	91.637788 
3840.338184  	91.037822 
3841.302608  	91.115438 
3842.267033  	92.500719 
3843.231457  	92.503923 
3844.195882  	91.769503 
3845.160306  	92.684929 
3846.124731  	93.208814 
3847.089155  	93.327496 
3848.053579  	93.409920 
3849.018004  	93.180578 
3849.982428  	92.703432 
3850.946853  	92.664266 
3851.911277  	91.859978 
3852.875702  	90.334259 
3853.840126  	89.519218 
3854.804551  	89.963940 
3855.768975  	92.086432 
3856.733400  	92.131895 
3857.697824  	91.735732 
3858.662248  	92.796025 
3859.626673  	93.410885 
3860.591097  	93.360737 
3861.555522  	92.673904 
3862.519946  	92.173593 
3863.484371  	92.559551 
3864.448795  	91.726777 
3865.413220  	90.640554 
3866.377644  	92.103431 
3867.342069  	93.143689 
3868.306493  	93.055126 
3869.270917  	91.795405 
3870.235342  	89.954502 
3871.199766  	91.269817 
3872.164191  	92.450474 
3873.128615  	92.716223 
3874.093040  	91.470348 
3875.057464  	91.561752 
3876.021889  	93.132419 
3876.986313  	93.444794 
3877.950738  	93.546884 
3878.915162  	93.488823 
3879.879586  	92.406896 
3880.844011  	90.590094 
3881.808435  	91.838750 
3882.772860  	92.773171 
3883.737284  	92.558613 
3884.701709  	92.541238 
3885.666133  	91.675502 
3886.630558  	91.381980 
3887.594982  	92.902434 
3888.559407  	93.362194 
3889.523831  	93.445729 
3890.488256  	93.011778 
3891.452680  	91.715919 
3892.417104  	91.712419 
3893.381529  	92.628665 
3894.345953  	92.527633 
3895.310378  	92.929445 
3896.274802  	93.494822 
3897.239227  	93.480541 
3898.203651  	92.789390 
3899.168076  	91.731541 
3900.132500  	91.661068 
3901.096925  	92.333711 
3902.061349  	91.059380 
3903.025773  	91.132690 
3903.990198  	91.499745 
3904.954622  	91.026671 
3905.919047  	91.480658 
3906.883471  	92.309791 
3907.847896  	93.267382 
3908.812320  	93.552825 
3909.776745  	93.616765 
3910.741169  	93.637934 
3911.705594  	93.581791 
3912.670018  	93.524300 
3913.634442  	93.547464 
3914.598867  	93.604183 
3915.563291  	93.415941 
3916.527716  	92.433467 
3917.492140  	91.680611 
3918.456565  	92.639650 
3919.420989  	92.894776 
3920.385414  	92.250708 
3921.349838  	92.845858 
3922.314263  	93.495027 
3923.278687  	93.174476 
3924.243111  	92.361961 
3925.207536  	91.867848 
3926.171960  	92.636723 
3927.136385  	93.445727 
3928.100809  	93.465114 
3929.065234  	93.215966 
3930.029658  	92.905991 
3930.994083  	92.739254 
3931.958507  	92.305719 
3932.922932  	91.920219 
3933.887356  	92.710962 
3934.851780  	93.110460 
3935.816205  	93.408465 
3936.780629  	93.582183 
3937.745054  	93.497204 
3938.709478  	93.266302 
3939.673903  	93.407345 
3940.638327  	93.568690 
3941.602752  	93.392758 
3942.567176  	92.454748 
3943.531601  	92.092544 
3944.496025  	92.924503 
3945.460449  	93.330125 
3946.424874  	93.448655 
3947.389298  	92.870906 
3948.353723  	92.464694 
3949.318147  	92.727761 
3950.282572  	92.431264 
3951.246996  	92.848107 
3952.211421  	93.443062 
3953.175845  	93.337608 
3954.140270  	93.405065 
3955.104694  	93.492411 
3956.069119  	93.410725 
3957.033543  	93.258376 
3957.997967  	93.266855 
3958.962392  	93.390082 
3959.926816  	93.448554 
3960.891241  	93.384351 
3961.855665  	92.964294 
3962.820090  	92.956136 
3963.784514  	93.410683 
3964.748939  	93.426440 
3965.713363  	93.479789 
3966.677788  	93.564489 
3967.642212  	93.543884 
3968.606636  	93.390396 
3969.571061  	93.223006 
3970.535485  	93.363408 
3971.499910  	93.447678 
3972.464334  	93.254926 
3973.428759  	93.350009 
3974.393183  	93.446384 
3975.357608  	93.259342 
3976.322032  	93.089449 
3977.286457  	93.292303 
3978.250881  	93.559171 
3979.215305  	93.568401 
3980.179730  	93.508270 
3981.144154  	93.466459 
3982.108579  	93.405665 
3983.073003  	93.453375 
3984.037428  	93.631276 
3985.001852  	93.598087 
3985.966277  	93.495537 
3986.930701  	93.542756 
3987.895126  	93.601099 
3988.859550  	93.572434 
3989.823974  	93.441559 
3990.788399  	93.204060 
3991.752823  	93.292624 
3992.717248  	93.443896 
3993.681672  	93.429924 
3994.646097  	93.333013 
3995.610521  	93.238705 
3996.574946  	93.432951 
3997.539370  	93.563795 
3998.503795  	93.576745 
3999.468219  	93.571160 
4000.432643  	93.621613 
4001.397068  	93.613799 
4002.361492  	93.561976 
4003.325917  	93.548809 
4004.290341  	93.593129 
4005.254766  	93.578617 
4006.219190  	93.565448 
4007.183615  	93.572419 
4008.148039  	93.458777 
4009.112464  	93.304669 
4010.076888  	93.419639 
4011.041313  	93.464795 
4012.005737  	93.487031 
4012.970161  	93.470739 
4013.934586  	93.474842 
4014.899010  	93.497757 
4015.863435  	93.471341 
4016.827859  	93.500925 
4017.792284  	93.535464 
4018.756708  	93.526196 
4019.721133  	93.469014 
4020.685557  	93.452530 
4021.649982  	93.517833 
4022.614406  	93.588415 
4023.578830  	93.568878 
4024.543255  	93.502697 
4025.507679  	93.421769 
4026.472104  	93.458007 
4027.436528  	93.566270 
4028.400953  	93.558576 
4029.365377  	93.557236 
4030.329802  	93.576520 
4031.294226  	93.568518 
4032.258651  	93.563665 
4033.223075  	93.585592 
4034.187499  	93.589143 
4035.151924  	93.595481 
4036.116348  	93.621791 
4037.080773  	93.596174 
4038.045197  	93.607689 
4039.009622  	93.602067 
4039.974046  	93.560879 
4040.938471  	93.584681 
4041.902895  	93.600137 
4042.867320  	93.582447 
4043.831744  	93.482923 
4044.796168  	93.355134 
4045.760593  	93.383051 
4046.725017  	93.528017 
4047.689442  	93.545999 
4048.653866  	93.529660 
4049.618291  	93.551890 
4050.582715  	93.569389 
4051.547140  	93.573117 
4052.511564  	93.619161 
4053.475989  	93.614475 
4054.440413  	93.585427 
4055.404837  	93.559562 
4056.369262  	93.558179 
4057.333686  	93.574481 
4058.298111  	93.514357 
4059.262535  	93.508951 
4060.226960  	93.549870 
4061.191384  	93.557605 
4062.155809  	93.595817 
4063.120233  	93.635234 
4064.084658  	93.639353 
4065.049082  	93.640962 
4066.013506  	93.659393 
4066.977931  	93.664413 
4067.942355  	93.644842 
4068.906780  	93.588204 
4069.871204  	93.574779 
4070.835629  	93.570917 
4071.800053  	93.612791 
4072.764478  	93.632252 
4073.728902  	93.633129 
4074.693327  	93.648856 
4075.657751  	93.643040 
4076.622176  	93.581153 
4077.586600  	93.573480 
4078.551024  	93.581380 
4079.515449  	93.558094 
4080.479873  	93.594485 
4081.444298  	93.629850 
4082.408722  	93.605975 
4083.373147  	93.565904 
4084.337571  	93.580495 
4085.301996  	93.617430 
4086.266420  	93.596058 
4087.230845  	93.606824 
4088.195269  	93.553623 
4089.159693  	93.554029 
4090.124118  	93.583714 
4091.088542  	93.577294 
4092.052967  	93.625725 
4093.017391  	93.639487 
4093.981816  	93.618642 
4094.946240  	93.585656 
4095.910665  	93.615343 
4096.875089  	93.688524 
4097.839514  	93.639562 
4098.803938  	93.537743 
4099.768362  	93.563693 
4100.732787  	93.585721 
4101.697211  	93.582875 
4102.661636  	93.614535 
4103.626060  	93.635286 
4104.590485  	93.562427 
4105.554909  	93.489432 
4106.519334  	93.481957 
4107.483758  	93.531243 
4108.448183  	93.622579 
4109.412607  	93.633768 
4110.377031  	93.591969 
4111.341456  	93.618822 
4112.305880  	93.643777 
4113.270305  	93.620265 
4114.234729  	93.607866 
4115.199154  	93.672452 
4116.163578  	93.666142 
4117.128003  	93.613533 
4118.092427  	93.612451 
4119.056852  	93.583590 
4120.021276  	93.528638 
4120.985700  	93.570604 
4121.950125  	93.639465 
4122.914549  	93.605341 
4123.878974  	93.547248 
4124.843398  	93.572599 
4125.807823  	93.626211 
4126.772247  	93.606818 
4127.736672  	93.562397 
4128.701096  	93.567919 
4129.665521  	93.604957 
4130.629945  	93.627863 
4131.594370  	93.594143 
4132.558794  	93.577345 
4133.523218  	93.563015 
4134.487643  	93.536852 
4135.452067  	93.568728 
4136.416492  	93.615896 
4137.380916  	93.593101 
4138.345341  	93.563778 
4139.309765  	93.543262 
4140.274190  	93.560987 
4141.238614  	93.555946 
4142.203039  	93.545485 
4143.167463  	93.618642 
4144.131887  	93.593001 
4145.096312  	93.529304 
4146.060736  	93.566588 
4147.025161  	93.596274 
4147.989585  	93.583203 
4148.954010  	93.523505 
4149.918434  	93.517889 
4150.882859  	93.557940 
4151.847283  	93.584705 
4152.811708  	93.559727 
4153.776132  	93.527903 
4154.740556  	93.552038 
4155.704981  	93.532419 
4156.669405  	93.501802 
4157.633830  	93.540941 
4158.598254  	93.558472 
4159.562679  	93.540265 
4160.527103  	93.515528 
4161.491528  	93.514130 
4162.455952  	93.532216 
4163.420377  	93.558086 
4164.384801  	93.536256 
4165.349225  	93.551757 
4166.313650  	93.560272 
4167.278074  	93.549136 
4168.242499  	93.545369 
4169.206923  	93.615058 
4170.171348  	93.664151 
4171.135772  	93.607985 
4172.100197  	93.550215 
4173.064621  	93.549358 
4174.029046  	93.579293 
4174.993470  	93.596352 
4175.957894  	93.617759 
4176.922319  	93.622832 
4177.886743  	93.604078 
4178.851168  	93.551884 
4179.815592  	93.522681 
4180.780017  	93.528049 
4181.744441  	93.564253 
4182.708866  	93.607238 
4183.673290  	93.612232 
4184.637715  	93.601941 
4185.602139  	93.590999 
4186.566563  	93.529850 
4187.530988  	93.471022 
4188.495412  	93.513602 
4189.459837  	93.619148 
4190.424261  	93.614976 
4191.388686  	93.571993 
4192.353110  	93.574631 
4193.317535  	93.542233 
4194.281959  	93.514984 
4195.246384  	93.532952 
4196.210808  	93.540731 
4197.175233  	93.532736 
4198.139657  	93.582579 
4199.104081  	93.616931 
4200.068506  	93.576273 
4201.032930  	93.510297 
4201.997355  	93.568565 
4202.961779  	93.629753 
4203.926204  	93.534965 
4204.890628  	93.475991 
4205.855053  	93.526688 
4206.819477  	93.555813 
4207.783902  	93.575220 
4208.748326  	93.573292 
4209.712750  	93.567225 
4210.677175  	93.577665 
4211.641599  	93.573534 
4212.606024  	93.586132 
4213.570448  	93.614846 
4214.534873  	93.632569 
4215.499297  	93.587041 
4216.463722  	93.544978 
4217.428146  	93.517749 
4218.392571  	93.542778 
4219.356995  	93.562154 
4220.321419  	93.613239 
4221.285844  	93.640688 
4222.250268  	93.598317 
4223.214693  	93.493168 
4224.179117  	93.494014 
4225.143542  	93.553437 
4226.107966  	93.638496 
4227.072391  	93.680108 
4228.036815  	93.563114 
4229.001240  	93.534207 
4229.965664  	93.548881 
4230.930088  	93.564312 
4231.894513  	93.605228 
4232.858937  	93.599867 
4233.823362  	93.623487 
4234.787786  	93.647494 
4235.752211  	93.615005 
4236.716635  	93.591399 
4237.681060  	93.605711 
4238.645484  	93.604995 
4239.609909  	93.599770 
4240.574333  	93.555997 
4241.538757  	93.617516 
4242.503182  	93.749575 
4243.467606  	93.751136 
4244.432031  	93.610950 
4245.396455  	93.519701 
4246.360880  	93.543984 
4247.325304  	93.567439 
4248.289729  	93.577344 
4249.254153  	93.630793 
4250.218578  	93.710999 
4251.183002  	93.686927 
4252.147427  	93.620066 
4253.111851  	93.592394 
4254.076275  	93.531100 
4255.040700  	93.509546 
4256.005124  	93.543959 
4256.969549  	93.607254 
4257.933973  	93.623401 
4258.898398  	93.577613 
4259.862822  	93.543041 
4260.827247  	93.560257 
4261.791671  	93.580428 
4262.756096  	93.618966 
4263.720520  	93.625963 
4264.684944  	93.600260 
4265.649369  	93.588838 
4266.613793  	93.627829 
4267.578218  	93.609573 
4268.542642  	93.555937 
4269.507067  	93.582077 
4270.471491  	93.616900 
4271.435916  	93.592973 
4272.400340  	93.522645 
4273.364765  	93.540782 
4274.329189  	93.649649 
4275.293613  	93.674588 
4276.258038  	93.659573 
4277.222462  	93.624948 
4278.186887  	93.565003 
4279.151311  	93.542314 
4280.115736  	93.538100 
4281.080160  	93.561955 
4282.044585  	93.548489 
4283.009009  	93.509192 
4283.973434  	93.538024 
4284.937858  	93.559745 
4285.902282  	93.544742 
4286.866707  	93.578216 
4287.831131  	93.636565 
4288.795556  	93.625692 
4289.759980  	93.592319 
4290.724405  	93.598669 
4291.688829  	93.621986 
4292.653254  	93.625135 
4293.617678  	93.644158 
4294.582103  	93.691891 
4295.546527  	93.681079 
4296.510951  	93.647237 
4297.475376  	93.637082 
4298.439800  	93.668131 
4299.404225  	93.722489 
4300.368649  	93.766712 
4301.333074  	93.717898 
4302.297498  	93.599816 
4303.261923  	93.591978 
4304.226347  	93.637158 
4305.190772  	93.705610 
4306.155196  	93.661369 
4307.119620  	93.576304 
4308.084045  	93.541493 
4309.048469  	93.611069 
4310.012894  	93.669852 
4310.977318  	93.681195 
4311.941743  	93.671154 
4312.906167  	93.661072 
4313.870592  	93.608486 
4314.835016  	93.668866 
4315.799441  	93.654572 
4316.763865  	93.615493 
4317.728290  	93.628064 
4318.692714  	93.651444 
4319.657138  	93.662169 
4320.621563  	93.620130 
4321.585987  	93.572375 
4322.550412  	93.591738 
4323.514836  	93.620338 
4324.479261  	93.617206 
4325.443685  	93.556302 
4326.408110  	93.583123 
4327.372534  	93.639052 
4328.336959  	93.611127 
4329.301383  	93.579907 
4330.265807  	93.632398 
4331.230232  	93.675367 
4332.194656  	93.630117 
4333.159081  	93.652783 
4334.123505  	93.663404 
4335.087930  	93.612718 
4336.052354  	93.637983 
4337.016779  	93.661301 
4337.981203  	93.619384 
4338.945628  	93.549953 
4339.910052  	93.497565 
4340.874476  	93.486650 
4341.838901  	93.550568 
4342.803325  	93.546020 
4343.767750  	93.477305 
4344.732174  	93.446541 
4345.696599  	93.466988 
4346.661023  	93.500864 
4347.625448  	93.470979 
4348.589872  	93.494442 
4349.554297  	93.530773 
4350.518721  	93.573804 
4351.483145  	93.597238 
4352.447570  	93.538692 
4353.411994  	93.531474 
4354.376419  	93.485328 
4355.340843  	93.459969 
4356.305268  	93.535096 
4357.269692  	93.553539 
4358.234117  	93.515076 
4359.198541  	93.463851 
4360.162966  	93.480602 
4361.127390  	93.514817 
4362.091814  	93.529504 
4363.056239  	93.505279 
4364.020663  	93.487679 
4364.985088  	93.438901 
4365.949512  	93.422450 
4366.913937  	93.484455 
4367.878361  	93.501697 
4368.842786  	93.494172 
4369.807210  	93.537094 
4370.771635  	93.546269 
4371.736059  	93.532172 
4372.700484  	93.558470 
4373.664908  	93.592016 
4374.629332  	93.540925 
4375.593757  	93.532478 
4376.558181  	93.611044 
4377.522606  	93.660055 
4378.487030  	93.580077 
4379.451455  	93.490732 
4380.415879  	93.510944 
4381.380304  	93.561028 
4382.344728  	93.604513 
4383.309153  	93.630928 
4384.273577  	93.641226 
4385.238001  	93.634289 
4386.202426  	93.629209 
4387.166850  	93.644679 
4388.131275  	93.656045 
4389.095699  	93.643970 
4390.060124  	93.657885 
4391.024548  	93.660391 
4391.988973  	93.687333 
4392.953397  	93.692552 
4393.917822  	93.644440 
4394.882246  	93.570520 
4395.846670  	93.560063 
4396.811095  	93.630554 
4397.775519  	93.726163 
4398.739944  	93.791508 
4399.704368  	93.782311 
4400.668793  	93.772377 
4401.633217  	93.644202 
4402.597642  	93.585357 
4403.562066  	93.672392 
4404.526491  	93.732330 
4405.490915  	93.718323 
4406.455339  	93.657614 
4407.419764  	93.670134 
4408.384188  	93.755853 
4409.348613  	93.823083 
4410.313037  	93.797387 
4411.277462  	93.723999 
4412.241886  	93.755220 
4413.206311  	93.802972 
4414.170735  	93.787213 
4415.135160  	93.756288 
4416.099584  	93.684224 
4417.064008  	93.626754 
4418.028433  	93.592476 
4418.992857  	93.617514 
4419.957282  	93.621602 
4420.921706  	93.621104 
4421.886131  	93.623899 
4422.850555  	93.682461 
4423.814980  	93.714762 
4424.779404  	93.708232 
4425.743829  	93.690369 
4426.708253  	93.687013 
4427.672677  	93.666886 
4428.637102  	93.707086 
4429.601526  	93.778788 
4430.565951  	93.731030 
4431.530375  	93.689252 
4432.494800  	93.657093 
4433.459224  	93.635569 
4434.423649  	93.657432 
4435.388073  	93.707557 
4436.352498  	93.802216 
4437.316922  	93.839467 
4438.281347  	93.795964 
4439.245771  	93.714971 
4440.210195  	93.722742 
4441.174620  	93.759393 
4442.139044  	93.758322 
4443.103469  	93.820151 
4444.067893  	93.806384 
4445.032318  	93.774160 
4445.996742  	93.744522 
4446.961167  	93.706612 
4447.925591  	93.654071 
4448.890016  	93.622094 
4449.854440  	93.640214 
4450.818864  	93.685137 
4451.783289  	93.688199 
4452.747713  	93.673990 
4453.712138  	93.714467 
4454.676562  	93.738140 
4455.640987  	93.740121 
4456.605411  	93.797471 
4457.569836  	93.790968 
4458.534260  	93.702204 
4459.498685  	93.675068 
4460.463109  	93.702919 
4461.427533  	93.717024 
4462.391958  	93.711757 
4463.356382  	93.683464 
4464.320807  	93.715531 
4465.285231  	93.685252 
4466.249656  	93.684828 
4467.214080  	93.732022 
4468.178505  	93.740557 
4469.142929  	93.728926 
4470.107354  	93.712601 
4471.071778  	93.714300 
4472.036202  	93.772877 
4473.000627  	93.797635 
4473.965051  	93.698273 
4474.929476  	93.642879 
4475.893900  	93.725162 
4476.858325  	93.769701 
4477.822749  	93.721303 
4478.787174  	93.731159 
4479.751598  	93.761287 
4480.716023  	93.764124 
4481.680447  	93.719487 
4482.644871  	93.668509 
4483.609296  	93.676144 
4484.573720  	93.729098 
4485.538145  	93.757194 
4486.502569  	93.792843 
4487.466994  	93.766084 
4488.431418  	93.756898 
4489.395843  	93.701994 
4490.360267  	93.689482 
4491.324692  	93.735038 
4492.289116  	93.740234 
4493.253541  	93.706457 
4494.217965  	93.742844 
4495.182389  	93.776231 
4496.146814  	93.746508 
4497.111238  	93.720609 
4498.075663  	93.693427 
4499.040087  	93.703050 
4500.004512  	93.748009 
4500.968936  	93.795743 
4501.933361  	93.732703 
4502.897785  	93.709909 
4503.862210  	93.724559 
4504.826634  	93.780684 
4505.791058  	93.784250 
4506.755483  	93.756998 
4507.719907  	93.729834 
4508.684332  	93.762367 
4509.648756  	93.722871 
4510.613181  	93.657333 
4511.577605  	93.735971 
4512.542030  	93.802455 
4513.506454  	93.781870 
4514.470879  	93.737006 
4515.435303  	93.700775 
4516.399727  	93.700364 
4517.364152  	93.664982 
4518.328576  	93.651949 
4519.293001  	93.730558 
4520.257425  	93.752598 
4521.221850  	93.661250 
4522.186274  	93.716987 
4523.150699  	93.801004 
4524.115123  	93.765116 
4525.079548  	93.771889 
4526.043972  	93.793997 
4527.008396  	93.740584 
4527.972821  	93.689930 
4528.937245  	93.694314 
4529.901670  	93.679916 
4530.866094  	93.721962 
4531.830519  	93.759925 
4532.794943  	93.741651 
4533.759368  	93.746796 
4534.723792  	93.763639 
4535.688217  	93.695767 
4536.652641  	93.749054 
4537.617065  	93.827287 
4538.581490  	93.869908 
4539.545914  	93.797442 
4540.510339  	93.715975 
4541.474763  	93.668981 
4542.439188  	93.668667 
4543.403612  	93.723024 
4544.368037  	93.716299 
4545.332461  	93.624200 
4546.296886  	93.583524 
4547.261310  	93.569300 
4548.225734  	93.656265 
4549.190159  	93.741113 
4550.154583  	93.759379 
4551.119008  	93.646616 
4552.083432  	93.596804 
4553.047857  	93.678155 
4554.012281  	93.740247 
4554.976706  	93.748754 
4555.941130  	93.816850 
4556.905555  	93.765124 
4557.869979  	93.675198 
4558.834404  	93.764608 
4559.798828  	93.750612 
4560.763252  	93.573931 
4561.727677  	93.573532 
4562.692101  	93.700320 
4563.656526  	93.790965 
4564.620950  	93.813520 
4565.585375  	93.726388 
4566.549799  	93.690363 
4567.514224  	93.753366 
4568.478648  	93.730714 
4569.443073  	93.654640 
4570.407497  	93.667802 
4571.371921  	93.774839 
4572.336346  	93.798030 
4573.300770  	93.800894 
4574.265195  	93.751094 
4575.229619  	93.680852 
4576.194044  	93.637504 
4577.158468  	93.615775 
4578.122893  	93.653586 
4579.087317  	93.674822 
4580.051742  	93.650129 
4581.016166  	93.760679 
4581.980590  	93.841517 
4582.945015  	93.817811 
4583.909439  	93.747850 
4584.873864  	93.704183 
4585.838288  	93.639480 
4586.802713  	93.677013 
4587.767137  	93.665462 
4588.731562  	93.644420 
4589.695986  	93.690211 
4590.660411  	93.721415 
4591.624835  	93.729610 
4592.589259  	93.725341 
4593.553684  	93.744808 
4594.518108  	93.679878 
4595.482533  	93.612571 
4596.446957  	93.716299 
4597.411382  	93.686807 
4598.375806  	93.640990 
4599.340231  	93.779509 
4600.304655  	93.800836 
4601.269080  	93.705552 
4602.233504  	93.681563 
4603.197928  	93.752132 
4604.162353  	93.793275 
4605.126777  	93.729999 
4606.091202  	93.700298 
4607.055626  	93.708046 
4608.020051  	93.690784 
4608.984475  	93.668626 
4609.948900  	93.694616 
4610.913324  	93.753288 
4611.877749  	93.725349 
4612.842173  	93.692740 
4613.806598  	93.685661 
4614.771022  	93.671397 
4615.735446  	93.747595 
4616.699871  	93.760798 
4617.664295  	93.697857 
4618.628720  	93.717989 
4619.593144  	93.695601 
4620.557569  	93.737525 
4621.521993  	93.724073 
4622.486418  	93.673722 
4623.450842  	93.714472 
4624.415267  	93.758400 
4625.379691  	93.759844 
4626.344115  	93.728061 
4627.308540  	93.737449 
4628.272964  	93.737283 
4629.237389  	93.746736 
4630.201813  	93.766525 
4631.166238  	93.767974 
4632.130662  	93.780383 
4633.095087  	93.752692 
4634.059511  	93.704793 
4635.023936  	93.756390 
4635.988360  	93.843357 
4636.952784  	93.854039 
4637.917209  	93.812222 
4638.881633  	93.747930 
4639.846058  	93.707831 
4640.810482  	93.732487 
4641.774907  	93.707718 
4642.739331  	93.604587 
4643.703756  	93.613085 
4644.668180  	93.671092 
4645.632605  	93.628696 
4646.597029  	93.705768 
4647.561453  	93.746983 
4648.525878  	93.690420 
4649.490302  	93.683864 
4650.454727  	93.728856 
4651.419151  	93.762297 
4652.383576  	93.721712 
4653.348000  	93.728290 
4654.312425  	93.771058 
4655.276849  	93.763480 
4656.241274  	93.719299 
4657.205698  	93.717719 
4658.170122  	93.664490 
4659.134547  	93.631122 
4660.098971  	93.602549 
4661.063396  	93.662875 
4662.027820  	93.726495 
4662.992245  	93.683190 
4663.956669  	93.708201 
4664.921094  	93.723315 
4665.885518  	93.743592 
4666.849943  	93.794242 
4667.814367  	93.741812 
4668.778791  	93.750484 
4669.743216  	93.797631 
4670.707640  	93.717469 
4671.672065  	93.616490 
4672.636489  	93.638460 
4673.600914  	93.663158 
4674.565338  	93.679954 
4675.529763  	93.738598 
4676.494187  	93.764409 
4677.458612  	93.833072 
4678.423036  	93.869816 
4679.387461  	93.854706 
4680.351885  	93.810314 
4681.316309  	93.728368 
4682.280734  	93.661388 
4683.245158  	93.638683 
4684.209583  	93.719706 
4685.174007  	93.737544 
4686.138432  	93.715681 
4687.102856  	93.676885 
4688.067281  	93.668538 
4689.031705  	93.702477 
4689.996130  	93.728361 
4690.960554  	93.765221 
4691.924978  	93.722887 
4692.889403  	93.604605 
4693.853827  	93.618509 
4694.818252  	93.698569 
4695.782676  	93.784928 
4696.747101  	93.721242 
4697.711525  	93.760080 
4698.675950  	93.829418 
4699.640374  	93.723904 