##TITLE=No Description
##DATA TYPE=INFRARED SPECTRUM
##XUNITS=1/CM
##YUNITS=%T
400.236149  	143.335546 
401.200574  	113.914101 
402.164998  	92.211587 
403.129423  	90.939239 
404.093847  	91.743430 
405.058272  	80.098009 
406.022696  	78.135243 
406.987120  	74.531513 
407.951545  	76.722378 
408.915969  	88.617577 
409.880394  	90.233762 
410.844818  	90.117206 
411.809243  	95.739310 
412.773667  	91.419886 
413.738092  	79.756872 
414.702516  	70.796394 
415.666941  	71.432439 
416.631365  	79.825870 
417.595789  	89.083430 
418.560214  	89.040948 
419.524638  	77.533265 
420.489063  	78.286537 
421.453487  	83.194143 
422.417912  	84.678939 
423.382336  	81.674588 
424.346761  	80.751476 
425.311185  	77.801207 
426.275610  	79.853303 
427.240034  	80.905623 
428.204458  	80.090226 
429.168883  	80.990087 
430.133307  	82.337707 
431.097732  	80.914212 
432.062156  	78.787492 
433.026581  	78.119056 
433.991005  	79.880679 
434.955430  	81.393658 
435.919854  	79.991340 
436.884279  	78.027968 
437.848703  	78.221808 
438.813127  	78.947727 
439.777552  	78.819986 
440.741976  	77.963637 
441.706401  	78.440247 
442.670825  	79.688409 
443.635250  	78.786032 
444.599674  	78.056891 
445.564099  	79.094783 
446.528523  	78.849874 
447.492948  	78.654330 
448.457372  	79.438354 
449.421796  	78.702125 
450.386221  	77.540375 
451.350645  	77.371164 
452.315070  	76.847093 
453.279494  	76.340664 
454.243919  	76.422442 
455.208343  	76.704190 
456.172768  	76.152763 
457.137192  	75.867754 
458.101617  	76.969459 
459.066041  	77.179159 
460.030466  	77.107111 
460.994890  	76.984063 
461.959314  	76.260385 
462.923739  	75.423315 
463.888163  	75.168301 
464.852588  	75.365725 
465.817012  	75.917306 
466.781437  	75.762617 
467.745861  	74.727417 
468.710286  	74.152625 
469.674710  	74.361553 
470.639135  	74.435260 
471.603559  	74.476428 
472.567983  	74.853031 
473.532408  	74.955124 
474.496832  	74.331393 
475.461257  	74.859424 
476.425681  	74.792635 
477.390106  	75.446113 
478.354530  	75.874428 
479.318955  	74.696454 
480.283379  	74.094972 
481.247804  	74.615735 
482.212228  	74.630033 
483.176652  	74.993708 
484.141077  	74.864606 
485.105501  	74.128922 
486.069926  	73.433810 
487.034350  	73.479415 
487.998775  	73.635232 
488.963199  	74.252131 
489.927624  	74.553930 
490.892048  	73.435259 
491.856473  	72.338490 
492.820897  	72.909197 
493.785321  	73.363992 
494.749746  	73.041737 
495.714170  	72.467302 
496.678595  	72.299269 
497.643019  	72.373312 
498.607444  	72.564634 
499.571868  	72.591182 
500.536293  	72.167980 
501.500717  	71.285993 
502.465142  	70.958403 
503.429566  	71.452524 
504.393990  	71.297707 
505.358415  	71.519831 
506.322839  	71.258217 
507.287264  	70.820863 
508.251688  	71.296754 
509.216113  	71.527529 
510.180537  	70.850175 
511.144962  	70.810554 
512.109386  	71.129945 
513.073811  	71.133036 
514.038235  	71.009419 
515.002660  	70.377971 
515.967084  	69.689993 
516.931508  	69.102292 
517.895933  	69.762910 
518.860357  	69.810899 
519.824782  	69.090924 
520.789206  	69.696173 
521.753631  	70.022757 
522.718055  	69.651209 
523.682480  	69.314000 
524.646904  	69.302439 
525.611329  	68.913998 
526.575753  	68.792926 
527.540177  	69.144302 
528.504602  	68.810562 
529.469026  	68.377555 
530.433451  	68.087262 
531.397875  	68.002463 
532.362300  	68.077555 
533.326724  	68.208248 
534.291149  	67.646725 
535.255573  	67.446608 
536.219998  	67.951554 
537.184422  	68.922010 
538.148846  	69.051622 
539.113271  	69.191983 
540.077695  	69.410568 
541.042120  	70.112201 
542.006544  	70.424594 
542.970969  	70.369279 
543.935393  	70.199235 
544.899818  	70.016453 
545.864242  	70.045786 
546.828667  	69.895520 
547.793091  	69.343679 
548.757515  	69.325145 
549.721940  	69.402031 
550.686364  	69.390176 
551.650789  	69.691235 
552.615213  	69.339040 
553.579638  	69.024254 
554.544062  	68.871750 
555.508487  	68.726227 
556.472911  	68.481984 
557.437336  	67.885350 
558.401760  	67.549081 
559.366184  	67.492016 
560.330609  	67.138747 
561.295033  	66.662623 
562.259458  	66.283387 
563.223882  	65.846627 
564.188307  	65.319249 
565.152731  	64.916536 
566.117156  	64.309279 
567.081580  	63.549503 
568.046005  	63.098138 
569.010429  	62.474558 
569.974853  	61.718028 
570.939278  	61.193675 
571.903702  	60.790566 
572.868127  	60.385741 
573.832551  	59.834720 
574.796976  	59.381695 
575.761400  	58.730121 
576.725825  	58.648383 
577.690249  	59.134256 
578.654674  	59.577086 
579.619098  	59.794788 
580.583523  	60.260903 
581.547947  	61.522182 
582.512371  	62.517438 
583.476796  	63.174188 
584.441220  	63.946111 
585.405645  	64.993574 
586.370069  	66.078943 
587.334494  	66.725926 
588.298918  	67.320273 
589.263343  	67.879492 
590.227767  	68.464234 
591.192192  	68.563724 
592.156616  	68.656041 
593.121040  	69.524524 
594.085465  	70.048852 
595.049889  	70.133812 
596.014314  	70.215046 
596.978738  	70.416561 
597.943163  	70.747588 
598.907587  	70.985704 
599.872012  	70.787123 
600.836436  	70.860536 
601.800861  	71.193818 
602.765285  	71.363835 
603.729709  	71.582033 
604.694134  	71.762973 
605.658558  	71.904024 
606.622983  	71.902601 
607.587407  	71.827294 
608.551832  	71.942029 
609.516256  	72.112076 
610.480681  	72.165626 
611.445105  	72.108342 
612.409530  	72.092802 
613.373954  	72.253481 
614.338378  	72.201722 
615.302803  	71.909413 
616.267227  	71.879992 
617.231652  	72.292478 
618.196076  	72.221500 
619.160501  	72.055785 
620.124925  	72.059423 
621.089350  	72.038513 
622.053774  	72.043257 
623.018199  	72.433084 
623.982623  	72.223931 
624.947047  	71.907507 
625.911472  	71.730269 
626.875896  	72.026603 
627.840321  	72.101281 
628.804745  	72.115485 
629.769170  	71.962389 
630.733594  	71.912194 
631.698019  	71.892738 
632.662443  	71.767143 
633.626868  	71.671516 
634.591292  	71.603258 
635.555717  	71.148651 
636.520141  	71.298977 
637.484565  	71.511664 
638.448990  	71.573973 
639.413414  	71.319089 
640.377839  	71.249698 
641.342263  	71.317638 
642.306688  	71.109110 
643.271112  	70.883000 
644.235537  	70.758911 
645.199961  	70.684774 
646.164386  	70.752334 
647.128810  	70.534902 
648.093234  	70.194136 
649.057659  	69.921219 
650.022083  	69.836664 
650.986508  	69.701164 
651.950932  	69.377230 
652.915357  	69.103423 
653.879781  	68.918127 
654.844206  	68.675059 
655.808630  	68.457541 
656.773055  	68.134491 
657.737479  	67.913985 
658.701903  	67.545442 
659.666328  	67.214563 
660.630752  	66.971613 
661.595177  	66.768779 
662.559601  	66.438229 
663.524026  	66.083363 
664.488450  	65.856040 
665.452875  	65.603734 
666.417299  	65.374105 
667.381724  	65.425854 
668.346148  	65.302304 
669.310572  	64.536394 
670.274997  	63.998436 
671.239421  	63.805846 
672.203846  	63.720833 
673.168270  	63.484627 
674.132695  	63.189614 
675.097119  	62.896611 
676.061544  	62.496316 
677.025968  	62.282919 
677.990393  	62.075126 
678.954817  	61.970081 
679.919241  	61.960527 
680.883666  	61.970687 
681.848090  	61.868002 
682.812515  	61.819741 
683.776939  	61.760615 
684.741364  	61.736858 
685.705788  	61.705702 
686.670213  	61.992263 
687.634637  	62.232676 
688.599062  	62.426329 
689.563486  	62.645052 
690.527910  	63.012384 
691.492335  	63.520361 
692.456759  	64.091597 
693.421184  	64.454216 
694.385608  	65.028665 
695.350033  	65.624857 
696.314457  	66.063546 
697.278882  	66.377802 
698.243306  	66.779822 
699.207731  	67.252610 
700.172155  	67.703860 
701.136580  	68.031850 
702.101004  	68.397482 
703.065428  	68.797795 
704.029853  	69.063378 
704.994277  	69.236925 
705.958702  	69.661195 
706.923126  	70.041232 
707.887551  	70.241982 
708.851975  	70.451680 
709.816400  	70.555813 
710.780824  	70.637738 
711.745249  	70.739408 
712.709673  	70.825973 
713.674097  	70.931274 
714.638522  	71.150192 
715.602946  	71.254181 
716.567371  	71.245794 
717.531795  	71.249114 
718.496220  	71.216970 
719.460644  	71.146888 
720.425069  	71.198770 
721.389493  	71.387794 
722.353918  	71.389491 
723.318342  	71.336100 
724.282766  	71.284097 
725.247191  	71.143291 
726.211615  	71.087679 
727.176040  	71.141474 
728.140464  	71.133733 
729.104889  	71.145363 
730.069313  	71.346665 
731.033738  	71.913595 
731.998162  	72.601268 
732.962587  	73.384122 
733.927011  	74.131341 
734.891435  	74.894583 
735.855860  	75.706379 
736.820284  	76.453644 
737.784709  	77.130290 
738.749133  	77.783900 
739.713558  	78.253839 
740.677982  	78.682852 
741.642407  	79.084924 
742.606831  	79.442635 
743.571256  	79.679799 
744.535680  	79.822725 
745.500104  	80.035693 
746.464529  	80.232759 
747.428953  	80.345270 
748.393378  	80.491396 
749.357802  	80.506451 
750.322227  	80.468364 
751.286651  	80.449263 
752.251076  	80.629083 
753.215500  	80.872676 
754.179925  	80.996106 
755.144349  	81.070278 
756.108774  	81.296204 
757.073198  	81.443060 
758.037622  	81.501523 
759.002047  	81.526572 
759.966471  	81.646166 
760.930896  	81.738173 
761.895320  	81.933378 
762.859745  	82.099903 
763.824169  	82.233365 
764.788594  	82.335397 
765.753018  	82.380469 
766.717443  	82.420388 
767.681867  	82.586948 
768.646291  	82.689081 
769.610716  	82.807938 
770.575140  	82.932564 
771.539565  	83.085052 
772.503989  	83.208410 
773.468414  	83.306874 
774.432838  	83.378875 
775.397263  	83.538428 
776.361687  	83.561137 
777.326112  	83.654815 
778.290536  	83.774587 
779.254960  	84.006564 
780.219385  	84.043421 
781.183809  	84.222976 
782.148234  	84.094126 
783.112658  	84.364279 
784.077083  	84.407940 
785.041507  	84.391631 
786.005932  	84.594965 
786.970356  	84.519459 
787.934781  	84.458558 
788.899205  	84.587172 
789.863629  	84.716886 
790.828054  	84.767927 
791.792478  	84.752609 
792.756903  	84.773242 
793.721327  	84.798683 
794.685752  	84.734749 
795.650176  	84.763120 
796.614601  	84.856180 
797.579025  	85.034640 
798.543450  	85.084405 
799.507874  	85.133084 
800.472298  	85.346663 
801.436723  	85.538307 
802.401147  	85.631089 
803.365572  	85.795723 
804.329996  	85.952127 
805.294421  	86.037824 
806.258845  	86.125201 
807.223270  	86.265542 
808.187694  	86.319288 
809.152119  	86.381606 
810.116543  	86.464874 
811.080967  	86.473268 
812.045392  	86.476146 
813.009816  	86.513837 
813.974241  	86.637337 
814.938665  	86.774280 
815.903090  	86.823937 
816.867514  	86.834814 
817.831939  	86.926416 
818.796363  	87.057681 
819.760788  	87.143370 
820.725212  	87.236053 
821.689637  	87.243422 
822.654061  	87.255865 
823.618485  	87.408701 
824.582910  	87.487561 
825.547334  	87.435083 
826.511759  	87.488517 
827.476183  	87.595449 
828.440608  	87.679140 
829.405032  	87.687718 
830.369457  	87.691976 
831.333881  	87.741494 
832.298306  	87.804268 
833.262730  	87.817391 
834.227154  	87.891096 
835.191579  	87.977713 
836.156003  	87.970232 
837.120428  	87.922506 
838.084852  	87.905299 
839.049277  	87.998859 
840.013701  	88.007480 
840.978126  	88.015259 
841.942550  	88.099409 
842.906975  	88.085954 
843.871399  	87.996826 
844.835823  	87.986877 
845.800248  	88.084021 
846.764672  	88.158825 
847.729097  	88.239123 
848.693521  	88.261960 
849.657946  	88.303023 
850.622370  	88.374715 
851.586795  	88.388594 
852.551219  	88.334045 
853.515644  	88.363560 
854.480068  	88.376803 
855.444492  	88.318599 
856.408917  	88.299352 
857.373341  	88.370519 
858.337766  	88.483066 
859.302190  	88.570045 
860.266615  	88.501383 
861.231039  	88.497394 
862.195464  	88.570531 
863.159888  	88.521622 
864.124313  	88.554416 
865.088737  	88.603661 
866.053161  	88.588217 
867.017586  	88.516847 
867.982010  	88.494457 
868.946435  	88.559920 
869.910859  	88.561223 
870.875284  	88.493835 
871.839708  	88.394476 
872.804133  	88.383541 
873.768557  	88.434591 
874.732982  	88.397886 
875.697406  	88.395370 
876.661831  	88.389079 
877.626255  	88.341528 
878.590679  	88.360250 
879.555104  	88.419198 
880.519528  	88.391057 
881.483953  	88.265434 
882.448377  	88.233947 
883.412802  	88.277379 
884.377226  	88.304708 
885.341651  	88.312757 
886.306075  	88.247490 
887.270500  	88.190255 
888.234924  	88.255862 
889.199348  	88.222459 
890.163773  	88.160032 
891.128197  	88.172136 
892.092622  	88.140964 
893.057046  	88.028525 
894.021471  	88.005352 
894.985895  	87.967637 
895.950320  	87.751965 
896.914744  	87.562705 
897.879169  	87.419367 
898.843593  	87.283980 
899.808017  	87.119559 
900.772442  	86.884185 
901.736866  	86.520880 
902.701291  	86.164492 
903.665715  	85.856563 
904.630140  	85.551755 
905.594564  	85.369020 
906.558989  	85.392925 
907.523413  	85.641443 
908.487838  	85.993319 
909.452262  	86.290956 
910.416686  	86.547985 
911.381111  	86.716189 
912.345535  	86.726511 
913.309960  	86.647356 
914.274384  	86.621200 
915.238809  	86.549555 
916.203233  	86.416579 
917.167658  	86.248578 
918.132082  	86.076696 
919.096507  	85.967731 
920.060931  	85.854187 
921.025355  	85.684234 
921.989780  	85.447064 
922.954204  	85.154971 
923.918629  	84.836919 
924.883053  	84.540802 
925.847478  	84.197517 
926.811902  	83.752435 
927.776327  	83.241084 
928.740751  	82.651807 
929.705176  	82.043494 
930.669600  	81.334460 
931.634024  	80.547121 
932.598449  	79.871041 
933.562873  	79.380406 
934.527298  	79.185096 
935.491722  	79.404179 
936.456147  	80.038264 
937.420571  	80.951132 
938.384996  	81.939831 
939.349420  	82.897239 
940.313845  	83.766769 
941.278269  	84.488808 
942.242694  	85.059672 
943.207118  	85.460571 
944.171542  	85.827177 
945.135967  	86.145454 
946.100391  	86.350916 
947.064816  	86.495164 
948.029240  	86.630716 
948.993665  	86.743145 
949.958089  	86.866340 
950.922514  	87.015353 
951.886938  	87.162031 
952.851363  	87.218992 
953.815787  	87.235297 
954.780211  	87.291148 
955.744636  	87.358286 
956.709060  	87.435531 
957.673485  	87.505160 
958.637909  	87.543426 
959.602334  	87.587236 
960.566758  	87.609980 
961.531183  	87.610478 
962.495607  	87.611237 
963.460032  	87.641038 
964.424456  	87.680008 
965.388880  	87.659553 
966.353305  	87.681768 
967.317729  	87.758399 
968.282154  	87.813923 
969.246578  	87.789475 
970.211003  	87.756434 
971.175427  	87.737134 
972.139852  	87.689844 
973.104276  	87.654945 
974.068701  	87.669211 
975.033125  	87.695037 
975.997549  	87.656841 
976.961974  	87.631517 
977.926398  	87.629558 
978.890823  	87.610814 
979.855247  	87.563819 
980.819672  	87.479431 
981.784096  	87.440912 
982.748521  	87.417330 
983.712945  	87.296907 
984.677370  	87.092625 
985.641794  	86.982820 
986.606218  	86.939404 
987.570643  	86.898098 
988.535067  	86.878159 
989.499492  	86.878512 
990.463916  	86.873338 
991.428341  	86.839964 
992.392765  	86.759298 
993.357190  	86.689396 
994.321614  	86.652174 
995.286039  	86.575809 
996.250463  	86.507964 
997.214888  	86.479034 
998.179312  	86.468939 
999.143736  	86.408757 
1000.108161  	86.332975 
1001.072585  	86.278651 
1002.037010  	86.262720 
1003.001434  	86.226703 
1003.965859  	86.136775 
1004.930283  	86.025471 
1005.894708  	85.917762 
1006.859132  	85.831399 
1007.823557  	85.720047 
1008.787981  	85.587313 
1009.752405  	85.485475 
1010.716830  	85.408302 
1011.681254  	85.316939 
1012.645679  	85.274091 
1013.610103  	85.209777 
1014.574528  	85.114775 
1015.538952  	85.083178 
1016.503377  	85.080995 
1017.467801  	85.094126 
1018.432226  	85.088262 
1019.396650  	85.076031 
1020.361074  	85.085010 
1021.325499  	85.113502 
1022.289923  	85.126135 
1023.254348  	85.119573 
1024.218772  	85.122554 
1025.183197  	85.065546 
1026.147621  	84.972027 
1027.112046  	84.940283 
1028.076470  	84.879690 
1029.040895  	84.786276 
1030.005319  	84.702609 
1030.969743  	84.620122 
1031.934168  	84.606002 
1032.898592  	84.590294 
1033.863017  	84.481742 
1034.827441  	84.339700 
1035.791866  	84.267252 
1036.756290  	84.220198 
1037.720715  	84.166383 
1038.685139  	84.063547 
1039.649564  	84.014856 
1040.613988  	84.043206 
1041.578412  	84.013720 
1042.542837  	83.997523 
1043.507261  	84.098578 
1044.471686  	84.183342 
1045.436110  	84.240783 
1046.400535  	84.366608 
1047.364959  	84.458810 
1048.329384  	84.471678 
1049.293808  	84.531139 
1050.258233  	84.613997 
1051.222657  	84.655700 
1052.187081  	84.633565 
1053.151506  	84.618926 
1054.115930  	84.640015 
1055.080355  	84.610192 
1056.044779  	84.518377 
1057.009204  	84.439291 
1057.973628  	84.418832 
1058.938053  	84.411776 
1059.902477  	84.316214 
1060.866902  	84.186030 
1061.831326  	84.164869 
1062.795751  	84.141174 
1063.760175  	84.065529 
1064.724599  	84.040218 
1065.689024  	84.059744 
1066.653448  	84.146690 
1067.617873  	84.272762 
1068.582297  	84.406062 
1069.546722  	84.567421 
1070.511146  	84.745292 
1071.475571  	84.846322 
1072.439995  	84.923136 
1073.404420  	85.011145 
1074.368844  	85.045961 
1075.333268  	85.035868 
1076.297693  	85.032563 
1077.262117  	85.024913 
1078.226542  	85.032973 
1079.190966  	85.020917 
1080.155391  	84.957666 
1081.119815  	84.907391 
1082.084240  	84.865900 
1083.048664  	84.826929 
1084.013089  	84.815958 
1084.977513  	84.763488 
1085.941937  	84.618817 
1086.906362  	84.463735 
1087.870786  	84.419179 
1088.835211  	84.370620 
1089.799635  	84.252762 
1090.764060  	84.159934 
1091.728484  	84.137222 
1092.692909  	84.124921 
1093.657333  	84.036064 
1094.621758  	83.915775 
1095.586182  	83.942222 
1096.550606  	83.956926 
1097.515031  	83.921131 
1098.479455  	83.912974 
1099.443880  	83.963381 
1100.408304  	83.989440 
1101.372729  	83.962879 
1102.337153  	83.971194 
1103.301578  	84.013227 
1104.266002  	84.049031 
1105.230427  	84.061528 
1106.194851  	84.069672 
1107.159275  	84.061434 
1108.123700  	84.055802 
1109.088124  	84.049026 
1110.052549  	84.050163 
1111.016973  	84.075851 
1111.981398  	84.054781 
1112.945822  	84.071279 
1113.910247  	84.095373 
1114.874671  	84.088295 
1115.839096  	84.047831 
1116.803520  	84.007854 
1117.767945  	83.964080 
1118.732369  	83.909151 
1119.696793  	83.868324 
1120.661218  	83.787187 
1121.625642  	83.676098 
1122.590067  	83.620679 
1123.554491  	83.559835 
1124.518916  	83.459161 
1125.483340  	83.370893 
1126.447765  	83.309146 
1127.412189  	83.195915 
1128.376614  	83.024062 
1129.341038  	82.843177 
1130.305462  	82.660048 
1131.269887  	82.429072 
1132.234311  	82.102675 
1133.198736  	81.716879 
1134.163160  	81.312824 
1135.127585  	80.789637 
1136.092009  	80.224211 
1137.056434  	79.792375 
1138.020858  	79.516576 
1138.985283  	79.366866 
1139.949707  	79.321972 
1140.914131  	79.387895 
1141.878556  	79.501370 
1142.842980  	79.557130 
1143.807405  	79.588279 
1144.771829  	79.625284 
1145.736254  	79.645366 
1146.700678  	79.649180 
1147.665103  	79.710984 
1148.629527  	79.848118 
1149.593952  	80.018044 
1150.558376  	80.189827 
1151.522800  	80.412073 
1152.487225  	80.674455 
1153.451649  	80.919183 
1154.416074  	81.137935 
1155.380498  	81.315553 
1156.344923  	81.488596 
1157.309347  	81.641753 
1158.273772  	81.711575 
1159.238196  	81.695299 
1160.202621  	81.707498 
1161.167045  	81.696478 
1162.131469  	81.614413 
1163.095894  	81.475697 
1164.060318  	81.335856 
1165.024743  	81.174460 
1165.989167  	80.964057 
1166.953592  	80.720721 
1167.918016  	80.454156 
1168.882441  	80.139299 
1169.846865  	79.753501 
1170.811290  	79.318132 
1171.775714  	78.857917 
1172.740138  	78.359566 
1173.704563  	77.719407 
1174.668987  	77.006045 
1175.633412  	76.448840 
1176.597836  	75.962174 
1177.562261  	75.490712 
1178.526685  	75.158408 
1179.491110  	75.045692 
1180.455534  	75.068678 
1181.419959  	75.239843 
1182.384383  	75.463561 
1183.348808  	75.709128 
1184.313232  	75.964510 
1185.277656  	76.089285 
1186.242081  	76.108527 
1187.206505  	76.061097 
1188.170930  	75.940165 
1189.135354  	75.641293 
1190.099779  	75.167806 
1191.064203  	74.584443 
1192.028628  	73.849236 
1192.993052  	72.936877 
1193.957477  	71.952581 
1194.921901  	71.034092 
1195.886325  	70.265163 
1196.850750  	69.812203 
1197.815174  	69.859348 
1198.779599  	70.410477 
1199.744023  	71.303840 
1200.708448  	72.392215 
1201.672872  	73.568692 
1202.637297  	74.734910 
1203.601721  	75.771165 
1204.566146  	76.617839 
1205.530570  	77.345289 
1206.494994  	77.947902 
1207.459419  	78.419998 
1208.423843  	78.764002 
1209.388268  	79.013681 
1210.352692  	79.184738 
1211.317117  	79.231145 
1212.281541  	79.203303 
1213.245966  	79.258758 
1214.210390  	79.316467 
1215.174815  	79.271653 
1216.139239  	79.198450 
1217.103663  	79.128098 
1218.068088  	79.002886 
1219.032512  	78.776748 
1219.996937  	78.523030 
1220.961361  	78.185282 
1221.925786  	77.745545 
1222.890210  	77.264278 
1223.854635  	76.927913 
1224.819059  	76.821477 
1225.783484  	76.972413 
1226.747908  	77.251797 
1227.712332  	77.429066 
1228.676757  	77.469554 
1229.641181  	77.386318 
1230.605606  	77.216458 
1231.570030  	77.023086 
1232.534455  	76.831766 
1233.498879  	76.634180 
1234.463304  	76.436479 
1235.427728  	76.258045 
1236.392153  	76.123876 
1237.356577  	76.000063 
1238.321002  	75.884422 
1239.285426  	75.768460 
1240.249850  	75.658553 
1241.214275  	75.552140 
1242.178699  	75.441119 
1243.143124  	75.306905 
1244.107548  	75.178034 
1245.071973  	75.116935 
1246.036397  	75.018917 
1247.000822  	74.860598 
1247.965246  	74.740873 
1248.929671  	74.626825 
1249.894095  	74.488438 
1250.858519  	74.332665 
1251.822944  	74.155741 
1252.787368  	73.987603 
1253.751793  	73.821276 
1254.716217  	73.592822 
1255.680642  	73.373593 
1256.645066  	73.197920 
1257.609491  	72.955348 
1258.573915  	72.627343 
1259.538340  	72.257061 
1260.502764  	71.877361 
1261.467188  	71.667545 
1262.431613  	71.407424 
1263.396037  	71.062342 
1264.360462  	70.725801 
1265.324886  	70.370159 
1266.289311  	70.012745 
1267.253735  	69.726298 
1268.218160  	69.426768 
1269.182584  	69.100933 
1270.147009  	68.755597 
1271.111433  	68.533114 
1272.075857  	68.363751 
1273.040282  	68.353191 
1274.004706  	68.379645 
1274.969131  	68.515691 
1275.933555  	68.814674 
1276.897980  	69.243153 
1277.862404  	69.799923 
1278.826829  	70.469071 
1279.791253  	71.178029 
1280.755678  	71.934830 
1281.720102  	72.743762 
1282.684526  	73.495039 
1283.648951  	74.138211 
1284.613375  	74.700597 
1285.577800  	75.247583 
1286.542224  	75.699690 
1287.506649  	75.942613 
1288.471073  	76.258011 
1289.435498  	76.686221 
1290.399922  	76.956587 
1291.364347  	77.191993 
1292.328771  	77.437313 
1293.293195  	77.624353 
1294.257620  	77.747367 
1295.222044  	77.806914 
1296.186469  	77.785510 
1297.150893  	77.832446 
1298.115318  	77.973479 
1299.079742  	77.970437 
1300.044167  	77.938120 
1301.008591  	77.960131 
1301.973016  	78.003692 
1302.937440  	78.038954 
1303.901865  	78.129896 
1304.866289  	78.234742 
1305.830713  	78.341625 
1306.795138  	78.442929 
1307.759562  	78.464244 
1308.723987  	78.601938 
1309.688411  	78.923006 
1310.652836  	79.073222 
1311.617260  	79.029894 
1312.581685  	78.754078 
1313.546109  	78.887584 
1314.510534  	79.115191 
1315.474958  	79.343728 
1316.439382  	79.277593 
1317.403807  	79.130209 
1318.368231  	79.089530 
1319.332656  	78.940373 
1320.297080  	79.214933 
1321.261505  	79.414331 
1322.225929  	79.520226 
1323.190354  	79.419398 
1324.154778  	79.367557 
1325.119203  	79.300363 
1326.083627  	79.197929 
1327.048051  	79.109433 
1328.012476  	79.050216 
1328.976900  	78.966233 
1329.941325  	78.888897 
1330.905749  	78.928005 
1331.870174  	78.973913 
1332.834598  	78.920316 
1333.799023  	78.870195 
1334.763447  	78.763182 
1335.727872  	78.388595 
1336.692296  	77.761370 
1337.656720  	77.570998 
1338.621145  	76.811631 
1339.585569  	75.990266 
1340.549994  	76.168830 
1341.514418  	77.344247 
1342.478843  	77.849189 
1343.443267  	77.746750 
1344.407692  	77.618234 
1345.372116  	77.522213 
1346.336541  	77.397402 
1347.300965  	77.241941 
1348.265389  	77.027737 
1349.229814  	76.716939 
1350.194238  	76.572032 
1351.158663  	76.466998 
1352.123087  	76.252122 
1353.087512  	76.041132 
1354.051936  	75.696815 
1355.016361  	75.215443 
1355.980785  	75.204899 
1356.945210  	75.113894 
1357.909634  	74.783452 
1358.874059  	74.586792 
1359.838483  	74.373408 
1360.802907  	73.573015 
1361.767332  	72.925313 
1362.731756  	71.939761 
1363.696181  	71.885147 
1364.660605  	72.939118 
1365.625030  	73.008697 
1366.589454  	72.777101 
1367.553879  	72.349328 
1368.518303  	71.706199 
1369.482728  	71.658629 
1370.447152  	72.011146 
1371.411576  	72.060624 
1372.376001  	72.010115 
1373.340425  	71.520775 
1374.304850  	71.355212 
1375.269274  	72.233892 
1376.233699  	73.440209 
1377.198123  	73.945374 
1378.162548  	74.061131 
1379.126972  	74.510864 
1380.091397  	75.026548 
1381.055821  	75.547973 
1382.020245  	75.847221 
1382.984670  	76.074439 
1383.949094  	76.308308 
1384.913519  	76.504433 
1385.877943  	76.206323 
1386.842368  	75.332280 
1387.806792  	75.436472 
1388.771217  	76.768585 
1389.735641  	77.361510 
1390.700066  	77.532491 
1391.664490  	77.810445 
1392.628914  	78.093413 
1393.593339  	77.681805 
1394.557763  	76.658847 
1395.522188  	76.740606 
1396.486612  	77.638354 
1397.451037  	77.725476 
1398.415461  	77.159167 
1399.379886  	77.084829 
1400.344310  	78.011899 
1401.308735  	78.444342 
1402.273159  	78.296737 
1403.237583  	77.981665 
1404.202008  	77.158094 
1405.166432  	76.135234 
1406.130857  	76.397765 
1407.095281  	76.396448 
1408.059706  	75.763857 
1409.024130  	74.879687 
1409.988555  	73.691452 
1410.952979  	72.408358 
1411.917404  	70.918759 
1412.881828  	69.680329 
1413.846252  	68.323314 
1414.810677  	66.934674 
1415.775101  	65.738192 
1416.739526  	65.220689 
1417.703950  	65.668591 
1418.668375  	66.272147 
1419.632799  	67.899152 
1420.597224  	71.064880 
1421.561648  	72.322127 
1422.526073  	73.012715 
1423.490497  	72.607685 
1424.454922  	72.887530 
1425.419346  	74.290835 
1426.383770  	74.870749 
1427.348195  	74.915732 
1428.312619  	74.653334 
1429.277044  	74.117683 
1430.241468  	73.689799 
1431.205893  	74.022158 
1432.170317  	73.813649 
1433.134742  	73.371109 
1434.099166  	73.382137 
1435.063591  	73.033172 
1436.028015  	71.619123 
1436.992439  	70.959695 
1437.956864  	72.527365 
1438.921288  	73.143909 
1439.885713  	73.296213 
1440.850137  	73.397619 
1441.814562  	73.499489 
1442.778986  	73.608154 
1443.743411  	73.639745 
1444.707835  	73.640458 
1445.672260  	73.607917 
1446.636684  	73.387188 
1447.601108  	72.518233 
1448.565533  	72.437178 
1449.529957  	73.094881 
1450.494382  	73.003231 
1451.458806  	72.273390 
1452.423231  	71.594619 
1453.387655  	71.645995 
1454.352080  	70.881977 
1455.316504  	69.420967 
1456.280929  	68.136961 
1457.245353  	67.069040 
1458.209777  	66.798551 
1459.174202  	67.086920 
1460.138626  	67.644898 
1461.103051  	67.528086 
1462.067475  	66.713698 
1463.031900  	65.937244 
1463.996324  	64.976300 
1464.960749  	64.336340 
1465.925173  	65.790515 
1466.889598  	67.211022 
1467.854022  	68.395433 
1468.818446  	69.363758 
1469.782871  	69.671606 
1470.747295  	68.996098 
1471.711720  	66.928292 
1472.676144  	64.913726 
1473.640569  	64.793663 
1474.604993  	65.793446 
1475.569418  	65.832560 
1476.533842  	66.176444 
1477.498267  	68.405272 
1478.462691  	70.085736 
1479.427116  	71.480338 
1480.391540  	72.529585 
1481.355964  	73.330192 
1482.320389  	75.018875 
1483.284813  	76.253378 
1484.249238  	76.935283 
1485.213662  	77.085568 
1486.178087  	76.668247 
1487.142511  	76.092399 
1488.106936  	76.176963 
1489.071360  	75.056785 
1490.035785  	73.468686 
1491.000209  	74.538418 
1491.964633  	75.940303 
1492.929058  	76.243552 
1493.893482  	75.913048 
1494.857907  	75.216469 
1495.822331  	73.857909 
1496.786756  	73.109426 
1497.751180  	73.344228 
1498.715605  	72.519074 
1499.680029  	72.367649 
1500.644454  	72.341133 
1501.608878  	71.581854 
1502.573302  	71.185551 
1503.537727  	70.937052 
1504.502151  	69.929059 
1505.466576  	67.836896 
1506.431000  	63.855304 
1507.395425  	62.132146 
1508.359849  	63.252399 
1509.324274  	63.846119 
1510.288698  	64.030621 
1511.253123  	64.295987 
1512.217547  	63.371197 
1513.181971  	63.029723 
1514.146396  	62.511068 
1515.110820  	60.800976 
1516.075245  	59.029840 
1517.039669  	57.117819 
1518.004094  	57.443509 
1518.968518  	57.521959 
1519.932943  	55.868626 
1520.897367  	52.928614 
1521.861792  	52.223068 
1522.826216  	52.259448 
1523.790640  	52.083774 
1524.755065  	50.904473 
1525.719489  	49.631997 
1526.683914  	49.113338 
1527.648338  	48.134411 
1528.612763  	47.693566 
1529.577187  	47.849605 
1530.541612  	47.566515 
1531.506036  	46.747430 
1532.470461  	46.192736 
1533.434885  	45.655295 
1534.399309  	46.556815 
1535.363734  	47.485277 
1536.328158  	48.262702 
1537.292583  	48.822680 
1538.257007  	48.373274 
1539.221432  	47.204316 
1540.185856  	48.859553 
1541.150281  	50.398794 
1542.114705  	51.011053 
1543.079130  	52.352911 
1544.043554  	52.947666 
1545.007979  	53.429660 
1545.972403  	55.500806 
1546.936827  	57.231561 
1547.901252  	58.076690 
1548.865676  	58.250452 
1549.830101  	57.539791 
1550.794525  	59.029295 
1551.758950  	60.703062 
1552.723374  	61.232995 
1553.687799  	60.926223 
1554.652223  	61.105003 
1555.616648  	62.655612 
1556.581072  	62.977515 
1557.545496  	62.008336 
1558.509921  	59.657313 
1559.474345  	59.979098 
1560.438770  	63.745433 
1561.403194  	66.358571 
1562.367619  	67.410041 
1563.332043  	68.105754 
1564.296468  	68.315954 
1565.260892  	68.827979 
1566.225317  	70.036335 
1567.189741  	70.715498 
1568.154165  	70.791287 
1569.118590  	69.960847 
1570.083014  	70.833001 
1571.047439  	72.694216 
1572.011863  	73.480358 
1572.976288  	73.970288 
1573.940712  	74.413390 
1574.905137  	74.355060 
1575.869561  	73.615944 
1576.833986  	73.943181 
1577.798410  	75.230391 
1578.762834  	76.091994 
1579.727259  	76.631500 
1580.691683  	76.941494 
1581.656108  	77.181354 
1582.620532  	77.311595 
1583.584957  	77.418804 
1584.549381  	77.502858 
1585.513806  	77.585238 
1586.478230  	77.561767 
1587.442655  	77.554411 
1588.407079  	77.434941 
1589.371503  	77.195997 
1590.335928  	76.931418 
1591.300352  	76.792388 
1592.264777  	76.533114 
1593.229201  	76.264306 
1594.193626  	75.607317 
1595.158050  	75.133868 
1596.122475  	74.783129 
1597.086899  	74.418289 
1598.051324  	73.952217 
1599.015748  	73.344489 
1599.980173  	72.609665 
1600.944597  	71.705799 
1601.909021  	70.719575 
1602.873446  	69.654061 
1603.837870  	68.669246 
1604.802295  	67.947896 
1605.766719  	66.939513 
1606.731144  	65.715506 
1607.695568  	64.625630 
1608.659993  	63.800291 
1609.624417  	62.601184 
1610.588842  	61.920250 
1611.553266  	60.992098 
1612.517690  	59.855339 
1613.482115  	58.609840 
1614.446539  	57.342195 
1615.410964  	55.742438 
1616.375388  	53.790109 
1617.339813  	52.172040 
1618.304237  	51.936303 
1619.268662  	51.072230 
1620.233086  	50.072813 
1621.197511  	49.002297 
1622.161935  	47.897285 
1623.126359  	46.400766 
1624.090784  	45.894587 
1625.055208  	45.659712 
1626.019633  	45.109501 
1626.984057  	44.169305 
1627.948482  	43.270711 
1628.912906  	42.955069 
1629.877331  	42.737528 
1630.841755  	42.415957 
1631.806180  	42.371685 
1632.770604  	42.488804 
1633.735028  	42.680596 
1634.699453  	42.197936 
1635.663877  	42.619217 
1636.628302  	44.618677 
1637.592726  	45.744761 
1638.557151  	47.610859 
1639.521575  	49.020976 
1640.486000  	50.262251 
1641.450424  	51.711454 
1642.414849  	53.040418 
1643.379273  	54.566088 
1644.343697  	55.773678 
1645.308122  	56.178043 
1646.272546  	56.662584 
1647.236971  	57.969662 
1648.201395  	59.751247 
1649.165820  	62.364960 
1650.130244  	63.830750 
1651.094669  	64.603259 
1652.059093  	64.293037 
1653.023518  	62.554610 
1653.987942  	64.745919 
1654.952366  	68.104640 
1655.916791  	70.243446 
1656.881215  	71.473582 
1657.845640  	72.726705 
1658.810064  	73.965868 
1659.774489  	74.964723 
1660.738913  	75.638074 
1661.703338  	75.972653 
1662.667762  	76.329351 
1663.632187  	78.013867 
1664.596611  	79.407920 
1665.561036  	80.351659 
1666.525460  	81.251662 
1667.489884  	81.598558 
1668.454309  	80.936481 
1669.418733  	80.981533 
1670.383158  	82.813221 
1671.347582  	83.179937 
1672.312007  	84.174625 
1673.276431  	85.352773 
1674.240856  	85.469925 
1675.205280  	84.692180 
1676.169705  	85.775818 
1677.134129  	87.162143 
1678.098553  	87.728804 
1679.062978  	87.675394 
1680.027402  	86.620504 
1680.991827  	87.221372 
1681.956251  	88.473754 
1682.920676  	87.670965 
1683.885100  	84.241595 
1684.849525  	84.668807 
1685.813949  	88.692350 
1686.778374  	89.842971 
1687.742798  	89.555656 
1688.707222  	89.170639 
1689.671647  	89.706489 
1690.636071  	90.111239 
1691.600496  	90.931995 
1692.564920  	91.185252 
1693.529345  	91.079560 
1694.493769  	90.527210 
1695.458194  	89.216520 
1696.422618  	88.192973 
1697.387043  	89.234224 
1698.351467  	89.704877 
1699.315891  	89.243644 
1700.280316  	86.550042 
1701.244740  	88.462764 
1702.209165  	89.905403 
1703.173589  	90.290275 
1704.138014  	89.725641 
1705.102438  	89.496802 
1706.066863  	89.567195 
1707.031287  	89.578583 
1707.995712  	90.473026 
1708.960136  	90.884693 
1709.924560  	90.377637 
1710.888985  	90.354976 
1711.853409  	90.836687 
1712.817834  	90.500163 
1713.782258  	89.521826 
1714.746683  	88.360700 
1715.711107  	88.439967 
1716.675532  	88.626043 
1717.639956  	87.099632 
1718.604381  	86.891750 
1719.568805  	89.358534 
1720.533230  	90.416533 
1721.497654  	90.517623 
1722.462078  	90.355168 
1723.426503  	89.897265 
1724.390927  	90.093854 
1725.355352  	90.547944 
1726.319776  	90.544013 
1727.284201  	90.485434 
1728.248625  	90.398968 
1729.213050  	89.643959 
1730.177474  	88.336363 
1731.141899  	89.229910 
1732.106323  	89.505455 
1733.070747  	88.153988 
1734.035172  	85.801539 
1734.999596  	87.564703 
1735.964021  	89.670206 
1736.928445  	90.165712 
1737.892870  	90.109117 
1738.857294  	89.959447 
1739.821719  	89.333513 
1740.786143  	90.184681 
1741.750568  	90.880114 
1742.714992  	90.106460 
1743.679416  	89.030309 
1744.643841  	89.955586 
1745.608265  	90.616442 
1746.572690  	90.376031 
1747.537114  	89.882814 
1748.501539  	89.534735 
1749.465963  	89.659007 
1750.430388  	90.039790 
1751.394812  	89.205396 
1752.359237  	90.553120 
1753.323661  	91.797649 
1754.288085  	92.299567 
1755.252510  	92.316536 
1756.216934  	91.581885 
1757.181359  	90.851013 
1758.145783  	91.596252 
1759.110208  	92.091609 
1760.074632  	92.333446 
1761.039057  	91.696866 
1762.003481  	90.677972 
1762.967906  	91.697891 
1763.932330  	92.497397 
1764.896754  	92.618693 
1765.861179  	92.635432 
1766.825603  	92.425222 
1767.790028  	91.374943 
1768.754452  	91.089207 
1769.718877  	92.226034 
1770.683301  	91.892381 
1771.647726  	90.704221 
1772.612150  	90.239998 
1773.576575  	91.488978 
1774.540999  	92.160101 
1775.505423  	91.734893 
1776.469848  	92.015365 
1777.434272  	92.745553 
1778.398697  	92.481120 
1779.363121  	92.125908 
1780.327546  	91.660409 
1781.291970  	91.613215 
1782.256395  	92.356601 
1783.220819  	92.716713 
1784.185244  	92.317906 
1785.149668  	91.734284 
1786.114093  	92.377313 
1787.078517  	92.847479 
1788.042941  	92.811103 
1789.007366  	92.719069 
1789.971790  	92.319896 
1790.936215  	91.260402 
1791.900639  	90.798143 
1792.865064  	90.808225 
1793.829488  	91.851114 
1794.793913  	92.319069 
1795.758337  	91.578567 
1796.722762  	91.617789 
1797.687186  	92.491727 
1798.651610  	92.542851 
1799.616035  	91.844476 
1800.580459  	91.816374 
1801.544884  	91.571378 
1802.509308  	91.378434 
1803.473733  	92.275252 
1804.438157  	92.826004 
1805.402582  	92.790501 
1806.367006  	92.768496 
1807.331431  	92.405540 
1808.295855  	92.241098 
1809.260279  	92.586815 
1810.224704  	92.116178 
1811.189128  	91.701290 
1812.153553  	92.102065 
1813.117977  	92.466324 
1814.082402  	92.835767 
1815.046826  	92.893947 
1816.011251  	92.945188 
1816.975675  	92.615673 
1817.940100  	92.439770 
1818.904524  	92.765027 
1819.868948  	92.912361 
1820.833373  	92.834191 
1821.797797  	92.739226 
1822.762222  	92.464160 
1823.726646  	92.469550 
1824.691071  	91.808282 
1825.655495  	91.120088 
1826.619920  	92.224710 
1827.584344  	92.669665 
1828.548769  	92.176302 
1829.513193  	90.992175 
1830.477617  	91.032422 
1831.442042  	92.284595 
1832.406466  	92.607660 
1833.370891  	92.438030 
1834.335315  	92.643539 
1835.299740  	92.822884 
1836.264164  	92.600058 
1837.228589  	92.086258 
1838.193013  	92.319119 
1839.157438  	92.762124 
1840.121862  	92.779160 
1841.086287  	92.681186 
1842.050711  	92.238581 
1843.015135  	91.888539 
1843.979560  	91.047437 
1844.943984  	90.943687 
1845.908409  	91.884259 
1846.872833  	92.133374 
1847.837258  	91.594841 
1848.801682  	91.964390 
1849.766107  	92.632438 
1850.730531  	92.846176 
1851.694956  	92.835520 
1852.659380  	92.835936 
1853.623804  	92.806947 
1854.588229  	92.723813 
1855.552653  	92.708854 
1856.517078  	92.702755 
1857.481502  	92.633526 
1858.445927  	92.453721 
1859.410351  	92.425564 
1860.374776  	92.573079 
1861.339200  	92.458589 
1862.303625  	92.502467 
1863.268049  	92.666555 
1864.232473  	92.665071 
1865.196898  	92.591122 
1866.161322  	92.218436 
1867.125747  	91.757301 
1868.090171  	91.184958 
1869.054596  	90.752723 
1870.019020  	91.326850 
1870.983445  	92.044648 
1871.947869  	92.554639 
1872.912294  	92.813452 
1873.876718  	92.840752 
1874.841142  	92.757889 
1875.805567  	92.754401 
1876.769991  	92.739879 
1877.734416  	92.749728 
1878.698840  	92.665443 
1879.663265  	92.564902 
1880.627689  	92.590519 
1881.592114  	92.629136 
1882.556538  	92.631760 
1883.520963  	92.687230 
1884.485387  	92.580704 
1885.449811  	92.496728 
1886.414236  	92.700937 
1887.378660  	92.773565 
1888.343085  	92.473723 
1889.307509  	91.646283 
1890.271934  	91.615871 
1891.236358  	92.334305 
1892.200783  	92.501691 
1893.165207  	92.586642 
1894.129632  	92.480640 
1895.094056  	91.953895 
1896.058480  	92.080413 
1897.022905  	92.560151 
1897.987329  	92.591601 
1898.951754  	92.589142 
1899.916178  	92.623854 
1900.880603  	92.666466 
1901.845027  	92.560773 
1902.809452  	92.620867 
1903.773876  	92.621022 
1904.738301  	92.586139 
1905.702725  	92.568512 
1906.667150  	92.623038 
1907.631574  	92.325007 
1908.595998  	92.283611 
1909.560423  	92.117614 
1910.524847  	92.027964 
1911.489272  	92.518513 
1912.453696  	92.654802 
1913.418121  	92.573296 
1914.382545  	92.533882 
1915.346970  	92.547866 
1916.311394  	92.601320 
1917.275819  	92.104862 
1918.240243  	91.435492 
1919.204667  	92.063108 
1920.169092  	92.440776 
1921.133516  	92.331556 
1922.097941  	91.773758 
1923.062365  	91.094342 
1924.026790  	91.979804 
1924.991214  	92.610352 
1925.955639  	92.615719 
1926.920063  	92.597653 
1927.884488  	92.585577 
1928.848912  	92.625506 
1929.813336  	92.680341 
1930.777761  	92.602459 
1931.742185  	92.568967 
1932.706610  	92.601757 
1933.671034  	92.817910 
1934.635459  	92.891270 
1935.599883  	92.766112 
1936.564308  	92.677584 
1937.528732  	92.572238 
1938.493157  	92.489717 
1939.457581  	92.703268 
1940.422005  	92.667786 
1941.386430  	92.330478 
1942.350854  	91.342447 
1943.315279  	91.248040 
1944.279703  	92.089202 
1945.244128  	92.361227 
1946.208552  	92.533801 
1947.172977  	92.597367 
1948.137401  	92.663157 
1949.101826  	92.674306 
1950.066250  	92.740227 
1951.030674  	92.902518 
1951.995099  	92.853605 
1952.959523  	92.930153 
1953.923948  	92.755879 
1954.888372  	92.585934 
1955.852797  	92.546670 
1956.817221  	92.819810 
1957.781646  	93.016442 
1958.746070  	93.062677 
1959.710495  	93.038145 
1960.674919  	92.905820 
1961.639344  	92.774242 
1962.603768  	92.858758 
1963.568192  	92.923643 
1964.532617  	93.106978 
1965.497041  	93.143825 
1966.461466  	92.688766 
1967.425890  	92.267781 
1968.390315  	92.834108 
1969.354739  	92.996104 
1970.319164  	93.018586 
1971.283588  	93.142163 
1972.248013  	93.175348 
1973.212437  	93.015142 
1974.176861  	92.778101 
1975.141286  	92.463976 
1976.105710  	92.725675 
1977.070135  	93.336796 
1978.034559  	93.369846 
1978.998984  	92.626170 
1979.963408  	92.374899 
1980.927833  	92.345967 
1981.892257  	92.487789 
1982.856682  	92.883180 
1983.821106  	93.040511 
1984.785530  	92.883778 
1985.749955  	92.621628 
1986.714379  	92.661120 
1987.678804  	92.595554 
1988.643228  	92.440278 
1989.607653  	92.726940 
1990.572077  	92.466159 
1991.536502  	91.968782 
1992.500926  	91.802733 
1993.465351  	92.052796 
1994.429775  	92.422977 
1995.394199  	92.798458 
1996.358624  	92.745737 
1997.323048  	92.632036 
1998.287473  	92.544001 
1999.251897  	92.809389 
2000.216322  	92.952392 
2001.180746  	93.067456 
2002.145171  	93.071162 
2003.109595  	93.330040 
2004.074020  	93.326971 
2005.038444  	93.337314 
2006.002868  	93.275243 
2006.967293  	93.137790 
2007.931717  	92.757443 
2008.896142  	92.770240 
2009.860566  	93.092101 
2010.824991  	93.223009 
2011.789415  	92.730285 
2012.753840  	92.564697 
2013.718264  	92.856311 
2014.682689  	93.183408 
2015.647113  	93.192132 
2016.611537  	92.708261 
2017.575962  	92.341952 
2018.540386  	92.529945 
2019.504811  	92.623803 
2020.469235  	93.113608 
2021.433660  	93.156494 
2022.398084  	92.971949 
2023.362509  	92.918943 
2024.326933  	93.020846 
2025.291358  	92.799722 
2026.255782  	92.643492 
2027.220207  	92.896116 
2028.184631  	92.988590 
2029.149055  	92.822850 
2030.113480  	92.844370 
2031.077904  	92.808549 
2032.042329  	92.631502 
2033.006753  	92.466185 
2033.971178  	92.557711 
2034.935602  	92.717564 
2035.900027  	93.021080 
2036.864451  	92.991118 
2037.828876  	92.906205 
2038.793300  	92.836442 
2039.757724  	92.598425 
2040.722149  	92.554010 
2041.686573  	92.507099 
2042.650998  	92.453442 
2043.615422  	92.409326 
2044.579847  	92.554316 
2045.544271  	92.717607 
2046.508696  	92.501951 
2047.473120  	92.602155 
2048.437545  	92.916223 
2049.401969  	93.009335 
2050.366393  	92.514625 
2051.330818  	92.385402 
2052.295242  	92.760699 
2053.259667  	92.887262 
2054.224091  	92.642445 
2055.188516  	92.421478 
2056.152940  	92.399940 
2057.117365  	92.490947 
2058.081789  	92.496323 
2059.046214  	92.503873 
2060.010638  	92.446248 
2060.975062  	92.366134 
2061.939487  	92.524942 
2062.903911  	92.564501 
2063.868336  	92.309503 
2064.832760  	92.089979 
2065.797185  	92.286244 
2066.761609  	92.569032 
2067.726034  	92.617038 
2068.690458  	92.598010 
2069.654883  	92.552538 
2070.619307  	92.582967 
2071.583731  	92.508792 
2072.548156  	92.368521 
2073.512580  	92.257343 
2074.477005  	92.263198 
2075.441429  	92.325071 
2076.405854  	92.398576 
2077.370278  	92.272344 
2078.334703  	92.328658 
2079.299127  	92.482669 
2080.263552  	92.488906 
2081.227976  	92.426427 
2082.192401  	92.371596 
2083.156825  	92.291092 
2084.121249  	92.266037 
2085.085674  	92.407473 
2086.050098  	92.468846 
2087.014523  	92.387061 
2087.978947  	92.419212 
2088.943372  	92.335446 
2089.907796  	92.090985 
2090.872221  	92.082227 
2091.836645  	92.522422 
2092.801070  	92.684550 
2093.765494  	92.651370 
2094.729918  	92.537180 
2095.694343  	92.386565 
2096.658767  	92.257454 
2097.623192  	92.233331 
2098.587616  	92.289885 
2099.552041  	92.488812 
2100.516465  	92.565526 
2101.480890  	92.549686 
2102.445314  	92.392388 
2103.409739  	92.267292 
2104.374163  	92.284429 
2105.338587  	92.357197 
2106.303012  	92.325542 
2107.267436  	92.301413 
2108.231861  	92.231072 
2109.196285  	92.296968 
2110.160710  	92.456625 
2111.125134  	92.551882 
2112.089559  	92.437698 
2113.053983  	92.434782 
2114.018408  	92.429989 
2114.982832  	92.342421 
2115.947256  	92.249861 
2116.911681  	92.410235 
2117.876105  	92.578887 
2118.840530  	92.552731 
2119.804954  	92.466925 
2120.769379  	92.412040 
2121.733803  	92.489200 
2122.698228  	92.635183 
2123.662652  	92.555849 
2124.627077  	92.576735 
2125.591501  	92.732009 
2126.555925  	92.832884 
2127.520350  	92.670863 
2128.484774  	92.543415 
2129.449199  	92.754906 
2130.413623  	92.903080 
2131.378048  	92.849071 
2132.342472  	92.840495 
2133.306897  	92.929180 
2134.271321  	92.829509 
2135.235746  	92.581608 
2136.200170  	92.518598 
2137.164594  	92.741489 
2138.129019  	92.999358 
2139.093443  	92.972550 
2140.057868  	92.939907 
2141.022292  	92.845696 
2141.986717  	92.855075 
2142.951141  	93.029783 
2143.915566  	93.249982 
2144.879990  	93.091146 
2145.844415  	93.092246 
2146.808839  	93.002880 
2147.773264  	92.960594 
2148.737688  	92.884149 
2149.702112  	92.843768 
2150.666537  	92.829322 
2151.630961  	93.038845 
2152.595386  	93.191460 
2153.559810  	93.274575 
2154.524235  	93.348835 
2155.488659  	93.565917 
2156.453084  	94.015566 
2157.417508  	94.025245 
2158.381933  	93.593208 
2159.346357  	92.934426 
2160.310781  	92.177103 
2161.275206  	91.740871 
2162.239630  	92.043095 
2163.204055  	92.691085 
2164.168479  	92.792438 
2165.132904  	92.355589 
2166.097328  	92.044022 
2167.061753  	92.198092 
2168.026177  	92.334321 
2168.990602  	92.617647 
2169.955026  	92.824198 
2170.919450  	93.143289 
2171.883875  	92.826074 
2172.848299  	92.731005 
2173.812724  	92.996733 
2174.777148  	93.020903 
2175.741573  	92.716265 
2176.705997  	92.483754 
2177.670422  	92.504174 
2178.634846  	92.712429 
2179.599271  	92.691634 
2180.563695  	92.727378 
2181.528119  	92.820753 
2182.492544  	92.578924 
2183.456968  	92.049837 
2184.421393  	91.953722 
2185.385817  	92.375602 
2186.350242  	92.524011 
2187.314666  	92.255543 
2188.279091  	92.378195 
2189.243515  	92.461386 
2190.207940  	92.512724 
2191.172364  	92.591904 
2192.136788  	92.670190 
2193.101213  	92.566583 
2194.065637  	92.477589 
2195.030062  	92.369936 
2195.994486  	92.095728 
2196.958911  	92.075820 
2197.923335  	92.409956 
2198.887760  	92.501245 
2199.852184  	92.572927 
2200.816609  	92.657016 
2201.781033  	92.584909 
2202.745458  	92.371990 
2203.709882  	92.369144 
2204.674306  	92.493337 
2205.638731  	92.570791 
2206.603155  	92.378944 
2207.567580  	92.289310 
2208.532004  	92.236008 
2209.496429  	92.322248 
2210.460853  	92.443113 
2211.425278  	92.532155 
2212.389702  	92.304029 
2213.354127  	92.052028 
2214.318551  	92.059249 
2215.282975  	92.143495 
2216.247400  	92.213514 
2217.211824  	92.401066 
2218.176249  	92.543213 
2219.140673  	92.580234 
2220.105098  	92.344984 
2221.069522  	92.288533 
2222.033947  	92.456175 
2222.998371  	92.449652 
2223.962796  	92.399856 
2224.927220  	92.555196 
2225.891644  	92.449730 
2226.856069  	92.341418 
2227.820493  	92.367718 
2228.784918  	92.372386 
2229.749342  	92.218318 
2230.713767  	92.222589 
2231.678191  	92.252317 
2232.642616  	92.281410 
2233.607040  	92.448638 
2234.571465  	92.472055 
2235.535889  	92.341635 
2236.500313  	92.384253 
2237.464738  	92.470807 
2238.429162  	92.467368 
2239.393587  	92.298887 
2240.358011  	92.297941 
2241.322436  	92.469108 
2242.286860  	92.428347 
2243.251285  	92.299151 
2244.215709  	92.220851 
2245.180134  	92.147578 
2246.144558  	92.161986 
2247.108982  	92.222558 
2248.073407  	92.351753 
2249.037831  	92.406773 
2250.002256  	92.362420 
2250.966680  	92.314015 
2251.931105  	92.423146 
2252.895529  	92.362848 
2253.859954  	92.288375 
2254.824378  	92.283384 
2255.788803  	92.350424 
2256.753227  	92.338619 
2257.717651  	92.394710 
2258.682076  	92.383980 
2259.646500  	92.319867 
2260.610925  	92.247907 
2261.575349  	92.279449 
2262.539774  	92.278625 
2263.504198  	92.351376 
2264.468623  	92.305355 
2265.433047  	92.290157 
2266.397472  	92.357726 
2267.361896  	92.327956 
2268.326321  	92.295724 
2269.290745  	92.302068 
2270.255169  	92.297983 
2271.219594  	92.350952 
2272.184018  	92.336997 
2273.148443  	92.267099 
2274.112867  	92.231747 
2275.077292  	92.227428 
2276.041716  	92.136536 
2277.006141  	92.164041 
2277.970565  	92.209757 
2278.934990  	92.230719 
2279.899414  	92.130012 
2280.863838  	92.072915 
2281.828263  	92.013598 
2282.792687  	92.028883 
2283.757112  	92.101097 
2284.721536  	92.080428 
2285.685961  	92.043537 
2286.650385  	92.075762 
2287.614810  	92.015688 
2288.579234  	91.946738 
2289.543659  	91.868996 
2290.508083  	91.977198 
2291.472507  	92.015755 
2292.436932  	92.028334 
2293.401356  	91.939902 
2294.365781  	91.850982 
2295.330205  	91.891272 
2296.294630  	91.876812 
2297.259054  	91.885659 
2298.223479  	91.797993 
2299.187903  	91.782072 
2300.152328  	91.860542 
2301.116752  	91.813970 
2302.081176  	91.772856 
2303.045601  	91.714581 
2304.010025  	91.833288 
2304.974450  	91.621542 
2305.938874  	91.603903 
2306.903299  	91.597172 
2307.867723  	91.706898 
2308.832148  	91.605690 
2309.796572  	91.581063 
2310.760997  	91.527455 
2311.725421  	91.565381 
2312.689845  	91.705593 
2313.654270  	91.770434 
2314.618694  	91.799591 
2315.583119  	91.944851 
2316.547543  	92.015051 
2317.511968  	92.027560 
2318.476392  	92.018132 
2319.440817  	92.080373 
2320.405241  	92.054733 
2321.369666  	92.153109 
2322.334090  	92.274312 
2323.298515  	92.326221 
2324.262939  	92.337288 
2325.227363  	92.680607 
2326.191788  	92.924080 
2327.156212  	93.118620 
2328.120637  	93.201382 
2329.085061  	93.250581 
2330.049486  	93.341917 
2331.013910  	93.485215 
2331.978335  	93.559424 
2332.942759  	93.660390 
2333.907184  	93.891243 
2334.871608  	94.100099 
2335.836032  	94.254073 
2336.800457  	94.303290 
2337.764881  	94.253702 
2338.729306  	94.247624 
2339.693730  	94.177459 
2340.658155  	94.307667 
2341.622579  	94.378027 
2342.587004  	94.271716 
2343.551428  	94.074626 
2344.515853  	93.854734 
2345.480277  	93.614234 
2346.444701  	93.319043 
2347.409126  	93.054560 
2348.373550  	92.618737 
2349.337975  	92.423863 
2350.302399  	92.751167 
2351.266824  	93.305334 
2352.231248  	93.794205 
2353.195673  	94.000379 
2354.160097  	94.175524 
2355.124522  	94.364746 
2356.088946  	94.777612 
2357.053370  	95.018302 
2358.017795  	95.084658 
2358.982219  	95.088585 
2359.946644  	95.370112 
2360.911068  	95.371973 
2361.875493  	95.178812 
2362.839917  	95.092330 
2363.804342  	95.161303 
2364.768766  	95.032546 
2365.733191  	94.922275 
2366.697615  	94.629538 
2367.662039  	94.374372 
2368.626464  	94.006910 
2369.590888  	93.695690 
2370.555313  	93.445243 
2371.519737  	93.226261 
2372.484162  	93.001038 
2373.448586  	92.826051 
2374.413011  	92.595304 
2375.377435  	92.404849 
2376.341860  	92.224585 
2377.306284  	92.088465 
2378.270708  	91.949245 
2379.235133  	91.821371 
2380.199557  	91.815631 
2381.163982  	91.859897 
2382.128406  	91.873339 
2383.092831  	91.921438 
2384.057255  	91.940206 
2385.021680  	92.004331 
2385.986104  	92.089515 
2386.950529  	92.175669 
2387.914953  	92.232716 
2388.879378  	92.219323 
2389.843802  	92.245288 
2390.808226  	92.258231 
2391.772651  	92.243025 
2392.737075  	92.287359 
2393.701500  	92.314256 
2394.665924  	92.285734 
2395.630349  	92.287731 
2396.594773  	92.310895 
2397.559198  	92.291114 
2398.523622  	92.329003 
2399.488047  	92.342303 
2400.452471  	92.309863 
2401.416895  	92.301201 
2402.381320  	92.319460 
2403.345744  	92.316112 
2404.310169  	92.326314 
2405.274593  	92.257757 
2406.239018  	92.229731 
2407.203442  	92.252891 
2408.167867  	92.268944 
2409.132291  	92.247906 
2410.096716  	92.233275 
2411.061140  	92.197106 
2412.025564  	92.216475 
2412.989989  	92.210432 
2413.954413  	92.202292 
2414.918838  	92.228299 
2415.883262  	92.226333 
2416.847687  	92.215142 
2417.812111  	92.207580 
2418.776536  	92.156447 
2419.740960  	92.156132 
2420.705385  	92.182065 
2421.669809  	92.190943 
2422.634233  	92.244737 
2423.598658  	92.234215 
2424.563082  	92.224278 
2425.527507  	92.256831 
2426.491931  	92.190399 
2427.456356  	92.151314 
2428.420780  	92.226113 
2429.385205  	92.262475 
2430.349629  	92.206908 
2431.314054  	92.202681 
2432.278478  	92.272682 
2433.242902  	92.273133 
2434.207327  	92.158928 
2435.171751  	92.120511 
2436.136176  	92.199706 
2437.100600  	92.298462 
2438.065025  	92.263848 
2439.029449  	92.230317 
2439.993874  	92.212872 
2440.958298  	92.197104 
2441.922723  	92.180184 
2442.887147  	92.167910 
2443.851572  	92.203593 
2444.815996  	92.228980 
2445.780420  	92.185155 
2446.744845  	92.112375 
2447.709269  	92.097723 
2448.673694  	92.132867 
2449.638118  	92.131626 
2450.602543  	92.141173 
2451.566967  	92.116048 
2452.531392  	92.123649 
2453.495816  	92.129999 
2454.460241  	92.157824 
2455.424665  	92.142100 
2456.389089  	92.134596 
2457.353514  	92.136691 
2458.317938  	92.144355 
2459.282363  	92.140449 
2460.246787  	92.136242 
2461.211212  	92.070942 
2462.175636  	92.077165 
2463.140061  	92.091685 
2464.104485  	92.097976 
2465.068910  	92.123535 
2466.033334  	92.097830 
2466.997758  	92.096780 
2467.962183  	92.143816 
2468.926607  	92.121475 
2469.891032  	92.102704 
2470.855456  	92.099245 
2471.819881  	92.128827 
2472.784305  	92.168278 
2473.748730  	92.169323 
2474.713154  	92.151066 
2475.677579  	92.106654 
2476.642003  	92.063047 
2477.606427  	92.068042 
2478.570852  	92.117169 
2479.535276  	92.119813 
2480.499701  	92.067019 
2481.464125  	92.098003 
2482.428550  	92.165027 
2483.392974  	92.190773 
2484.357399  	92.180295 
2485.321823  	92.126102 
2486.286248  	92.077226 
2487.250672  	92.058017 
2488.215096  	92.079140 
2489.179521  	92.083790 
2490.143945  	92.029592 
2491.108370  	91.982302 
2492.072794  	92.014228 
2493.037219  	92.071412 
2494.001643  	92.083117 
2494.966068  	92.081693 
2495.930492  	92.083034 
2496.894917  	92.022830 
2497.859341  	91.998424 
2498.823765  	92.069928 
2499.788190  	92.118315 
2500.752614  	92.088326 
2501.717039  	92.010192 
2502.681463  	92.037386 
2503.645888  	92.051018 
2504.610312  	92.013916 
2505.574737  	92.000745 
2506.539161  	92.088231 
2507.503586  	92.141412 
2508.468010  	92.108435 
2509.432435  	92.069675 
2510.396859  	92.063136 
2511.361283  	92.049406 
2512.325708  	92.053577 
2513.290132  	92.050507 
2514.254557  	92.084737 
2515.218981  	92.070997 
2516.183406  	92.008805 
2517.147830  	92.043882 
2518.112255  	92.007842 
2519.076679  	91.978178 
2520.041104  	92.040983 
2521.005528  	92.038310 
2521.969952  	91.941138 
2522.934377  	91.897856 
2523.898801  	92.002798 
2524.863226  	92.062846 
2525.827650  	92.017959 
2526.792075  	92.027443 
2527.756499  	92.035884 
2528.720924  	92.030483 
2529.685348  	92.038223 
2530.649773  	92.047582 
2531.614197  	92.021752 
2532.578621  	91.965231 
2533.543046  	91.977225 
2534.507470  	92.012476 
2535.471895  	92.008438 
2536.436319  	91.941546 
2537.400744  	91.955305 
2538.365168  	91.956958 
2539.329593  	91.964121 
2540.294017  	91.944575 
2541.258442  	91.934201 
2542.222866  	91.985941 
2543.187290  	92.009977 
2544.151715  	92.003197 
2545.116139  	91.952860 
2546.080564  	91.882422 
2547.044988  	91.825829 
2548.009413  	91.813062 
2548.973837  	91.897323 
2549.938262  	91.950372 
2550.902686  	91.917917 
2551.867111  	91.897842 
2552.831535  	91.846657 
2553.795959  	91.813847 
2554.760384  	91.883069 
2555.724808  	91.861413 
2556.689233  	91.799615 
2557.653657  	91.836127 
2558.618082  	91.876598 
2559.582506  	91.933703 
2560.546931  	91.949556 
2561.511355  	91.858382 
2562.475780  	91.829528 
2563.440204  	91.828742 
2564.404629  	91.825525 
2565.369053  	91.843169 
2566.333477  	91.864428 
2567.297902  	91.867641 
2568.262326  	91.879860 
2569.226751  	91.813487 
2570.191175  	91.782263 
2571.155600  	91.788027 
2572.120024  	91.771935 
2573.084449  	91.806358 
2574.048873  	91.739035 
2575.013298  	91.659442 
2575.977722  	91.688336 
2576.942146  	91.722006 
2577.906571  	91.717207 
2578.870995  	91.742911 
2579.835420  	91.730265 
2580.799844  	91.727716 
2581.764269  	91.692533 
2582.728693  	91.699936 
2583.693118  	91.686234 
2584.657542  	91.635004 
2585.621967  	91.671640 
2586.586391  	91.671314 
2587.550815  	91.662134 
2588.515240  	91.657787 
2589.479664  	91.607350 
2590.444089  	91.591111 
2591.408513  	91.641839 
2592.372938  	91.678693 
2593.337362  	91.647167 
2594.301787  	91.588958 
2595.266211  	91.594118 
2596.230636  	91.592403 
2597.195060  	91.604945 
2598.159484  	91.625548 
2599.123909  	91.673644 
2600.088333  	91.665471 
2601.052758  	91.573531 
2602.017182  	91.544123 
2602.981607  	91.574569 
2603.946031  	91.600069 
2604.910456  	91.629848 
2605.874880  	91.615801 
2606.839305  	91.597724 
2607.803729  	91.578883 
2608.768153  	91.568156 
2609.732578  	91.588702 
2610.697002  	91.589321 
2611.661427  	91.581689 
2612.625851  	91.598225 
2613.590276  	91.616353 
2614.554700  	91.609365 
2615.519125  	91.562958 
2616.483549  	91.561567 
2617.447974  	91.537908 
2618.412398  	91.554983 
2619.376822  	91.544231 
2620.341247  	91.547193 
2621.305671  	91.569483 
2622.270096  	91.571894 
2623.234520  	91.579442 
2624.198945  	91.558257 
2625.163369  	91.580718 
2626.127794  	91.601319 
2627.092218  	91.566979 
2628.056643  	91.540265 
2629.021067  	91.523582 
2629.985492  	91.546629 
2630.949916  	91.583895 
2631.914340  	91.559523 
2632.878765  	91.532354 
2633.843189  	91.572463 
2634.807614  	91.556541 
2635.772038  	91.519790 
2636.736463  	91.507629 
2637.700887  	91.527203 
2638.665312  	91.536414 
2639.629736  	91.540326 
2640.594161  	91.551988 
2641.558585  	91.545842 
2642.523009  	91.486320 
2643.487434  	91.468047 
2644.451858  	91.499895 
2645.416283  	91.511274 
2646.380707  	91.488097 
2647.345132  	91.474649 
2648.309556  	91.514461 
2649.273981  	91.502783 
2650.238405  	91.465290 
2651.202830  	91.479237 
2652.167254  	91.460263 
2653.131678  	91.451633 
2654.096103  	91.438253 
2655.060527  	91.430519 
2656.024952  	91.434386 
2656.989376  	91.424563 
2657.953801  	91.419007 
2658.918225  	91.459862 
2659.882650  	91.471638 
2660.847074  	91.453173 
2661.811499  	91.463385 
2662.775923  	91.470297 
2663.740347  	91.488885 
2664.704772  	91.475385 
2665.669196  	91.485926 
2666.633621  	91.517395 
2667.598045  	91.500512 
2668.562470  	91.490417 
2669.526894  	91.473601 
2670.491319  	91.448659 
2671.455743  	91.455490 
2672.420168  	91.458854 
2673.384592  	91.425155 
2674.349016  	91.423992 
2675.313441  	91.438541 
2676.277865  	91.431025 
2677.242290  	91.412707 
2678.206714  	91.415167 
2679.171139  	91.409585 
2680.135563  	91.397546 
2681.099988  	91.401611 
2682.064412  	91.419376 
2683.028837  	91.423958 
2683.993261  	91.388764 
2684.957686  	91.364041 
2685.922110  	91.372385 
2686.886534  	91.362648 
2687.850959  	91.343051 
2688.815383  	91.374242 
2689.779808  	91.380947 
2690.744232  	91.346274 
2691.708657  	91.334946 
2692.673081  	91.344049 
2693.637506  	91.332875 
2694.601930  	91.321576 
2695.566355  	91.343475 
2696.530779  	91.332187 
2697.495203  	91.324399 
2698.459628  	91.332858 
2699.424052  	91.330820 
2700.388477  	91.306253 
2701.352901  	91.269186 
2702.317326  	91.276931 
2703.281750  	91.308457 
2704.246175  	91.299764 
2705.210599  	91.269186 
2706.175024  	91.268601 
2707.139448  	91.284258 
2708.103872  	91.267085 
2709.068297  	91.266520 
2710.032721  	91.246946 
2710.997146  	91.226319 
2711.961570  	91.225318 
2712.925995  	91.235282 
2713.890419  	91.211526 
2714.854844  	91.209823 
2715.819268  	91.220960 
2716.783693  	91.213193 
2717.748117  	91.199123 
2718.712541  	91.197059 
2719.676966  	91.167306 
2720.641390  	91.125433 
2721.605815  	91.121628 
2722.570239  	91.124330 
2723.534664  	91.102497 
2724.499088  	91.077921 
2725.463513  	91.061744 
2726.427937  	91.052440 
2727.392362  	91.025256 
2728.356786  	90.992422 
2729.321210  	90.967015 
2730.285635  	90.960402 
2731.250059  	90.921571 
2732.214484  	90.905320 
2733.178908  	90.885616 
2734.143333  	90.870055 
2735.107757  	90.882084 
2736.072182  	90.890402 
2737.036606  	90.882349 
2738.001031  	90.824406 
2738.965455  	90.772113 
2739.929879  	90.778945 
2740.894304  	90.785649 
2741.858728  	90.780022 
2742.823153  	90.762760 
2743.787577  	90.738900 
2744.752002  	90.705430 
2745.716426  	90.694628 
2746.680851  	90.679710 
2747.645275  	90.668534 
2748.609700  	90.666990 
2749.574124  	90.652248 
2750.538549  	90.641813 
2751.502973  	90.616190 
2752.467397  	90.626559 
2753.431822  	90.619948 
2754.396246  	90.627249 
2755.360671  	90.642171 
2756.325095  	90.625336 
2757.289520  	90.588823 
2758.253944  	90.581212 
2759.218369  	90.581849 
2760.182793  	90.563318 
2761.147218  	90.541599 
2762.111642  	90.541484 
2763.076066  	90.547069 
2764.040491  	90.550150 
2765.004915  	90.526743 
2765.969340  	90.496970 
2766.933764  	90.493338 
2767.898189  	90.479582 
2768.862613  	90.466429 
2769.827038  	90.451057 
2770.791462  	90.438690 
2771.755887  	90.407555 
2772.720311  	90.379230 
2773.684735  	90.375348 
2774.649160  	90.385739 
2775.613584  	90.384237 
2776.578009  	90.362727 
2777.542433  	90.339513 
2778.506858  	90.323354 
2779.471282  	90.314142 
2780.435707  	90.306555 
2781.400131  	90.300241 
2782.364556  	90.290624 
2783.328980  	90.248472 
2784.293404  	90.220231 
2785.257829  	90.214667 
2786.222253  	90.202372 
2787.186678  	90.195686 
2788.151102  	90.173616 
2789.115527  	90.179828 
2790.079951  	90.135991 
2791.044376  	90.082274 
2792.008800  	90.052043 
2792.973225  	89.998572 
2793.937649  	89.975645 
2794.902073  	89.943744 
2795.866498  	89.929842 
2796.830922  	89.901651 
2797.795347  	89.852006 
2798.759771  	89.821511 
2799.724196  	89.775588 
2800.688620  	89.718470 
2801.653045  	89.702346 
2802.617469  	89.666874 
2803.581894  	89.637129 
2804.546318  	89.622227 
2805.510743  	89.593275 
2806.475167  	89.538712 
2807.439591  	89.472324 
2808.404016  	89.424760 
2809.368440  	89.421961 
2810.332865  	89.398843 
2811.297289  	89.320891 
2812.261714  	89.240579 
2813.226138  	89.224028 
2814.190563  	89.146333 
2815.154987  	89.106160 
2816.119412  	89.067383 
2817.083836  	88.975141 
2818.048260  	88.895529 
2819.012685  	88.848665 
2819.977109  	88.799615 
2820.941534  	88.716438 
2821.905958  	88.648176 
2822.870383  	88.590967 
2823.834807  	88.531031 
2824.799232  	88.458285 
2825.763656  	88.400903 
2826.728081  	88.348496 
2827.692505  	88.283791 
2828.656929  	88.233184 
2829.621354  	88.190283 
2830.585778  	88.136165 
2831.550203  	88.046195 
2832.514627  	87.943190 
2833.479052  	87.869992 
2834.443476  	87.779203 
2835.407901  	87.636583 
2836.372325  	87.469683 
2837.336750  	87.286844 
2838.301174  	87.043921 
2839.265598  	86.794614 
2840.230023  	86.540047 
2841.194447  	86.205135 
2842.158872  	85.795808 
2843.123296  	85.337454 
2844.087721  	84.789611 
2845.052145  	84.129381 
2846.016570  	83.383567 
2846.980994  	82.554558 
2847.945419  	81.653486 
2848.909843  	80.751983 
2849.874267  	79.963564 
2850.838692  	79.391068 
2851.803116  	78.930664 
2852.767541  	78.518636 
2853.731965  	78.176227 
2854.696390  	77.859958 
2855.660814  	77.530643 
2856.625239  	77.245963 
2857.589663  	77.028962 
2858.554088  	76.920499 
2859.518512  	76.932112 
2860.482936  	77.002057 
2861.447361  	77.131606 
2862.411785  	77.327726 
2863.376210  	77.602764 
2864.340634  	77.868279 
2865.305059  	78.102232 
2866.269483  	78.350137 
2867.233908  	78.563690 
2868.198332  	78.731319 
2869.162757  	78.892774 
2870.127181  	79.023378 
2871.091606  	79.150298 
2872.056030  	79.298085 
2873.020454  	79.455506 
2873.984879  	79.663137 
2874.949303  	79.879131 
2875.913728  	80.150233 
2876.878152  	80.479402 
2877.842577  	80.793388 
2878.807001  	81.175128 
2879.771426  	81.600034 
2880.735850  	81.951272 
2881.700275  	82.287363 
2882.664699  	82.645870 
2883.629123  	82.935152 
2884.593548  	83.162258 
2885.557972  	83.354502 
2886.522397  	83.475380 
2887.486821  	83.558752 
2888.451246  	83.585350 
2889.415670  	83.567594 
2890.380095  	83.482106 
2891.344519  	83.380857 
2892.308944  	83.292440 
2893.273368  	83.107675 
2894.237792  	82.884649 
2895.202217  	82.641798 
2896.166641  	82.406803 
2897.131066  	82.171281 
2898.095490  	81.886306 
2899.059915  	81.553065 
2900.024339  	81.198999 
2900.988764  	80.842435 
2901.953188  	80.513207 
2902.917613  	80.159200 
2903.882037  	79.770553 
2904.846461  	79.412143 
2905.810886  	79.059901 
2906.775310  	78.722471 
2907.739735  	78.394870 
2908.704159  	78.034184 
2909.668584  	77.684835 
2910.633008  	77.322577 
2911.597433  	76.963982 
2912.561857  	76.574591 
2913.526282  	76.111271 
2914.490706  	75.567985 
2915.455130  	75.005924 
2916.419555  	74.494794 
2917.383979  	74.055711 
2918.348404  	73.669744 
2919.312828  	73.352273 
2920.277253  	73.042470 
2921.241677  	72.733519 
2922.206102  	72.459161 
2923.170526  	72.207585 
2924.134951  	71.972277 
2925.099375  	71.706369 
2926.063800  	71.422948 
2927.028224  	71.140761 
2927.992648  	70.893763 
2928.957073  	70.664647 
2929.921497  	70.443716 
2930.885922  	70.266138 
2931.850346  	70.150350 
2932.814771  	70.119698 
2933.779195  	70.142611 
2934.743620  	70.294360 
2935.708044  	70.551179 
2936.672469  	70.900612 
2937.636893  	71.371339 
2938.601317  	71.895328 
2939.565742  	72.451006 
2940.530166  	73.025601 
2941.494591  	73.600785 
2942.459015  	74.142667 
2943.423440  	74.636356 
2944.387864  	75.143061 
2945.352289  	75.666462 
2946.316713  	76.242867 
2947.281138  	76.901870 
2948.245562  	77.615645 
2949.209986  	78.306226 
2950.174411  	79.024406 
2951.138835  	79.804816 
2952.103260  	80.525074 
2953.067684  	81.154673 
2954.032109  	81.771433 
2954.996533  	82.393754 
2955.960958  	82.936178 
2956.925382  	83.407551 
2957.889807  	83.886150 
2958.854231  	84.306603 
2959.818655  	84.668619 
2960.783080  	85.049581 
2961.747504  	85.382120 
2962.711929  	85.685748 
2963.676353  	85.951259 
2964.640778  	86.193864 
2965.605202  	86.428488 
2966.569627  	86.659925 
2967.534051  	87.002335 
2968.498476  	87.345872 
2969.462900  	87.551475 
2970.427324  	87.761437 
2971.391749  	88.031863 
2972.356173  	88.305451 
2973.320598  	88.551018 
2974.285022  	88.726315 
2975.249447  	88.844740 
2976.213871  	89.019068 
2977.178296  	89.210432 
2978.142720  	89.333552 
2979.107145  	89.483297 
2980.071569  	89.676724 
2981.035993  	89.802033 
2982.000418  	89.923085 
2982.964842  	90.059652 
2983.929267  	90.137400 
2984.893691  	90.226873 
2985.858116  	90.264137 
2986.822540  	90.338689 
2987.786965  	90.409942 
2988.751389  	90.441574 
2989.715814  	90.502814 
2990.680238  	90.584368 
2991.644663  	90.617456 
2992.609087  	90.629626 
2993.573511  	90.659379 
2994.537936  	90.671379 
2995.502360  	90.746011 
2996.466785  	90.781922 
2997.431209  	90.806948 
2998.395634  	90.828163 
2999.360058  	90.803316 
3000.324483  	90.807068 
3001.288907  	90.793115 
3002.253332  	90.760572 
3003.217756  	90.747049 
3004.182180  	90.725175 
3005.146605  	90.695924 
3006.111029  	90.730388 
3007.075454  	90.771145 
3008.039878  	90.785608 
3009.004303  	90.795892 
3009.968727  	90.730082 
3010.933152  	90.658641 
3011.897576  	90.613709 
3012.862001  	90.524482 
3013.826425  	90.616489 
3014.790849  	90.689378 
3015.755274  	90.630966 
3016.719698  	90.613247 
3017.684123  	90.614174 
3018.648547  	90.581214 
3019.612972  	90.542948 
3020.577396  	90.494415 
3021.541821  	90.448021 
3022.506245  	90.405897 
3023.470670  	90.383047 
3024.435094  	90.363180 
3025.399518  	90.267199 
3026.363943  	90.201393 
3027.328367  	90.225161 
3028.292792  	90.223059 
3029.257216  	90.206331 
3030.221641  	90.059267 
3031.186065  	89.879485 
3032.150490  	89.792199 
3033.114914  	89.866625 
3034.079339  	89.848526 
3035.043763  	89.808417 
3036.008187  	89.780597 
3036.972612  	89.693810 
3037.937036  	89.574646 
3038.901461  	89.501608 
3039.865885  	89.471246 
3040.830310  	89.445265 
3041.794734  	89.342481 
3042.759159  	89.216233 
3043.723583  	89.140078 
3044.688008  	89.065330 
3045.652432  	88.976772 
3046.616857  	88.826389 
3047.581281  	88.671242 
3048.545705  	88.498265 
3049.510130  	88.313458 
3050.474554  	88.238722 
3051.438979  	88.208069 
3052.403403  	88.143222 
3053.367828  	88.017203 
3054.332252  	87.888263 
3055.296677  	87.801444 
3056.261101  	87.637408 
3057.225526  	87.544824 
3058.189950  	87.558191 
3059.154374  	87.507734 
3060.118799  	87.472544 
3061.083223  	87.455441 
3062.047648  	87.442961 
3063.012072  	87.393414 
3063.976497  	87.291442 
3064.940921  	87.190252 
3065.905346  	87.272818 
3066.869770  	87.281205 
3067.834195  	87.287052 
3068.798619  	87.287327 
3069.763043  	87.269257 
3070.727468  	87.284910 
3071.691892  	87.311593 
3072.656317  	87.281576 
3073.620741  	87.254349 
3074.585166  	87.281920 
3075.549590  	87.313266 
3076.514015  	87.340098 
3077.478439  	87.347145 
3078.442864  	87.308817 
3079.407288  	87.283177 
3080.371712  	87.295860 
3081.336137  	87.323871 
3082.300561  	87.292599 
3083.264986  	87.369151 
3084.229410  	87.493743 
3085.193835  	87.521820 
3086.158259  	87.526109 
3087.122684  	87.539696 
3088.087108  	87.532111 
3089.051533  	87.614328 
3090.015957  	87.660119 
3090.980381  	87.725915 
3091.944806  	87.780800 
3092.909230  	87.817349 
3093.873655  	87.810637 
3094.838079  	87.849209 
3095.802504  	87.916059 
3096.766928  	88.017707 
3097.731353  	88.103333 
3098.695777  	88.180554 
3099.660202  	88.219640 
3100.624626  	88.236627 
3101.589050  	88.258137 
3102.553475  	88.346389 
3103.517899  	88.399544 
3104.482324  	88.485173 
3105.446748  	88.561781 
3106.411173  	88.644221 
3107.375597  	88.712937 
3108.340022  	88.809267 
3109.304446  	88.876519 
3110.268871  	88.895673 
3111.233295  	88.922381 
3112.197720  	88.932133 
3113.162144  	88.933527 
3114.126568  	89.006674 
3115.090993  	89.039245 
3116.055417  	89.035873 
3117.019842  	89.118701 
3117.984266  	89.140494 
3118.948691  	89.110671 
3119.913115  	89.264145 
3120.877540  	89.366981 
3121.841964  	89.300413 
3122.806389  	89.206800 
3123.770813  	89.272787 
3124.735237  	89.332175 
3125.699662  	89.322352 
3126.664086  	89.305289 
3127.628511  	89.397072 
3128.592935  	89.472665 
3129.557360  	89.453506 
3130.521784  	89.425333 
3131.486209  	89.415916 
3132.450633  	89.339755 
3133.415058  	89.288860 
3134.379482  	89.407720 
3135.343906  	89.463356 
3136.308331  	89.401055 
3137.272755  	89.349602 
3138.237180  	89.378891 
3139.201604  	89.403050 
3140.166029  	89.372209 
3141.130453  	89.372564 
3142.094878  	89.295593 
3143.059302  	89.213228 
3144.023727  	89.234632 
3144.988151  	89.249468 
3145.952575  	89.200225 
3146.917000  	89.187430 
3147.881424  	89.207635 
3148.845849  	89.226494 
3149.810273  	89.181569 
3150.774698  	89.173416 
3151.739122  	89.133530 
3152.703547  	89.083812 
3153.667971  	89.031952 
3154.632396  	89.008116 
3155.596820  	88.948963 
3156.561244  	88.873644 
3157.525669  	88.854573 
3158.490093  	88.807905 
3159.454518  	88.735892 
3160.418942  	88.686440 
3161.383367  	88.632992 
3162.347791  	88.555811 
3163.312216  	88.446525 
3164.276640  	88.368331 
3165.241065  	88.409054 
3166.205489  	88.392238 
3167.169914  	88.269401 
3168.134338  	88.159304 
3169.098762  	88.076626 
3170.063187  	88.002267 
3171.027611  	87.938206 
3171.992036  	87.890537 
3172.956460  	87.844315 
3173.920885  	87.758288 
3174.885309  	87.683040 
3175.849734  	87.608481 
3176.814158  	87.518540 
3177.778583  	87.369331 
3178.743007  	87.273339 
3179.707431  	87.245335 
3180.671856  	87.254224 
3181.636280  	87.219637 
3182.600705  	87.116128 
3183.565129  	87.061138 
3184.529554  	86.980603 
3185.493978  	86.859061 
3186.458403  	86.818794 
3187.422827  	86.777709 
3188.387252  	86.733067 
3189.351676  	86.775880 
3190.316100  	86.728968 
3191.280525  	86.668146 
3192.244949  	86.573508 
3193.209374  	86.526565 
3194.173798  	86.440734 
3195.138223  	86.382247 
3196.102647  	86.286144 
3197.067072  	86.185594 
3198.031496  	86.082559 
3198.995921  	86.140539 
3199.960345  	86.119532 
3200.924769  	86.112999 
3201.889194  	86.145638 
3202.853618  	86.104466 
3203.818043  	85.986985 
3204.782467  	85.902725 
3205.746892  	85.860358 
3206.711316  	85.818508 
3207.675741  	85.760495 
3208.640165  	85.724384 
3209.604590  	85.654590 
3210.569014  	85.633312 
3211.533438  	85.633663 
3212.497863  	85.584073 
3213.462287  	85.478783 
3214.426712  	85.378688 
3215.391136  	85.330651 
3216.355561  	85.262881 
3217.319985  	85.218461 
3218.284410  	85.207101 
3219.248834  	85.123630 
3220.213259  	85.012640 
3221.177683  	84.992804 
3222.142107  	84.934307 
3223.106532  	84.797825 
3224.070956  	84.702711 
3225.035381  	84.614598 
3225.999805  	84.511021 
3226.964230  	84.328622 
3227.928654  	84.140133 
3228.893079  	84.084451 
3229.857503  	84.027235 
3230.821928  	83.927766 
3231.786352  	83.828774 
3232.750777  	83.690407 
3233.715201  	83.563079 
3234.679625  	83.435812 
3235.644050  	83.259827 
3236.608474  	83.062881 
3237.572899  	82.887699 
3238.537323  	82.734530 
3239.501748  	82.548355 
3240.466172  	82.395364 
3241.430597  	82.275940 
3242.395021  	82.068089 
3243.359446  	81.839284 
3244.323870  	81.611772 
3245.288294  	81.343746 
3246.252719  	81.232085 
3247.217143  	81.110822 
3248.181568  	80.873069 
3249.145992  	80.608094 
3250.110417  	80.426835 
3251.074841  	80.264284 
3252.039266  	80.047233 
3253.003690  	79.789295 
3253.968115  	79.413132 
3254.932539  	79.149449 
3255.896963  	78.974755 
3256.861388  	78.680470 
3257.825812  	78.415031 
3258.790237  	78.171579 
3259.754661  	77.852514 
3260.719086  	77.565572 
3261.683510  	77.355672 
3262.647935  	77.125569 
3263.612359  	76.841292 
3264.576784  	76.562899 
3265.541208  	76.250791 
3266.505632  	75.969338 
3267.470057  	75.742524 
3268.434481  	75.480886 
3269.398906  	75.142816 
3270.363330  	74.865262 
3271.327755  	74.579172 
3272.292179  	74.237623 
3273.256604  	73.857297 
3274.221028  	73.558335 
3275.185453  	73.311794 
3276.149877  	72.925569 
3277.114301  	72.468119 
3278.078726  	72.143842 
3279.043150  	71.793198 
3280.007575  	71.372664 
3280.971999  	70.979788 
3281.936424  	70.624329 
3282.900848  	70.192082 
3283.865273  	69.769261 
3284.829697  	69.396339 
3285.794122  	69.005971 
3286.758546  	68.615231 
3287.722971  	68.236052 
3288.687395  	67.876005 
3289.651819  	67.617740 
3290.616244  	67.334423 
3291.580668  	67.039997 
3292.545093  	66.778833 
3293.509517  	66.609546 
3294.473942  	66.471457 
3295.438366  	66.361887 
3296.402791  	66.338722 
3297.367215  	66.355648 
3298.331640  	66.420901 
3299.296064  	66.618904 
3300.260488  	66.842477 
3301.224913  	67.107711 
3302.189337  	67.437349 
3303.153762  	67.777534 
3304.118186  	68.163772 
3305.082611  	68.649285 
3306.047035  	69.165397 
3307.011460  	69.746473 
3307.975884  	70.281756 
3308.940309  	70.866789 
3309.904733  	71.556701 
3310.869157  	72.210828 
3311.833582  	72.868157 
3312.798006  	73.515580 
3313.762431  	74.127851 
3314.726855  	74.860614 
3315.691280  	75.572245 
3316.655704  	76.202850 
3317.620129  	76.791982 
3318.584553  	77.359757 
3319.548978  	77.890950 
3320.513402  	78.476774 
3321.477826  	79.016099 
3322.442251  	79.457274 
3323.406675  	79.935455 
3324.371100  	80.365407 
3325.335524  	80.743299 
3326.299949  	81.186166 
3327.264373  	81.526857 
3328.228798  	81.878138 
3329.193222  	82.200495 
3330.157647  	82.460468 
3331.122071  	82.773357 
3332.086495  	83.143026 
3333.050920  	83.402448 
3334.015344  	83.622713 
3334.979769  	83.824202 
3335.944193  	84.112854 
3336.908618  	84.305993 
3337.873042  	84.520604 
3338.837467  	84.811149 
3339.801891  	85.019433 
3340.766316  	85.270527 
3341.730740  	85.443083 
3342.695164  	85.542361 
3343.659589  	85.773009 
3344.624013  	86.000809 
3345.588438  	86.137248 
3346.552862  	86.233139 
3347.517287  	86.352771 
3348.481711  	86.476854 
3349.446136  	86.597930 
3350.410560  	86.716641 
3351.374985  	86.855776 
3352.339409  	87.000976 
3353.303834  	87.147878 
3354.268258  	87.277562 
3355.232682  	87.281828 
3356.197107  	87.247820 
3357.161531  	87.370970 
3358.125956  	87.501068 
3359.090380  	87.613638 
3360.054805  	87.601586 
3361.019229  	87.621111 
3361.983654  	87.619238 
3362.948078  	87.780500 
3363.912503  	88.017503 
3364.876927  	88.045505 
3365.841351  	88.035254 
3366.805776  	88.111616 
3367.770200  	88.102748 
3368.734625  	88.155079 
3369.699049  	88.321876 
3370.663474  	88.470613 
3371.627898  	88.547411 
3372.592323  	88.557096 
3373.556747  	88.576477 
3374.521172  	88.652232 
3375.485596  	88.645559 
3376.450020  	88.594447 
3377.414445  	88.630715 
3378.378869  	88.771401 
3379.343294  	88.867307 
3380.307718  	88.913812 
3381.272143  	89.014663 
3382.236567  	88.968401 
3383.200992  	88.861150 
3384.165416  	88.821874 
3385.129841  	88.819294 
3386.094265  	88.932947 
3387.058689  	89.035473 
3388.023114  	89.131673 
3388.987538  	89.200602 
3389.951963  	89.175192 
3390.916387  	89.092937 
3391.880812  	88.968033 
3392.845236  	88.768878 
3393.809661  	88.920256 
3394.774085  	89.218808 
3395.738510  	89.256773 
3396.702934  	89.201571 
3397.667358  	89.081431 
3398.631783  	89.235645 
3399.596207  	89.388697 
3400.560632  	89.343952 
3401.525056  	89.313757 
3402.489481  	89.376515 
3403.453905  	89.378400 
3404.418330  	89.417813 
3405.382754  	89.484718 
3406.347179  	89.449909 
3407.311603  	89.444633 
3408.276028  	89.483766 
3409.240452  	89.442565 
3410.204876  	89.382272 
3411.169301  	89.468449 
3412.133725  	89.552473 
3413.098150  	89.605572 
3414.062574  	89.594925 
3415.026999  	89.564894 
3415.991423  	89.495611 
3416.955848  	89.545401 
3417.920272  	89.564489 
3418.884697  	89.547638 
3419.849121  	89.290217 
3420.813545  	89.009407 
3421.777970  	89.121501 
3422.742394  	89.309680 
3423.706819  	89.468991 
3424.671243  	89.613038 
3425.635668  	89.650738 
3426.600092  	89.682301 
3427.564517  	89.668135 
3428.528941  	89.638332 
3429.493366  	89.696169 
3430.457790  	89.696335 
3431.422214  	89.666851 
3432.386639  	89.697115 
3433.351063  	89.733204 
3434.315488  	89.767108 
3435.279912  	89.730541 
3436.244337  	89.725524 
3437.208761  	89.732849 
3438.173186  	89.745190 
3439.137610  	89.762774 
3440.102035  	89.837793 
3441.066459  	89.824197 
3442.030883  	89.691994 
3442.995308  	89.467578 
3443.959732  	89.661223 
3444.924157  	89.793888 
3445.888581  	89.756186 
3446.853006  	89.290950 
3447.817430  	88.983979 
3448.781855  	89.531557 
3449.746279  	89.842134 
3450.710704  	89.887300 
3451.675128  	89.935611 
3452.639552  	90.003090 
3453.603977  	90.037469 
3454.568401  	90.052613 
3455.532826  	89.991592 
3456.497250  	89.940018 
3457.461675  	89.922601 
3458.426099  	89.908101 
3459.390524  	89.953689 
3460.354948  	89.935672 
3461.319373  	89.756867 
3462.283797  	89.689989 
3463.248221  	89.708296 
3464.212646  	89.934886 
3465.177070  	90.021127 
3466.141495  	89.937157 
3467.105919  	89.788159 
3468.070344  	89.922329 
3469.034768  	90.093980 
3469.999193  	90.014111 
3470.963617  	89.941251 
3471.928042  	90.020639 
3472.892466  	90.093035 
3473.856891  	90.135190 
3474.821315  	89.998541 
3475.785739  	89.976493 
3476.750164  	90.095616 
3477.714588  	90.158433 
3478.679013  	90.193101 
3479.643437  	90.085202 
3480.607862  	89.754751 
3481.572286  	89.588547 
3482.536711  	89.529385 
3483.501135  	89.820598 
3484.465560  	90.071208 
3485.429984  	90.017967 
3486.394408  	90.062947 
3487.358833  	90.041590 
3488.323257  	89.701904 
3489.287682  	89.811109 
3490.252106  	90.183195 
3491.216531  	90.215858 
3492.180955  	90.265624 
3493.145380  	90.317721 
3494.109804  	90.336452 
3495.074229  	90.199534 
3496.038653  	89.958467 
3497.003077  	89.805739 
3497.967502  	90.035522 
3498.931926  	90.225637 
3499.896351  	90.174059 
3500.860775  	90.066293 
3501.825200  	89.682962 
3502.789624  	89.144784 
3503.754049  	89.131197 
3504.718473  	89.603545 
3505.682898  	90.007630 
3506.647322  	90.280510 
3507.611746  	90.419192 
3508.576171  	90.164805 
3509.540595  	89.501490 
3510.505020  	89.709210 
3511.469444  	90.263577 
3512.433869  	90.336967 
3513.398293  	90.416197 
3514.362718  	90.626756 
3515.327142  	90.777025 
3516.291567  	90.728978 
3517.255991  	90.548161 
3518.220415  	90.467141 
3519.184840  	90.539469 
3520.149264  	90.641309 
3521.113689  	90.741190 
3522.078113  	90.491165 
3523.042538  	89.651538 
3524.006962  	89.289827 
3524.971387  	89.760512 
3525.935811  	90.007140 
3526.900236  	89.979132 
3527.864660  	89.799910 
3528.829085  	89.887807 
3529.793509  	90.143919 
3530.757933  	90.497061 
3531.722358  	90.580521 
3532.686782  	90.928543 
3533.651207  	91.141857 
3534.615631  	91.141359 
3535.580056  	90.821697 
3536.544480  	90.127697 
3537.508905  	90.362597 
3538.473329  	91.069804 
3539.437754  	91.131265 
3540.402178  	91.146776 
3541.366602  	91.179366 
3542.331027  	91.170251 
3543.295451  	90.788963 
3544.259876  	90.399111 
3545.224300  	89.492832 
3546.188725  	89.292692 
3547.153149  	89.431405 
3548.117574  	89.968754 
3549.081998  	90.940295 
3550.046423  	91.250163 
3551.010847  	91.166847 
3551.975271  	90.563536 
3552.939696  	90.205379 
3553.904120  	90.616635 
3554.868545  	91.053876 
3555.832969  	91.470764 
3556.797394  	91.443047 
3557.761818  	91.429832 
3558.726243  	91.532628 
3559.690667  	91.146399 
3560.655092  	90.634508 
3561.619516  	91.077948 
3562.583940  	91.158789 
3563.548365  	91.069286 
3564.512789  	90.940322 
3565.477214  	90.018974 
3566.441638  	87.613174 
3567.406063  	87.546019 
3568.370487  	88.123737 
3569.334912  	89.760539 
3570.299336  	91.033661 
3571.263761  	91.249407 
3572.228185  	91.601355 
3573.192609  	91.656311 
3574.157034  	91.533125 
3575.121458  	91.473489 
3576.085883  	91.625409 
3577.050307  	91.509270 
3578.014732  	91.558209 
3578.979156  	91.737495 
3579.943581  	91.326380 
3580.908005  	91.291249 
3581.872430  	91.705889 
3582.836854  	91.730523 
3583.801278  	91.588893 
3584.765703  	91.641808 
3585.730127  	91.295699 
3586.694552  	89.557761 
3587.658976  	88.455383 
3588.623401  	88.971476 
3589.587825  	90.108776 
3590.552250  	91.486853 
3591.516674  	91.889343 
3592.481099  	91.836140 
3593.445523  	91.093505 
3594.409948  	91.141318 
3595.374372  	90.760584 
3596.338796  	90.545929 
3597.303221  	91.491718 
3598.267645  	91.584039 
3599.232070  	91.204879 
3600.196494  	91.329801 
3601.160919  	91.023105 
3602.125343  	91.397724 
3603.089768  	91.747883 
3604.054192  	92.073256 
3605.018617  	92.250744 
3605.983041  	92.069283 
3606.947465  	90.910512 
3607.911890  	90.327369 
3608.876314  	90.738895 
3609.840739  	90.344501 
3610.805163  	91.307711 
3611.769588  	91.454851 
3612.734012  	90.116468 
3613.698437  	90.144132 
3614.662861  	90.437947 
3615.627286  	90.575305 
3616.591710  	91.686410 
3617.556134  	91.091202 
3618.520559  	90.077814 
3619.484983  	90.035242 
3620.449408  	90.102833 
3621.413832  	90.960452 
3622.378257  	91.786615 
3623.342681  	92.235789 
3624.307106  	92.397232 
3625.271530  	92.391493 
3626.235955  	91.831629 
3627.200379  	91.571075 
3628.164803  	90.684376 
3629.129228  	87.792328 
3630.093652  	88.299139 
3631.058077  	90.846820 
3632.022501  	91.909691 
3632.986926  	92.020373 
3633.951350  	91.253547 
3634.915775  	91.557026 
3635.880199  	92.408910 
3636.844624  	92.582617 
3637.809048  	92.339614 
3638.773472  	92.234531 
3639.737897  	92.511964 
3640.702321  	92.574087 
3641.666746  	92.237822 
3642.631170  	91.740427 
3643.595595  	92.004369 
3644.560019  	92.435262 
3645.524444  	92.152180 
3646.488868  	91.051570 
3647.453293  	89.047918 
3648.417717  	89.118984 
3649.382142  	88.977166 
3650.346566  	88.116946 
3651.310990  	88.385245 
3652.275415  	90.586375 
3653.239839  	92.049748 
3654.204264  	92.461600 
3655.168688  	92.305222 
3656.133113  	91.332647 
3657.097537  	90.946402 
3658.061962  	92.190065 
3659.026386  	92.536507 
3659.990811  	92.367940 
3660.955235  	92.503405 
3661.919659  	92.827550 
3662.884084  	92.847292 
3663.848508  	92.788236 
3664.812933  	92.757006 
3665.777357  	92.789727 
3666.741782  	92.767591 
3667.706206  	92.716642 
3668.670631  	91.715251 
3669.635055  	90.375639 
3670.599480  	89.779337 
3671.563904  	90.302545 
3672.528328  	91.973985 
3673.492753  	92.286958 
3674.457177  	91.037468 
3675.421602  	87.958650 
3676.386026  	88.261245 
3677.350451  	90.388533 
3678.314875  	91.367527 
3679.279300  	91.440779 
3680.243724  	91.500894 
3681.208149  	92.433919 
3682.172573  	92.869988 
3683.136997  	92.890077 
3684.101422  	92.746561 
3685.065846  	92.626556 
3686.030271  	92.711820 
3686.994695  	92.535027 
3687.959120  	91.769848 
3688.923544  	90.483590 
3689.887969  	91.047019 
3690.852393  	90.687406 
3691.816818  	90.429547 
3692.781242  	92.037755 
3693.745666  	92.542004 
3694.710091  	92.611458 
3695.674515  	92.724544 
3696.638940  	92.659416 
3697.603364  	92.823268 
3698.567789  	93.117760 
3699.532213  	92.949215 
3700.496638  	92.864755 
3701.461062  	92.091584 
3702.425487  	91.372172 
3703.389911  	92.414999 
3704.354335  	92.931580 
3705.318760  	92.752383 
3706.283184  	92.716359 
3707.247609  	92.840489 
3708.212033  	92.871815 
3709.176458  	92.264516 
3710.140882  	91.401457 
3711.105307  	91.084708 
3712.069731  	90.085641 
3713.034156  	90.038968 
3713.998580  	91.598654 
3714.963005  	91.813636 
3715.927429  	92.101127 
3716.891853  	92.741361 
3717.856278  	92.895520 
3718.820702  	92.227093 
3719.785127  	91.857615 
3720.749551  	92.540158 
3721.713976  	92.163712 
3722.678400  	90.661984 
3723.642825  	91.278334 
3724.607249  	91.765835 
3725.571674  	90.972272 
3726.536098  	90.695160 
3727.500522  	90.994720 
3728.464947  	92.143712 
3729.429371  	92.792342 
3730.393796  	92.620363 
3731.358220  	92.281689 
3732.322645  	91.474336 
3733.287069  	91.415548 
3734.251494  	90.897117 
3735.215918  	87.526199 
3736.180343  	87.631996 
3737.144767  	89.525515 
3738.109191  	90.656025 
3739.073616  	91.125801 
3740.038040  	91.775930 
3741.002465  	91.503628 
3741.966889  	91.564969 
3742.931314  	92.138673 
3743.895738  	91.308450 
3744.860163  	87.642186 
3745.824587  	89.632844 
3746.789012  	91.084808 
3747.753436  	91.154596 
3748.717860  	91.052444 
3749.682285  	90.476680 
3750.646709  	90.189564 
3751.611134  	89.982371 
3752.575558  	88.658584 
3753.539983  	90.254238 
3754.504407  	91.577648 
3755.468832  	92.258567 
3756.433256  	91.996534 
3757.397681  	91.861261 
3758.362105  	92.120332 
3759.326529  	91.179491 
3760.290954  	90.594012 
3761.255378  	92.178495 
3762.219803  	92.709003 
3763.184227  	92.745247 
3764.148652  	92.749765 
3765.113076  	92.326173 
3766.077501  	91.364044 
3767.041925  	92.093111 
3768.006350  	92.768217 
3768.970774  	92.507588 
3769.935199  	91.478542 
3770.899623  	91.487970 
3771.864047  	92.356532 
3772.828472  	92.721708 
3773.792896  	92.841248 
3774.757321  	92.944744 
3775.721745  	93.096014 
3776.686170  	93.198460 
3777.650594  	93.054057 
3778.615019  	92.589061 
3779.579443  	91.704290 
3780.543868  	91.783975 
3781.508292  	92.707422 
3782.472716  	92.844464 
3783.437141  	92.847066 
3784.401565  	92.462617 
3785.365990  	91.994656 
3786.330414  	92.350607 
3787.294839  	92.693756 
3788.259263  	92.886735 
3789.223688  	92.936037 
3790.188112  	92.913023 
3791.152537  	93.032835 
3792.116961  	93.090944 
3793.081385  	93.118858 
3794.045810  	93.105249 
3795.010234  	92.978973 
3795.974659  	92.472602 
3796.939083  	91.479022 
3797.903508  	91.668860 
3798.867932  	92.324776 
3799.832357  	92.444728 
3800.796781  	91.530109 
3801.761206  	89.977950 
3802.725630  	90.317134 
3803.690054  	91.467523 
3804.654479  	92.454516 
3805.618903  	92.624324 
3806.583328  	91.953011 
3807.547752  	91.038880 
3808.512177  	92.130614 
3809.476601  	92.707401 
3810.441026  	92.763172 
3811.405450  	92.905050 
3812.369875  	93.066377 
3813.334299  	93.074957 
3814.298723  	92.894908 
3815.263148  	92.278318 
3816.227572  	90.775987 
3817.191997  	91.170623 
3818.156421  	92.245800 
3819.120846  	92.209540 
3820.085270  	91.434955 
3821.049695  	89.740729 
3822.014119  	89.538494 
3822.978544  	91.326770 
3823.942968  	92.060012 
3824.907392  	92.302499 
3825.871817  	92.285942 
3826.836241  	91.730471 
3827.800666  	91.809768 
3828.765090  	92.515951 
3829.729515  	92.791269 
3830.693939  	92.668110 
3831.658364  	91.921080 
3832.622788  	91.824812 
3833.587213  	92.515916 
3834.551637  	92.226695 
3835.516062  	91.496218 
3836.480486  	92.010651 
3837.444910  	91.691998 
3838.409335  	90.156140 
3839.373759  	90.645595 
3840.338184  	90.291379 
3841.302608  	90.332688 
3842.267033  	91.819894 
3843.231457  	92.006247 
3844.195882  	91.076980 
3845.160306  	91.930685 
3846.124731  	92.661412 
3847.089155  	92.764139 
3848.053579  	92.820930 
3849.018004  	92.645029 
3849.982428  	92.030048 
3850.946853  	92.017569 
3851.911277  	91.265000 
3852.875702  	89.548824 
3853.840126  	88.912928 
3854.804551  	89.010923 
3855.768975  	91.079645 
3856.733400  	91.404169 
3857.697824  	90.907203 
3858.662248  	91.957285 
3859.626673  	92.711362 
3860.591097  	92.758891 
3861.555522  	92.128554 
3862.519946  	91.421375 
3863.484371  	91.799719 
3864.448795  	91.120376 
3865.413220  	89.889783 
3866.377644  	91.314360 
3867.342069  	92.467416 
3868.306493  	92.415171 
3869.270917  	91.090099 
3870.235342  	88.971481 
3871.199766  	90.271724 
3872.164191  	91.676819 
3873.128615  	92.088776 
3874.093040  	90.749103 
3875.057464  	90.660942 
3876.021889  	92.410058 
3876.986313  	92.899274 
3877.950738  	92.948564 
3878.915162  	92.805200 
3879.879586  	91.758801 
3880.844011  	89.679405 
3881.808435  	90.968708 
3882.772860  	92.151659 
3883.737284  	91.817662 
3884.701709  	91.727543 
3885.666133  	90.913316 
3886.630558  	90.394775 
3887.594982  	92.152396 
3888.559407  	92.826264 
3889.523831  	92.801350 
3890.488256  	92.371122 
3891.452680  	91.064929 
3892.417104  	90.873539 
3893.381529  	91.985630 
3894.345953  	91.979788 
3895.310378  	92.308312 
3896.274802  	92.824845 
3897.239227  	92.815031 
3898.203651  	92.104281 
3899.168076  	90.926832 
3900.132500  	90.712985 
3901.096925  	91.688604 
3902.061349  	90.355057 
3903.025773  	90.132436 
3903.990198  	90.738790 
3904.954622  	90.198033 
3905.919047  	90.537248 
3906.883471  	91.461294 
3907.847896  	92.601441 
3908.812320  	92.960992 
3909.776745  	93.015866 
3910.741169  	93.032456 
3911.705594  	93.002953 
3912.670018  	92.942722 
3913.634442  	92.950211 
3914.598867  	92.988069 
3915.563291  	92.812783 
3916.527716  	91.832933 
3917.492140  	90.901229 
3918.456565  	91.899147 
3919.420989  	92.348138 
3920.385414  	91.554883 
3921.349838  	92.075770 
3922.314263  	92.897905 
3923.278687  	92.569472 
3924.243111  	91.618183 
3925.207536  	91.057930 
3926.171960  	91.868787 
3927.136385  	92.800132 
3928.100809  	92.889214 
3929.065234  	92.635703 
3930.029658  	92.221634 
3930.994083  	91.948437 
3931.958507  	91.485216 
3932.922932  	91.012631 
3933.887356  	91.937534 
3934.851780  	92.501481 
3935.816205  	92.827710 
3936.780629  	92.984406 
3937.745054  	92.908931 
3938.709478  	92.690208 
3939.673903  	92.833624 
3940.638327  	92.913440 
3941.602752  	92.751981 
3942.567176  	91.810726 
3943.531601  	91.245351 
3944.496025  	92.163896 
3945.460449  	92.693953 
3946.424874  	92.823091 
3947.389298  	92.170698 
3948.353723  	91.678141 
3949.318147  	91.991947 
3950.282572  	91.691422 
3951.246996  	92.121885 
3952.211421  	92.801768 
3953.175845  	92.719429 
3954.140270  	92.790900 
3955.104694  	92.926481 
3956.069119  	92.897859 
3957.033543  	92.714056 
3957.997967  	92.666950 
3958.962392  	92.744800 
3959.926816  	92.753167 
3960.891241  	92.725374 
3961.855665  	92.262308 
3962.820090  	92.236546 
3963.784514  	92.830576 
3964.748939  	92.890063 
3965.713363  	92.912849 
3966.677788  	92.997206 
3967.642212  	93.011653 
3968.606636  	92.840035 
3969.571061  	92.606796 
3970.535485  	92.754194 
3971.499910  	92.852560 
3972.464334  	92.640723 
3973.428759  	92.723605 
3974.393183  	92.795448 
3975.357608  	92.641966 
3976.322032  	92.493034 
3977.286457  	92.658941 
3978.250881  	92.948524 
3979.215305  	92.955315 
3980.179730  	92.881416 
3981.144154  	92.858614 
3982.108579  	92.796244 
3983.073003  	92.806529 
3984.037428  	92.937013 
3985.001852  	92.926246 
3985.966277  	92.879731 
3986.930701  	92.917122 
3987.895126  	93.030246 
3988.859550  	93.014409 
3989.823974  	92.814611 
3990.788399  	92.553981 
3991.752823  	92.671492 
3992.717248  	92.861079 
3993.681672  	92.865157 
3994.646097  	92.796798 
3995.610521  	92.707241 
3996.574946  	92.871721 
3997.539370  	92.986490 
3998.503795  	92.996609 
3999.468219  	92.955654 
4000.432643  	92.985199 
4001.397068  	92.988219 
4002.361492  	92.962849 
4003.325917  	92.906950 
4004.290341  	92.942316 
4005.254766  	92.962889 
4006.219190  	92.917157 
4007.183615  	92.874735 
4008.148039  	92.764913 
4009.112464  	92.661722 
4010.076888  	92.836626 
4011.041313  	92.931627 
4012.005737  	92.968667 
4012.970161  	92.919748 
4013.934586  	92.858349 
4014.899010  	92.855516 
4015.863435  	92.874960 
4016.827859  	92.909943 
4017.792284  	92.945669 
4018.756708  	92.959932 
4019.721133  	92.868395 
4020.685557  	92.852076 
4021.649982  	92.920560 
4022.614406  	92.976976 
4023.578830  	92.960086 
4024.543255  	92.909949 
4025.507679  	92.814342 
4026.472104  	92.833450 
4027.436528  	92.955193 
4028.400953  	92.978467 
4029.365377  	92.943358 
4030.329802  	92.952309 
4031.294226  	92.981075 
4032.258651  	92.958194 
4033.223075  	92.995506 
4034.187499  	93.023908 
4035.151924  	92.986047 
4036.116348  	92.960837 
4037.080773  	92.966745 
4038.045197  	92.983171 
4039.009622  	93.008644 
4039.974046  	93.004865 
4040.938471  	92.984626 
4041.902895  	92.982818 
4042.867320  	93.004016 
4043.831744  	92.892998 
4044.796168  	92.770687 
4045.760593  	92.754356 
4046.725017  	92.912479 
4047.689442  	92.989025 
4048.653866  	92.988303 
4049.618291  	93.000900 
4050.582715  	93.002834 
4051.547140  	92.994186 
4052.511564  	93.018454 
4053.475989  	93.008791 
4054.440413  	92.965800 
4055.404837  	92.931091 
4056.369262  	92.975266 
4057.333686  	93.029275 
4058.298111  	93.006100 
4059.262535  	93.002730 
4060.226960  	92.973232 
4061.191384  	92.925302 
4062.155809  	92.987364 
4063.120233  	93.025517 
4064.084658  	92.982100 
4065.049082  	92.963746 
4066.013506  	93.019009 
4066.977931  	93.013834 
4067.942355  	92.970500 
4068.906780  	92.979431 
4069.871204  	92.959386 
4070.835629  	92.978595 
4071.800053  	93.010943 
4072.764478  	92.981755 
4073.728902  	92.937315 
4074.693327  	92.949367 
4075.657751  	93.012662 
4076.622176  	93.001426 
4077.586600  	93.009347 
4078.551024  	93.014039 
4079.515449  	92.968663 
4080.479873  	92.989275 
4081.444298  	93.010679 
4082.408722  	92.972175 
4083.373147  	92.967815 
4084.337571  	92.976116 
4085.301996  	92.994090 
4086.266420  	92.993078 
4087.230845  	93.007946 
4088.195269  	92.984782 
4089.159693  	92.977555 
4090.124118  	93.013026 
4091.088542  	93.028406 
4092.052967  	93.049346 
4093.017391  	93.032635 
4093.981816  	92.992528 
4094.946240  	92.991895 
4095.910665  	93.021257 
4096.875089  	93.074854 
4097.839514  	93.028374 
4098.803938  	92.921484 
4099.768362  	92.940677 
4100.732787  	92.987123 
4101.697211  	92.967050 
4102.661636  	92.984952 
4103.626060  	93.034108 
4104.590485  	93.006620 
4105.554909  	92.924415 
4106.519334  	92.889893 
4107.483758  	92.913159 
4108.448183  	92.954155 
4109.412607  	92.965113 
4110.377031  	92.951073 
4111.341456  	93.007620 
4112.305880  	93.053596 
4113.270305  	93.037957 
4114.234729  	93.023722 
4115.199154  	93.064160 
4116.163578  	93.020441 
4117.128003  	92.933410 
4118.092427  	92.895514 
4119.056852  	92.886913 
4120.021276  	92.911181 
4120.985700  	92.948420 
4121.950125  	92.975623 
4122.914549  	92.972969 
4123.878974  	92.977030 
4124.843398  	92.964560 
4125.807823  	92.959118 
4126.772247  	92.942521 
4127.736672  	92.962662 
4128.701096  	92.957619 
4129.665521  	92.956638 
4130.629945  	92.956399 
4131.594370  	92.951780 
4132.558794  	92.974881 
4133.523218  	92.974914 
4134.487643  	92.998506 
4135.452067  	92.986537 
4136.416492  	92.986306 
4137.380916  	93.009867 
4138.345341  	92.976006 
4139.309765  	92.907954 
4140.274190  	92.909949 
4141.238614  	92.910297 
4142.203039  	92.937576 
4143.167463  	93.053810 
4144.131887  	93.076022 
4145.096312  	93.014599 
4146.060736  	92.981355 
4147.025161  	92.956338 
4147.989585  	92.923135 
4148.954010  	92.902367 
4149.918434  	92.913794 
4150.882859  	92.953357 
4151.847283  	92.952672 
4152.811708  	92.913700 
4153.776132  	92.935903 
4154.740556  	93.012606 
4155.704981  	92.998737 
4156.669405  	92.908547 
4157.633830  	92.911545 
4158.598254  	92.925003 
4159.562679  	92.869868 
4160.527103  	92.833159 
4161.491528  	92.886826 
4162.455952  	92.959001 
4163.420377  	92.990804 
4164.384801  	92.933180 
4165.349225  	92.916596 
4166.313650  	92.920572 
4167.278074  	92.873594 
4168.242499  	92.898640 
4169.206923  	92.977875 
4170.171348  	92.993622 
4171.135772  	92.977904 
4172.100197  	92.922671 
4173.064621  	92.928476 
4174.029046  	92.977491 
4174.993470  	92.953890 
4175.957894  	92.954458 
4176.922319  	92.993602 
4177.886743  	92.951877 
4178.851168  	92.872574 
4179.815592  	92.833624 
4180.780017  	92.871805 
4181.744441  	92.901303 
4182.708866  	92.873248 
4183.673290  	92.879659 
4184.637715  	92.909887 
4185.602139  	92.915576 
4186.566563  	92.882745 
4187.530988  	92.876544 
4188.495412  	92.904435 
4189.459837  	92.966392 
4190.424261  	92.962910 
4191.388686  	92.940100 
4192.353110  	92.954398 
4193.317535  	92.930546 
4194.281959  	92.906582 
4195.246384  	92.920345 
4196.210808  	92.926442 
4197.175233  	92.894917 
4198.139657  	92.901280 
4199.104081  	92.897105 
4200.068506  	92.914713 
4201.032930  	92.910756 
4201.997355  	92.942212 
4202.961779  	92.983512 
4203.926204  	92.934106 
4204.890628  	92.873535 
4205.855053  	92.890421 
4206.819477  	92.912071 
4207.783902  	92.938327 
4208.748326  	92.934062 
4209.712750  	92.967753 
4210.677175  	93.001043 
4211.641599  	92.955864 
4212.606024  	92.948839 
4213.570448  	92.957369 
4214.534873  	92.943256 
4215.499297  	92.912515 
4216.463722  	92.927609 
4217.428146  	92.875676 
4218.392571  	92.893712 
4219.356995  	92.924816 
4220.321419  	92.909019 
4221.285844  	92.982521 
4222.250268  	93.037910 
4223.214693  	92.940152 
4224.179117  	92.910157 
4225.143542  	92.937175 
4226.107966  	92.953728 
4227.072391  	93.024061 
4228.036815  	92.962679 
4229.001240  	92.930441 
4229.965664  	92.932734 
4230.930088  	92.930716 
4231.894513  	92.974426 
4232.858937  	92.986775 
4233.823362  	92.995154 
4234.787786  	92.998300 
4235.752211  	92.960339 
4236.716635  	92.972768 
4237.681060  	92.975023 
4238.645484  	92.956107 
4239.609909  	92.943810 
4240.574333  	92.929447 
4241.538757  	92.941550 
4242.503182  	92.973956 
4243.467606  	92.998201 
4244.432031  	92.931048 
4245.396455  	92.910843 
4246.360880  	92.997586 
4247.325304  	92.999651 
4248.289729  	92.993462 
4249.254153  	93.026714 
4250.218578  	93.038950 
4251.183002  	93.023670 
4252.147427  	92.992407 
4253.111851  	92.966400 
4254.076275  	92.893199 
4255.040700  	92.857344 
4256.005124  	92.897232 
4256.969549  	92.967182 
4257.933973  	92.986663 
4258.898398  	92.964513 
4259.862822  	92.940838 
4260.827247  	92.919116 
4261.791671  	92.910348 
4262.756096  	92.934395 
4263.720520  	92.903753 
4264.684944  	92.890965 
4265.649369  	92.905153 
4266.613793  	92.939800 
4267.578218  	92.923721 
4268.542642  	92.938894 
4269.507067  	92.959124 
4270.471491  	92.975431 
4271.435916  	92.939379 
4272.400340  	92.861855 
4273.364765  	92.850395 
4274.329189  	92.905845 
4275.293613  	92.942123 
4276.258038  	92.936799 
4277.222462  	92.964971 
4278.186887  	92.927200 
4279.151311  	92.875785 
4280.115736  	92.884947 
4281.080160  	92.989850 
4282.044585  	93.001061 
4283.009009  	92.891090 
4283.973434  	92.844636 
4284.937858  	92.877331 
4285.902282  	92.904436 
4286.866707  	92.932253 
4287.831131  	92.984078 
4288.795556  	92.993199 
4289.759980  	92.949847 
4290.724405  	92.913692 
4291.688829  	92.938911 
4292.653254  	92.921860 
4293.617678  	92.970163 
4294.582103  	93.085094 
4295.546527  	93.059132 
4296.510951  	92.996615 
4297.475376  	92.991127 
4298.439800  	92.981071 
4299.404225  	92.954304 
4300.368649  	92.997034 
4301.333074  	92.994475 
4302.297498  	92.889607 
4303.261923  	92.926580 
4304.226347  	93.031515 
4305.190772  	93.084305 
4306.155196  	93.048589 
4307.119620  	92.961337 
4308.084045  	92.915015 
4309.048469  	92.958244 
4310.012894  	92.974505 
4310.977318  	92.944746 
4311.941743  	92.945796 
4312.906167  	92.985385 
4313.870592  	92.985153 
4314.835016  	92.973691 
4315.799441  	92.908942 
4316.763865  	92.882091 
4317.728290  	92.949425 
4318.692714  	92.983024 
4319.657138  	92.936516 
4320.621563  	92.916786 
4321.585987  	92.923611 
4322.550412  	92.934707 
4323.514836  	92.921230 
4324.479261  	92.875647 
4325.443685  	92.888689 
4326.408110  	92.931137 
4327.372534  	92.910556 
4328.336959  	92.923994 
4329.301383  	92.914336 
4330.265807  	92.906386 
4331.230232  	92.967864 
4332.194656  	92.990620 
4333.159081  	92.954910 
4334.123505  	92.936765 
4335.087930  	92.896988 
4336.052354  	92.886342 
4337.016779  	92.894504 
4337.981203  	92.908468 
4338.945628  	92.911772 
4339.910052  	92.870614 
4340.874476  	92.864099 
4341.838901  	92.939302 
4342.803325  	92.905234 
4343.767750  	92.826383 
4344.732174  	92.790736 
4345.696599  	92.791787 
4346.661023  	92.797754 
4347.625448  	92.802517 
4348.589872  	92.802200 
4349.554297  	92.834956 
4350.518721  	92.880953 
4351.483145  	92.896225 
4352.447570  	92.831343 
4353.411994  	92.861475 
4354.376419  	92.865913 
4355.340843  	92.840861 
4356.305268  	92.850706 
4357.269692  	92.863285 
4358.234117  	92.895385 
4359.198541  	92.858268 
4360.162966  	92.843899 
4361.127390  	92.850601 
4362.091814  	92.809823 
4363.056239  	92.796031 
4364.020663  	92.885020 
4364.985088  	92.899905 
4365.949512  	92.820311 
4366.913937  	92.743572 
4367.878361  	92.736543 
4368.842786  	92.825164 
4369.807210  	92.894805 
4370.771635  	92.864351 
4371.736059  	92.854769 
4372.700484  	92.866663 
4373.664908  	92.895686 
4374.629332  	92.907080 
4375.593757  	92.955735 
4376.558181  	92.987267 
4377.522606  	92.959621 
4378.487030  	92.875662 
4379.451455  	92.866631 
4380.415879  	92.877863 
4381.380304  	92.869534 
4382.344728  	92.908133 
4383.309153  	92.969987 
4384.273577  	92.943513 
4385.238001  	92.958333 
4386.202426  	93.003292 
4387.166850  	92.985005 
4388.131275  	92.968377 
4389.095699  	92.939535 
4390.060124  	92.905328 
4391.024548  	92.955177 
4391.988973  	93.032480 
4392.953397  	93.036636 
4393.917822  	92.982629 
4394.882246  	92.896534 
4395.846670  	92.912491 
4396.811095  	92.943199 
4397.775519  	93.013223 
4398.739944  	93.075364 
4399.704368  	93.069396 
4400.668793  	93.067589 
4401.633217  	92.991522 
4402.597642  	92.981069 
4403.562066  	93.080590 
4404.526491  	93.107040 
4405.490915  	93.108996 
4406.455339  	93.082528 
4407.419764  	93.060861 
4408.384188  	93.110698 
4409.348613  	93.146407 
4410.313037  	93.094940 
4411.277462  	92.959176 
4412.241886  	92.915456 
4413.206311  	92.987435 
4414.170735  	93.121406 
4415.135160  	93.108606 
4416.099584  	93.034455 
4417.064008  	92.962514 
4418.028433  	92.973722 
4418.992857  	93.078742 
4419.957282  	93.044730 
4420.921706  	92.992833 
4421.886131  	93.046939 
4422.850555  	93.100955 
4423.814980  	93.086043 
4424.779404  	93.061487 
4425.743829  	93.022845 
4426.708253  	92.977593 
4427.672677  	92.967639 
4428.637102  	93.007259 
4429.601526  	93.080801 
4430.565951  	93.106979 
4431.530375  	93.059465 
4432.494800  	93.055961 
4433.459224  	93.036266 
4434.423649  	93.000738 
4435.388073  	92.996833 
4436.352498  	93.063402 
4437.316922  	93.102144 
4438.281347  	93.091261 
4439.245771  	93.058976 
4440.210195  	93.074975 
4441.174620  	93.115600 
4442.139044  	93.057290 
4443.103469  	93.087301 
4444.067893  	93.139412 
4445.032318  	93.133951 
4445.996742  	93.129285 
4446.961167  	93.064819 
4447.925591  	93.012119 
4448.890016  	92.970816 
4449.854440  	92.953147 
4450.818864  	93.007830 
4451.783289  	93.036415 
4452.747713  	92.982214 
4453.712138  	92.997839 
4454.676562  	93.056948 
4455.640987  	93.046597 
4456.605411  	93.077768 
4457.569836  	93.103736 
4458.534260  	93.063869 
4459.498685  	93.002813 
4460.463109  	92.984523 
4461.427533  	93.022491 
4462.391958  	93.065010 
4463.356382  	93.022462 
4464.320807  	93.036389 
4465.285231  	93.070111 
4466.249656  	93.082830 
4467.214080  	93.110197 
4468.178505  	93.054785 
4469.142929  	93.015982 
4470.107354  	93.041573 
4471.071778  	92.978297 
4472.036202  	92.989760 
4473.000627  	93.084258 
4473.965051  	93.064626 
4474.929476  	93.017437 
4475.893900  	93.042827 
4476.858325  	93.057685 
4477.822749  	93.048902 
4478.787174  	93.016638 
4479.751598  	93.038281 
4480.716023  	93.036378 
4481.680447  	93.002829 
4482.644871  	93.039326 
4483.609296  	93.014831 
4484.573720  	93.015057 
4485.538145  	93.044131 
4486.502569  	93.029866 
4487.466994  	93.051917 
4488.431418  	93.120266 
4489.395843  	93.107775 
4490.360267  	93.058023 
4491.324692  	93.053861 
4492.289116  	93.036897 
4493.253541  	93.008096 
4494.217965  	93.049471 
4495.182389  	93.119671 
4496.146814  	93.086895 
4497.111238  	93.008831 
4498.075663  	93.010862 
4499.040087  	93.022571 
4500.004512  	93.056308 
4500.968936  	93.084486 
4501.933361  	92.996348 
4502.897785  	92.995507 
4503.862210  	93.074065 
4504.826634  	93.098118 
4505.791058  	93.094478 
4506.755483  	93.051743 
4507.719907  	93.008650 
4508.684332  	93.075689 
4509.648756  	93.031835 
4510.613181  	92.989980 
4511.577605  	93.073789 
4512.542030  	93.082036 
4513.506454  	93.103507 
4514.470879  	93.047811 
4515.435303  	92.881828 
4516.399727  	92.910223 
4517.364152  	93.008770 
4518.328576  	93.018550 
4519.293001  	93.043749 
4520.257425  	93.061327 
4521.221850  	92.962828 
4522.186274  	93.008569 
4523.150699  	93.110349 
4524.115123  	93.050054 
4525.079548  	92.948240 
4526.043972  	92.965191 
4527.008396  	92.994897 
4527.972821  	92.990388 
4528.937245  	93.006501 
4529.901670  	92.967956 
4530.866094  	93.018337 
4531.830519  	93.082923 
4532.794943  	93.006509 
4533.759368  	92.942467 
4534.723792  	92.985790 
4535.688217  	92.946376 
4536.652641  	93.010798 
4537.617065  	93.115009 
4538.581490  	93.072994 
4539.545914  	93.009186 
4540.510339  	93.046793 
4541.474763  	92.956413 
4542.439188  	92.884452 
4543.403612  	92.955986 
4544.368037  	92.972596 
4545.332461  	92.983966 
4546.296886  	93.045246 
4547.261310  	92.992490 
4548.225734  	93.001191 
4549.190159  	93.064445 
4550.154583  	93.033851 
4551.119008  	93.003439 
4552.083432  	92.960098 
4553.047857  	92.928729 
4554.012281  	92.947684 
4554.976706  	93.002704 
4555.941130  	93.036773 
4556.905555  	93.001420 
4557.869979  	93.039368 
4558.834404  	93.112433 
4559.798828  	93.027793 
4560.763252  	92.948214 
4561.727677  	92.986321 
4562.692101  	93.004899 
4563.656526  	93.022214 
4564.620950  	93.042811 
4565.585375  	92.960665 
4566.549799  	92.919464 
4567.514224  	92.981690 
4568.478648  	92.963011 
4569.443073  	92.965872 
4570.407497  	93.002296 
4571.371921  	93.054089 
4572.336346  	93.060236 
4573.300770  	93.073296 
4574.265195  	93.081318 
4575.229619  	93.049455 
4576.194044  	93.016395 
4577.158468  	92.980112 
4578.122893  	93.038396 
4579.087317  	93.031966 
4580.051742  	92.960281 
4581.016166  	92.960137 
4581.980590  	92.991333 
4582.945015  	93.033158 
4583.909439  	93.041073 
4584.873864  	92.983382 
4585.838288  	92.965851 
4586.802713  	93.057916 
4587.767137  	93.009259 
4588.731562  	92.993980 
4589.695986  	93.031033 
4590.660411  	92.991576 
4591.624835  	92.987856 
4592.589259  	93.009921 
4593.553684  	93.067949 
4594.518108  	92.980618 
4595.482533  	92.884796 
4596.446957  	92.904372 
4597.411382  	92.909016 
4598.375806  	92.919838 
4599.340231  	92.995428 
4600.304655  	92.999213 
4601.269080  	92.979396 
4602.233504  	92.930886 
4603.197928  	92.888157 
4604.162353  	92.931215 
4605.126777  	93.000479 
4606.091202  	93.006789 
4607.055626  	92.977633 
4608.020051  	92.978471 
4608.984475  	92.970941 
4609.948900  	93.003024 
4610.913324  	92.984819 
4611.877749  	92.983071 
4612.842173  	92.987638 
4613.806598  	92.988930 
4614.771022  	93.008673 
4615.735446  	93.020422 
4616.699871  	93.004913 
4617.664295  	92.951791 
4618.628720  	92.965187 
4619.593144  	92.991343 
4620.557569  	93.016848 
4621.521993  	93.019915 
4622.486418  	92.980453 
4623.450842  	92.980228 
4624.415267  	92.978265 
4625.379691  	93.001942 
4626.344115  	93.024018 
4627.308540  	93.016294 
4628.272964  	92.991592 
4629.237389  	92.997333 
4630.201813  	93.015933 
4631.166238  	93.013133 
4632.130662  	93.023236 
4633.095087  	92.995310 
4634.059511  	92.995017 
4635.023936  	93.056603 
4635.988360  	93.083158 
4636.952784  	92.990209 
4637.917209  	92.958997 
4638.881633  	92.970349 
4639.846058  	92.980714 
4640.810482  	92.988301 
4641.774907  	92.959748 
4642.739331  	92.911763 
4643.703756  	92.915421 
4644.668180  	92.973263 
4645.632605  	92.946895 
4646.597029  	92.989043 
4647.561453  	92.970285 
4648.525878  	92.949456 
4649.490302  	93.032770 
4650.454727  	93.024061 
4651.419151  	93.000273 
4652.383576  	92.986482 
4653.348000  	92.945699 
4654.312425  	92.947925 
4655.276849  	92.958057 
4656.241274  	92.941300 
4657.205698  	92.988602 
4658.170122  	92.961215 
4659.134547  	92.965764 
4660.098971  	92.940504 
4661.063396  	92.966330 
4662.027820  	93.053818 
4662.992245  	93.059819 
4663.956669  	92.983169 
4664.921094  	92.942651 
4665.885518  	92.977418 
4666.849943  	92.996043 
4667.814367  	92.924862 
4668.778791  	92.984314 
4669.743216  	93.032367 
4670.707640  	93.012029 
4671.672065  	92.962880 
4672.636489  	92.872160 
4673.600914  	92.938177 
4674.565338  	93.053651 
4675.529763  	93.035100 
4676.494187  	93.025261 
4677.458612  	93.064925 
4678.423036  	93.076274 
4679.387461  	93.128009 
4680.351885  	93.083927 
4681.316309  	93.007867 
4682.280734  	92.988730 
4683.245158  	92.888602 
4684.209583  	92.867006 
4685.174007  	92.928804 
4686.138432  	92.971467 
4687.102856  	93.036591 
4688.067281  	93.021567 
4689.031705  	92.971280 
4689.996130  	92.979963 
4690.960554  	92.995369 
4691.924978  	92.961026 
4692.889403  	92.912450 
4693.853827  	92.895664 
4694.818252  	92.970881 
4695.782676  	93.007365 
4696.747101  	92.956362 
4697.711525  	92.997907 
4698.675950  	93.004695 
4699.640374  	92.893869 