##TITLE=No Description
##DATA TYPE=INFRARED SPECTRUM
##XUNITS=1/CM
##YUNITS=%T
400.236149  	123.170213 
401.200574  	92.936731 
402.164998  	67.840693 
403.129423  	58.093436 
404.093847  	56.781827 
405.058272  	65.624033 
406.022696  	83.300355 
406.987120  	92.262479 
407.951545  	98.775604 
408.915969  	89.564148 
409.880394  	84.907166 
410.844818  	86.238545 
411.809243  	88.666910 
412.773667  	89.562561 
413.738092  	85.266357 
414.702516  	77.050835 
415.666941  	73.311251 
416.631365  	79.409957 
417.595789  	89.569710 
418.560214  	102.424036 
419.524638  	88.669348 
420.489063  	78.569293 
421.453487  	80.245285 
422.417912  	82.891162 
423.382336  	85.547896 
424.346761  	84.463767 
425.311185  	79.566205 
426.275610  	75.998787 
427.240034  	77.142189 
428.204458  	81.558326 
429.168883  	83.205513 
430.133307  	82.522012 
431.097732  	81.467578 
432.062156  	79.618020 
433.026581  	79.702961 
433.991005  	81.269723 
434.955430  	81.368725 
435.919854  	79.942143 
436.884279  	78.849174 
437.848703  	79.366930 
438.813127  	79.408956 
439.777552  	79.338068 
440.741976  	80.069299 
441.706401  	80.431729 
442.670825  	80.426600 
443.635250  	77.579008 
444.599674  	77.077101 
445.564099  	78.767770 
446.528523  	79.106858 
447.492948  	79.388371 
448.457372  	81.436089 
449.421796  	81.451623 
450.386221  	80.327280 
451.350645  	79.778433 
452.315070  	78.518994 
453.279494  	76.946003 
454.243919  	77.648380 
455.208343  	78.223894 
456.172768  	77.312241 
457.137192  	77.219748 
458.101617  	77.909619 
459.066041  	77.949212 
460.030466  	77.654193 
460.994890  	77.546426 
461.959314  	76.948836 
462.923739  	76.437378 
463.888163  	76.898487 
464.852588  	77.071878 
465.817012  	77.089747 
466.781437  	77.099627 
467.745861  	76.468117 
468.710286  	75.807913 
469.674710  	75.322067 
470.639135  	75.257431 
471.603559  	75.362818 
472.567983  	75.436837 
473.532408  	75.312885 
474.496832  	74.989994 
475.461257  	75.363754 
476.425681  	74.897058 
477.390106  	75.118580 
478.354530  	75.955120 
479.318955  	75.148842 
480.283379  	74.647094 
481.247804  	74.553553 
482.212228  	73.659500 
483.176652  	73.701203 
484.141077  	74.131612 
485.105501  	74.136807 
486.069926  	73.851043 
487.034350  	74.031634 
487.998775  	74.450159 
488.963199  	74.661395 
489.927624  	74.967115 
490.892048  	74.097244 
491.856473  	73.138992 
492.820897  	73.764613 
493.785321  	73.743743 
494.749746  	73.171490 
495.714170  	73.076603 
496.678595  	73.194541 
497.643019  	73.261552 
498.607444  	73.476753 
499.571868  	73.288241 
500.536293  	72.639204 
501.500717  	72.172498 
502.465142  	72.196540 
503.429566  	72.836256 
504.393990  	72.500682 
505.358415  	71.936735 
506.322839  	71.531120 
507.287264  	71.631483 
508.251688  	72.025278 
509.216113  	72.073413 
510.180537  	71.724066 
511.144962  	71.676610 
512.109386  	71.710269 
513.073811  	71.600632 
514.038235  	71.417620 
515.002660  	71.011711 
515.967084  	70.433583 
516.931508  	70.289937 
517.895933  	70.785400 
518.860357  	70.775019 
519.824782  	70.220431 
520.789206  	70.290349 
521.753631  	70.491810 
522.718055  	70.459033 
523.682480  	70.011536 
524.646904  	69.551920 
525.611329  	69.021744 
526.575753  	68.700624 
527.540177  	68.918293 
528.504602  	68.982225 
529.469026  	68.636022 
530.433451  	68.449449 
531.397875  	68.324611 
532.362300  	68.188619 
533.326724  	68.167371 
534.291149  	67.949245 
535.255573  	68.046010 
536.219998  	68.391919 
537.184422  	69.038085 
538.148846  	69.185223 
539.113271  	69.644108 
540.077695  	69.810116 
541.042120  	70.047559 
542.006544  	70.363205 
542.970969  	70.462960 
543.935393  	70.867571 
544.899818  	70.776608 
545.864242  	70.522493 
546.828667  	70.260211 
547.793091  	69.962310 
548.757515  	70.450145 
549.721940  	70.603902 
550.686364  	69.982782 
551.650789  	69.853599 
552.615213  	69.663192 
553.579638  	69.363324 
554.544062  	68.957356 
555.508487  	68.709215 
556.472911  	68.387636 
557.437336  	68.141438 
558.401760  	67.833443 
559.366184  	67.555432 
560.330609  	66.918667 
561.295033  	66.449834 
562.259458  	66.350329 
563.223882  	65.797022 
564.188307  	65.180836 
565.152731  	64.870889 
566.117156  	64.254026 
567.081580  	63.550777 
568.046005  	63.065271 
569.010429  	62.475739 
569.974853  	62.086095 
570.939278  	61.613091 
571.903702  	61.071840 
572.868127  	60.501772 
573.832551  	59.962845 
574.796976  	59.727690 
575.761400  	59.053365 
576.725825  	58.852807 
577.690249  	58.973178 
578.654674  	59.324156 
579.619098  	59.722145 
580.583523  	60.418170 
581.547947  	61.569564 
582.512371  	62.635778 
583.476796  	63.409641 
584.441220  	64.137330 
585.405645  	65.169504 
586.370069  	66.282772 
587.334494  	67.025295 
588.298918  	67.669840 
589.263343  	68.064504 
590.227767  	68.475477 
591.192192  	68.705301 
592.156616  	69.021305 
593.121040  	69.746907 
594.085465  	70.268841 
595.049889  	70.477184 
596.014314  	70.776611 
596.978738  	70.977820 
597.943163  	71.058546 
598.907587  	71.128957 
599.872012  	71.108307 
600.836436  	71.404780 
601.800861  	71.683362 
602.765285  	71.722344 
603.729709  	71.807383 
604.694134  	72.020835 
605.658558  	72.162329 
606.622983  	72.241968 
607.587407  	72.300369 
608.551832  	72.207066 
609.516256  	72.305317 
610.480681  	72.221211 
611.445105  	72.117369 
612.409530  	72.349729 
613.373954  	72.746775 
614.338378  	72.547447 
615.302803  	72.106219 
616.267227  	71.981226 
617.231652  	72.304561 
618.196076  	72.425495 
619.160501  	72.486795 
620.124925  	72.361529 
621.089350  	72.330457 
622.053774  	72.320146 
623.018199  	72.466935 
623.982623  	72.353534 
624.947047  	72.388940 
625.911472  	72.352711 
626.875896  	72.326287 
627.840321  	72.165159 
628.804745  	72.269658 
629.769170  	72.177980 
630.733594  	72.020216 
631.698019  	72.150885 
632.662443  	72.153362 
633.626868  	71.924950 
634.591292  	71.732279 
635.555717  	71.526400 
636.520141  	71.745099 
637.484565  	71.830469 
638.448990  	71.786541 
639.413414  	71.515680 
640.377839  	71.380765 
641.342263  	71.281514 
642.306688  	70.989052 
643.271112  	70.865407 
644.235537  	70.821289 
645.199961  	70.689117 
646.164386  	70.718068 
647.128810  	70.631076 
648.093234  	70.346405 
649.057659  	70.022480 
650.022083  	69.867342 
650.986508  	69.684528 
651.950932  	69.452938 
652.915357  	69.160355 
653.879781  	68.922804 
654.844206  	68.805241 
655.808630  	68.542825 
656.773055  	68.129398 
657.737479  	67.936637 
658.701903  	67.694657 
659.666328  	67.248803 
660.630752  	66.928425 
661.595177  	66.806658 
662.559601  	66.505454 
663.524026  	66.158580 
664.488450  	65.866342 
665.452875  	65.637893 
666.417299  	65.414068 
667.381724  	65.462942 
668.346148  	65.241160 
669.310572  	64.498887 
670.274997  	64.165624 
671.239421  	63.960170 
672.203846  	63.724392 
673.168270  	63.448728 
674.132695  	63.049121 
675.097119  	62.888261 
676.061544  	62.686195 
677.025968  	62.384284 
677.990393  	62.165717 
678.954817  	62.048339 
679.919241  	61.961039 
680.883666  	61.982494 
681.848090  	61.929827 
682.812515  	61.834790 
683.776939  	61.772914 
684.741364  	61.827964 
685.705788  	61.875713 
686.670213  	62.109916 
687.634637  	62.406694 
688.599062  	62.575218 
689.563486  	62.733715 
690.527910  	63.132989 
691.492335  	63.722127 
692.456759  	64.287603 
693.421184  	64.684622 
694.385608  	65.243037 
695.350033  	65.803764 
696.314457  	66.252008 
697.278882  	66.588454 
698.243306  	67.097184 
699.207731  	67.657850 
700.172155  	68.196313 
701.136580  	68.533621 
702.101004  	68.845738 
703.065428  	69.169130 
704.029853  	69.460999 
704.994277  	69.716423 
705.958702  	70.085137 
706.923126  	70.370611 
707.887551  	70.593801 
708.851975  	70.900304 
709.816400  	71.008642 
710.780824  	71.065621 
711.745249  	71.167956 
712.709673  	71.302541 
713.674097  	71.410695 
714.638522  	71.608434 
715.602946  	71.716844 
716.567371  	71.753939 
717.531795  	71.804129 
718.496220  	71.743520 
719.460644  	71.778972 
720.425069  	71.950376 
721.389493  	72.046363 
722.353918  	71.999086 
723.318342  	71.934779 
724.282766  	71.849010 
725.247191  	71.740942 
726.211615  	71.698446 
727.176040  	71.665772 
728.140464  	71.637557 
729.104889  	71.750033 
730.069313  	72.052128 
731.033738  	72.518268 
731.998162  	73.152472 
732.962587  	73.898905 
733.927011  	74.537319 
734.891435  	75.218826 
735.855860  	76.028316 
736.820284  	76.854122 
737.784709  	77.579933 
738.749133  	78.180467 
739.713558  	78.695574 
740.677982  	79.128954 
741.642407  	79.469223 
742.606831  	79.744863 
743.571256  	79.987879 
744.535680  	80.137116 
745.500104  	80.321243 
746.464529  	80.501057 
747.428953  	80.599711 
748.393378  	80.761042 
749.357802  	80.831080 
750.322227  	80.850229 
751.286651  	80.955845 
752.251076  	81.104686 
753.215500  	81.198523 
754.179925  	81.351749 
755.144349  	81.505115 
756.108774  	81.622988 
757.073198  	81.685161 
758.037622  	81.690089 
759.002047  	81.799439 
759.966471  	81.931948 
760.930896  	82.010141 
761.895320  	82.191524 
762.859745  	82.401076 
763.824169  	82.556171 
764.788594  	82.628474 
765.753018  	82.740851 
766.717443  	82.823090 
767.681867  	82.897804 
768.646291  	83.007581 
769.610716  	83.130233 
770.575140  	83.264222 
771.539565  	83.467128 
772.503989  	83.470310 
773.468414  	83.498229 
774.432838  	83.607285 
775.397263  	83.769134 
776.361687  	84.025537 
777.326112  	84.242634 
778.290536  	84.275929 
779.254960  	84.299097 
780.219385  	84.458429 
781.183809  	84.639593 
782.148234  	84.468089 
783.112658  	84.536110 
784.077083  	84.813196 
785.041507  	84.995042 
786.005932  	85.143919 
786.970356  	85.107039 
787.934781  	84.989267 
788.899205  	85.020088 
789.863629  	85.019857 
790.828054  	85.078722 
791.792478  	85.106309 
792.756903  	85.068443 
793.721327  	85.084753 
794.685752  	85.096301 
795.650176  	85.150119 
796.614601  	85.253554 
797.579025  	85.380144 
798.543450  	85.379536 
799.507874  	85.516149 
800.472298  	85.772285 
801.436723  	85.926293 
802.401147  	85.990123 
803.365572  	86.093734 
804.329996  	86.251539 
805.294421  	86.348065 
806.258845  	86.453368 
807.223270  	86.530203 
808.187694  	86.513233 
809.152119  	86.611850 
810.116543  	86.752442 
811.080967  	86.832552 
812.045392  	86.872249 
813.009816  	86.944725 
813.974241  	87.029028 
814.938665  	87.163426 
815.903090  	87.248590 
816.867514  	87.267734 
817.831939  	87.301296 
818.796363  	87.418329 
819.760788  	87.535528 
820.725212  	87.679894 
821.689637  	87.692086 
822.654061  	87.647133 
823.618485  	87.700115 
824.582910  	87.745220 
825.547334  	87.725409 
826.511759  	87.802968 
827.476183  	87.872967 
828.440608  	87.921318 
829.405032  	87.933113 
830.369457  	87.973782 
831.333881  	88.086529 
832.298306  	88.178834 
833.262730  	88.216298 
834.227154  	88.227154 
835.191579  	88.271511 
836.156003  	88.351351 
837.120428  	88.329103 
838.084852  	88.219046 
839.049277  	88.287049 
840.013701  	88.392625 
840.978126  	88.355431 
841.942550  	88.412369 
842.906975  	88.484817 
843.871399  	88.536617 
844.835823  	88.470375 
845.800248  	88.481294 
846.764672  	88.565328 
847.729097  	88.662037 
848.693521  	88.670926 
849.657946  	88.656337 
850.622370  	88.662382 
851.586795  	88.696619 
852.551219  	88.638558 
853.515644  	88.657450 
854.480068  	88.783051 
855.444492  	88.803236 
856.408917  	88.792920 
857.373341  	88.841402 
858.337766  	88.837474 
859.302190  	88.843281 
860.266615  	88.839902 
861.231039  	88.844327 
862.195464  	88.857342 
863.159888  	88.869131 
864.124313  	88.882164 
865.088737  	88.893817 
866.053161  	88.919883 
867.017586  	88.776431 
867.982010  	88.739651 
868.946435  	88.891010 
869.910859  	88.941611 
870.875284  	88.828259 
871.839708  	88.746571 
872.804133  	88.802683 
873.768557  	88.827634 
874.732982  	88.763413 
875.697406  	88.715695 
876.661831  	88.626890 
877.626255  	88.597812 
878.590679  	88.679900 
879.555104  	88.733365 
880.519528  	88.686526 
881.483953  	88.633590 
882.448377  	88.607595 
883.412802  	88.616906 
884.377226  	88.641990 
885.341651  	88.599253 
886.306075  	88.516651 
887.270500  	88.491793 
888.234924  	88.506012 
889.199348  	88.437891 
890.163773  	88.344094 
891.128197  	88.355226 
892.092622  	88.365393 
893.057046  	88.241410 
894.021471  	88.112139 
894.985895  	88.108847 
895.950320  	88.020663 
896.914744  	87.857894 
897.879169  	87.711673 
898.843593  	87.575871 
899.808017  	87.350545 
900.772442  	87.035825 
901.736866  	86.655577 
902.701291  	86.318586 
903.665715  	86.051718 
904.630140  	85.735757 
905.594564  	85.539992 
906.558989  	85.661494 
907.523413  	85.891607 
908.487838  	86.133505 
909.452262  	86.439002 
910.416686  	86.766609 
911.381111  	86.939110 
912.345535  	86.924977 
913.309960  	86.863459 
914.274384  	86.797152 
915.238809  	86.738232 
916.203233  	86.626011 
917.167658  	86.478147 
918.132082  	86.352435 
919.096507  	86.251387 
920.060931  	86.081845 
921.025355  	85.858456 
921.989780  	85.636151 
922.954204  	85.362811 
923.918629  	85.055391 
924.883053  	84.782150 
925.847478  	84.417001 
926.811902  	83.938214 
927.776327  	83.414965 
928.740751  	82.834898 
929.705176  	82.175300 
930.669600  	81.416880 
931.634024  	80.625618 
932.598449  	79.970841 
933.562873  	79.459104 
934.527298  	79.253079 
935.491722  	79.452566 
936.456147  	80.092145 
937.420571  	81.107219 
938.384996  	82.153826 
939.349420  	83.118616 
940.313845  	83.969038 
941.278269  	84.681292 
942.242694  	85.317759 
943.207118  	85.781229 
944.171542  	86.154429 
945.135967  	86.439455 
946.100391  	86.621831 
947.064816  	86.806292 
948.029240  	86.991099 
948.993665  	87.134294 
949.958089  	87.241066 
950.922514  	87.378167 
951.886938  	87.514440 
952.851363  	87.548767 
953.815787  	87.575003 
954.780211  	87.672956 
955.744636  	87.787346 
956.709060  	87.841814 
957.673485  	87.892603 
958.637909  	87.932447 
959.602334  	87.928519 
960.566758  	87.948553 
961.531183  	87.986400 
962.495607  	87.994566 
963.460032  	88.040592 
964.424456  	88.099623 
965.388880  	88.083041 
966.353305  	88.081188 
967.317729  	88.166822 
968.282154  	88.199663 
969.246578  	88.185170 
970.211003  	88.157294 
971.175427  	88.161541 
972.139852  	88.135464 
973.104276  	88.114030 
974.068701  	88.115174 
975.033125  	88.125580 
975.997549  	88.094693 
976.961974  	88.026625 
977.926398  	88.005501 
978.890823  	87.989010 
979.855247  	87.936829 
980.819672  	87.874719 
981.784096  	87.798603 
982.748521  	87.724136 
983.712945  	87.612724 
984.677370  	87.443449 
985.641794  	87.334983 
986.606218  	87.280908 
987.570643  	87.230372 
988.535067  	87.194036 
989.499492  	87.211284 
990.463916  	87.206007 
991.428341  	87.193685 
992.392765  	87.136522 
993.357190  	87.043608 
994.321614  	86.967090 
995.286039  	86.929826 
996.250463  	86.879714 
997.214888  	86.840336 
998.179312  	86.821288 
999.143736  	86.745634 
1000.108161  	86.670083 
1001.072585  	86.643362 
1002.037010  	86.628474 
1003.001434  	86.567420 
1003.965859  	86.488285 
1004.930283  	86.421968 
1005.894708  	86.312201 
1006.859132  	86.172515 
1007.823557  	86.046256 
1008.787981  	85.965571 
1009.752405  	85.902566 
1010.716830  	85.824026 
1011.681254  	85.693437 
1012.645679  	85.646852 
1013.610103  	85.637255 
1014.574528  	85.604241 
1015.538952  	85.563569 
1016.503377  	85.559566 
1017.467801  	85.552501 
1018.432226  	85.535338 
1019.396650  	85.525976 
1020.361074  	85.551058 
1021.325499  	85.558659 
1022.289923  	85.508278 
1023.254348  	85.457973 
1024.218772  	85.401172 
1025.183197  	85.321987 
1026.147621  	85.220855 
1027.112046  	85.155631 
1028.076470  	85.086686 
1029.040895  	85.004976 
1030.005319  	84.935771 
1030.969743  	84.869919 
1031.934168  	84.816768 
1032.898592  	84.752083 
1033.863017  	84.657992 
1034.827441  	84.544824 
1035.791866  	84.464793 
1036.756290  	84.407233 
1037.720715  	84.330565 
1038.685139  	84.255840 
1039.649564  	84.228581 
1040.613988  	84.228486 
1041.578412  	84.184890 
1042.542837  	84.200464 
1043.507261  	84.299311 
1044.471686  	84.361690 
1045.436110  	84.397823 
1046.400535  	84.474437 
1047.364959  	84.564416 
1048.329384  	84.595635 
1049.293808  	84.669942 
1050.258233  	84.795259 
1051.222657  	84.835291 
1052.187081  	84.817018 
1053.151506  	84.808887 
1054.115930  	84.857334 
1055.080355  	84.829400 
1056.044779  	84.763442 
1057.009204  	84.706549 
1057.973628  	84.657484 
1058.938053  	84.630274 
1059.902477  	84.504503 
1060.866902  	84.384991 
1061.831326  	84.403534 
1062.795751  	84.365764 
1063.760175  	84.271701 
1064.724599  	84.241378 
1065.689024  	84.275713 
1066.653448  	84.407292 
1067.617873  	84.554369 
1068.582297  	84.644252 
1069.546722  	84.782348 
1070.511146  	84.948795 
1071.475571  	85.125654 
1072.439995  	85.289658 
1073.404420  	85.369220 
1074.368844  	85.384625 
1075.333268  	85.365101 
1076.297693  	85.317285 
1077.262117  	85.307849 
1078.226542  	85.365265 
1079.190966  	85.380483 
1080.155391  	85.280111 
1081.119815  	85.199944 
1082.084240  	85.180377 
1083.048664  	85.158606 
1084.013089  	85.113469 
1084.977513  	85.062535 
1085.941937  	84.952892 
1086.906362  	84.813575 
1087.870786  	84.736229 
1088.835211  	84.703025 
1089.799635  	84.587224 
1090.764060  	84.472670 
1091.728484  	84.469125 
1092.692909  	84.512169 
1093.657333  	84.440106 
1094.621758  	84.316763 
1095.586182  	84.311582 
1096.550606  	84.322969 
1097.515031  	84.322662 
1098.479455  	84.303750 
1099.443880  	84.314160 
1100.408304  	84.340461 
1101.372729  	84.314672 
1102.337153  	84.317848 
1103.301578  	84.337611 
1104.266002  	84.345969 
1105.230427  	84.369274 
1106.194851  	84.398889 
1107.159275  	84.420877 
1108.123700  	84.406554 
1109.088124  	84.373689 
1110.052549  	84.401503 
1111.016973  	84.453193 
1111.981398  	84.436166 
1112.945822  	84.396837 
1113.910247  	84.372584 
1114.874671  	84.353726 
1115.839096  	84.322758 
1116.803520  	84.311634 
1117.767945  	84.275695 
1118.732369  	84.206386 
1119.696793  	84.164534 
1120.661218  	84.086641 
1121.625642  	83.971291 
1122.590067  	83.898666 
1123.554491  	83.813037 
1124.518916  	83.684328 
1125.483340  	83.575387 
1126.447765  	83.462956 
1127.412189  	83.337546 
1128.376614  	83.180705 
1129.341038  	82.995923 
1130.305462  	82.844128 
1131.269887  	82.622963 
1132.234311  	82.230237 
1133.198736  	81.805948 
1134.163160  	81.348760 
1135.127585  	80.822875 
1136.092009  	80.270093 
1137.056434  	79.805392 
1138.020858  	79.510881 
1138.985283  	79.373324 
1139.949707  	79.317114 
1140.914131  	79.367761 
1141.878556  	79.477125 
1142.842980  	79.521908 
1143.807405  	79.542581 
1144.771829  	79.594254 
1145.736254  	79.630848 
1146.700678  	79.662649 
1147.665103  	79.692891 
1148.629527  	79.778815 
1149.593952  	79.938669 
1150.558376  	80.155312 
1151.522800  	80.371074 
1152.487225  	80.617948 
1153.451649  	80.868110 
1154.416074  	81.090875 
1155.380498  	81.265138 
1156.344923  	81.437416 
1157.309347  	81.588591 
1158.273772  	81.673670 
1159.238196  	81.664694 
1160.202621  	81.682846 
1161.167045  	81.639825 
1162.131469  	81.503317 
1163.095894  	81.361180 
1164.060318  	81.227113 
1165.024743  	81.034567 
1165.989167  	80.796865 
1166.953592  	80.550972 
1167.918016  	80.294406 
1168.882441  	79.997462 
1169.846865  	79.624749 
1170.811290  	79.159276 
1171.775714  	78.644431 
1172.740138  	78.105063 
1173.704563  	77.492316 
1174.668987  	76.812544 
1175.633412  	76.225876 
1176.597836  	75.704192 
1177.562261  	75.238953 
1178.526685  	74.925387 
1179.491110  	74.819991 
1180.455534  	74.879659 
1181.419959  	75.067071 
1182.384383  	75.300465 
1183.348808  	75.537738 
1184.313232  	75.768951 
1185.277656  	75.906803 
1186.242081  	75.944517 
1187.206505  	75.904766 
1188.170930  	75.739621 
1189.135354  	75.405039 
1190.099779  	74.921862 
1191.064203  	74.314106 
1192.028628  	73.550057 
1192.993052  	72.584248 
1193.957477  	71.539185 
1194.921901  	70.541688 
1195.886325  	69.737226 
1196.850750  	69.298388 
1197.815174  	69.350634 
1198.779599  	69.948234 
1199.744023  	70.935593 
1200.708448  	72.106045 
1201.672872  	73.356488 
1202.637297  	74.582922 
1203.601721  	75.652437 
1204.566146  	76.557502 
1205.530570  	77.318902 
1206.494994  	77.947770 
1207.459419  	78.460796 
1208.423843  	78.821923 
1209.388268  	79.045832 
1210.352692  	79.202178 
1211.317117  	79.301570 
1212.281541  	79.330693 
1213.245966  	79.386343 
1214.210390  	79.422718 
1215.174815  	79.376289 
1216.139239  	79.306320 
1217.103663  	79.222358 
1218.068088  	79.089832 
1219.032512  	78.891413 
1219.996937  	78.605368 
1220.961361  	78.241379 
1221.925786  	77.806253 
1222.890210  	77.368846 
1223.854635  	77.052009 
1224.819059  	76.946569 
1225.783484  	77.122046 
1226.747908  	77.402566 
1227.712332  	77.573998 
1228.676757  	77.599072 
1229.641181  	77.526937 
1230.605606  	77.394401 
1231.570030  	77.196463 
1232.534455  	76.985598 
1233.498879  	76.824128 
1234.463304  	76.658711 
1235.427728  	76.469297 
1236.392153  	76.330162 
1237.356577  	76.234069 
1238.321002  	76.143663 
1239.285426  	76.026567 
1240.249850  	75.925678 
1241.214275  	75.838981 
1242.178699  	75.728373 
1243.143124  	75.582500 
1244.107548  	75.437092 
1245.071973  	75.378924 
1246.036397  	75.262091 
1247.000822  	75.086539 
1247.965246  	74.946028 
1248.929671  	74.798714 
1249.894095  	74.638387 
1250.858519  	74.494943 
1251.822944  	74.308800 
1252.787368  	74.104916 
1253.751793  	73.943848 
1254.716217  	73.738510 
1255.680642  	73.522020 
1256.645066  	73.314914 
1257.609491  	73.056533 
1258.573915  	72.749136 
1259.538340  	72.363951 
1260.502764  	71.981721 
1261.467188  	71.729615 
1262.431613  	71.405837 
1263.396037  	71.025315 
1264.360462  	70.656122 
1265.324886  	70.289588 
1266.289311  	69.918112 
1267.253735  	69.586463 
1268.218160  	69.247806 
1269.182584  	68.879442 
1270.147009  	68.548568 
1271.111433  	68.314367 
1272.075857  	68.139003 
1273.040282  	68.118885 
1274.004706  	68.140142 
1274.969131  	68.280743 
1275.933555  	68.565812 
1276.897980  	69.013763 
1277.862404  	69.627859 
1278.826829  	70.353644 
1279.791253  	71.133635 
1280.755678  	71.929888 
1281.720102  	72.724308 
1282.684526  	73.496869 
1283.648951  	74.184077 
1284.613375  	74.783229 
1285.577800  	75.355532 
1286.542224  	75.819531 
1287.506649  	76.117050 
1288.471073  	76.446206 
1289.435498  	76.844519 
1290.399922  	77.127892 
1291.364347  	77.364312 
1292.328771  	77.594204 
1293.293195  	77.754135 
1294.257620  	77.853665 
1295.222044  	77.916176 
1296.186469  	77.914491 
1297.150893  	77.967278 
1298.115318  	78.088814 
1299.079742  	78.076249 
1300.044167  	78.030355 
1301.008591  	78.006030 
1301.973016  	78.008842 
1302.937440  	78.051818 
1303.901865  	78.158223 
1304.866289  	78.293556 
1305.830713  	78.418722 
1306.795138  	78.509229 
1307.759562  	78.584707 
1308.723987  	78.748351 
1309.688411  	78.987156 
1310.652836  	79.116180 
1311.617260  	79.119720 
1312.581685  	78.961969 
1313.546109  	79.094125 
1314.510534  	79.291466 
1315.474958  	79.477213 
1316.439382  	79.450782 
1317.403807  	79.356581 
1318.368231  	79.287594 
1319.332656  	79.166026 
1320.297080  	79.357745 
1321.261505  	79.464645 
1322.225929  	79.498680 
1323.190354  	79.407472 
1324.154778  	79.349758 
1325.119203  	79.272548 
1326.083627  	79.178308 
1327.048051  	79.084472 
1328.012476  	79.010619 
1328.976900  	78.946712 
1329.941325  	78.902245 
1330.905749  	78.929171 
1331.870174  	78.971322 
1332.834598  	78.928323 
1333.799023  	78.890864 
1334.763447  	78.807384 
1335.727872  	78.526868 
1336.692296  	78.096120 
1337.656720  	77.917233 
1338.621145  	77.329318 
1339.585569  	76.755103 
1340.549994  	76.882109 
1341.514418  	77.650511 
1342.478843  	77.930468 
1343.443267  	77.832880 
1344.407692  	77.701381 
1345.372116  	77.574056 
1346.336541  	77.410625 
1347.300965  	77.229349 
1348.265389  	77.021342 
1349.229814  	76.730850 
1350.194238  	76.546417 
1351.158663  	76.415287 
1352.123087  	76.196252 
1353.087512  	75.963486 
1354.051936  	75.621855 
1355.016361  	75.237012 
1355.980785  	75.179152 
1356.945210  	75.016755 
1357.909634  	74.690614 
1358.874059  	74.514178 
1359.838483  	74.297232 
1360.802907  	73.648610 
1361.767332  	73.119986 
1362.731756  	72.317150 
1363.696181  	72.263774 
1364.660605  	72.926495 
1365.625030  	72.876792 
1366.589454  	72.671673 
1367.553879  	72.269770 
1368.518303  	71.738784 
1369.482728  	71.685242 
1370.447152  	71.909191 
1371.411576  	71.955480 
1372.376001  	71.951657 
1373.340425  	71.652287 
1374.304850  	71.697482 
1375.269274  	72.498296 
1376.233699  	73.514463 
1377.198123  	73.989047 
1378.162548  	74.221343 
1379.126972  	74.688781 
1380.091397  	75.148560 
1381.055821  	75.581975 
1382.020245  	75.860927 
1382.984670  	76.101053 
1383.949094  	76.329295 
1384.913519  	76.508016 
1385.877943  	76.334103 
1386.842368  	75.714170 
1387.806792  	75.883695 
1388.771217  	76.929089 
1389.735641  	77.390450 
1390.700066  	77.607129 
1391.664490  	77.888625 
1392.628914  	78.139723 
1393.593339  	77.811852 
1394.557763  	77.122185 
1395.522188  	77.348242 
1396.486612  	78.007850 
1397.451037  	78.041561 
1398.415461  	77.593838 
1399.379886  	77.568393 
1400.344310  	78.232829 
1401.308735  	78.467249 
1402.273159  	78.339083 
1403.237583  	78.038204 
1404.202008  	77.298354 
1405.166432  	76.488635 
1406.130857  	76.628914 
1407.095281  	76.456083 
1408.059706  	75.805057 
1409.024130  	74.925168 
1409.988555  	73.799770 
1410.952979  	72.521921 
1411.917404  	71.047515 
1412.881828  	69.705692 
1413.846252  	68.253471 
1414.810677  	66.858194 
1415.775101  	65.802710 
1416.739526  	65.510641 
1417.703950  	66.131832 
1418.668375  	66.773442 
1419.632799  	68.643721 
1420.597224  	71.426705 
1421.561648  	72.417254 
1422.526073  	73.068343 
1423.490497  	72.904469 
1424.454922  	73.361873 
1425.419346  	74.435972 
1426.383770  	74.864781 
1427.348195  	74.956393 
1428.312619  	74.783986 
1429.277044  	74.299111 
1430.241468  	73.975392 
1431.205893  	74.202478 
1432.170317  	73.930223 
1433.134742  	73.579601 
1434.099166  	73.571119 
1435.063591  	73.226862 
1436.028015  	72.016799 
1436.992439  	71.650073 
1437.956864  	72.878977 
1438.921288  	73.210897 
1439.885713  	73.318850 
1440.850137  	73.436100 
1441.814562  	73.547799 
1442.778986  	73.648471 
1443.743411  	73.688496 
1444.707835  	73.700259 
1445.672260  	73.670393 
1446.636684  	73.475167 
1447.601108  	72.829868 
1448.565533  	72.856985 
1449.529957  	73.262312 
1450.494382  	73.074110 
1451.458806  	72.463244 
1452.423231  	71.895405 
1453.387655  	71.792132 
1454.352080  	71.077289 
1455.316504  	69.906851 
1456.280929  	68.764231 
1457.245353  	67.997303 
1458.209777  	67.687443 
1459.174202  	67.701996 
1460.138626  	67.913565 
1461.103051  	67.611476 
1462.067475  	66.793505 
1463.031900  	66.018188 
1463.996324  	65.068225 
1464.960749  	64.602944 
1465.925173  	66.015555 
1466.889598  	67.276461 
1467.854022  	68.426033 
1468.818446  	69.398254 
1469.782871  	69.748916 
1470.747295  	69.158452 
1471.711720  	67.472137 
1472.676144  	65.840144 
1473.640569  	65.593110 
1474.604993  	66.199836 
1475.569418  	66.110462 
1476.533842  	66.719002 
1477.498267  	68.717409 
1478.462691  	70.131905 
1479.427116  	71.508595 
1480.391540  	72.687698 
1481.355964  	73.692633 
1482.320389  	75.278144 
1483.284813  	76.380113 
1484.249238  	77.107869 
1485.213662  	77.341332 
1486.178087  	77.045456 
1487.142511  	76.616306 
1488.106936  	76.715634 
1489.071360  	75.776943 
1490.035785  	74.542090 
1491.000209  	75.294150 
1491.964633  	76.207182 
1492.929058  	76.286236 
1493.893482  	75.940321 
1494.857907  	75.257219 
1495.822331  	74.055673 
1496.786756  	73.507361 
1497.751180  	73.482735 
1498.715605  	72.625186 
1499.680029  	72.512931 
1500.644454  	72.344092 
1501.608878  	71.630956 
1502.573302  	71.203370 
1503.537727  	70.819431 
1504.502151  	69.778491 
1505.466576  	67.866029 
1506.431000  	64.714518 
1507.395425  	63.536291 
1508.359849  	64.160010 
1509.324274  	64.380129 
1510.288698  	64.320555 
1511.253123  	64.167118 
1512.217547  	63.187267 
1513.181971  	62.739681 
1514.146396  	62.027027 
1515.110820  	60.510048 
1516.075245  	58.921476 
1517.039669  	57.188821 
1518.004094  	57.176064 
1518.968518  	56.857842 
1519.932943  	55.280889 
1520.897367  	52.757750 
1521.861792  	51.933190 
1522.826216  	51.685973 
1523.790640  	51.264260 
1524.755065  	50.040609 
1525.719489  	48.872047 
1526.683914  	48.242281 
1527.648338  	47.289647 
1528.612763  	46.803659 
1529.577187  	46.783873 
1530.541612  	46.456391 
1531.506036  	45.847691 
1532.470461  	45.409954 
1533.434885  	45.040298 
1534.399309  	46.195350 
1535.363734  	47.008141 
1536.328158  	47.713825 
1537.292583  	48.294765 
1538.257007  	47.999754 
1539.221432  	47.240344 
1540.185856  	49.282198 
1541.150281  	50.610243 
1542.114705  	51.318620 
1543.079130  	52.904188 
1544.043554  	53.467025 
1545.007979  	54.013502 
1545.972403  	55.998032 
1546.936827  	57.441693 
1547.901252  	58.218870 
1548.865676  	58.541593 
1549.830101  	58.253708 
1550.794525  	59.702348 
1551.758950  	61.068473 
1552.723374  	61.581016 
1553.687799  	61.367438 
1554.652223  	61.840438 
1555.616648  	63.283048 
1556.581072  	63.460072 
1557.545496  	62.653825 
1558.509921  	61.223114 
1559.474345  	61.450023 
1560.438770  	64.829080 
1561.403194  	67.060364 
1562.367619  	67.926810 
1563.332043  	68.554240 
1564.296468  	68.782316 
1565.260892  	69.403352 
1566.225317  	70.557625 
1567.189741  	71.190962 
1568.154165  	71.331682 
1569.118590  	70.724062 
1570.083014  	71.768307 
1571.047439  	73.344641 
1572.011863  	73.945314 
1572.976288  	74.427436 
1573.940712  	74.920083 
1574.905137  	74.882786 
1575.869561  	74.279491 
1576.833986  	74.942252 
1577.798410  	75.965557 
1578.762834  	76.578565 
1579.727259  	77.036424 
1580.691683  	77.345695 
1581.656108  	77.591126 
1582.620532  	77.687409 
1583.584957  	77.790933 
1584.549381  	77.894324 
1585.513806  	77.969368 
1586.478230  	77.927257 
1587.442655  	77.894488 
1588.407079  	77.778325 
1589.371503  	77.540437 
1590.335928  	77.278466 
1591.300352  	77.127526 
1592.264777  	76.871959 
1593.229201  	76.562928 
1594.193626  	75.967456 
1595.158050  	75.566692 
1596.122475  	75.156469 
1597.086899  	74.737570 
1598.051324  	74.227890 
1599.015748  	73.608237 
1599.980173  	72.873616 
1600.944597  	72.016237 
1601.909021  	71.040042 
1602.873446  	70.021704 
1603.837870  	69.079590 
1604.802295  	68.287957 
1605.766719  	67.268987 
1606.731144  	66.151849 
1607.695568  	65.096784 
1608.659993  	64.213871 
1609.624417  	63.089970 
1610.588842  	62.331008 
1611.553266  	61.318136 
1612.517690  	60.184694 
1613.482115  	58.940224 
1614.446539  	57.668322 
1615.410964  	56.074292 
1616.375388  	54.212223 
1617.339813  	52.781933 
1618.304237  	52.287580 
1619.268662  	51.270049 
1620.233086  	50.272264 
1621.197511  	49.225257 
1622.161935  	48.081241 
1623.126359  	46.564768 
1624.090784  	46.048862 
1625.055208  	45.725781 
1626.019633  	45.114983 
1626.984057  	44.147738 
1627.948482  	43.303704 
1628.912906  	42.901649 
1629.877331  	42.516329 
1630.841755  	42.077963 
1631.806180  	42.010505 
1632.770604  	42.127425 
1633.735028  	42.298330 
1634.699453  	41.881510 
1635.663877  	42.734742 
1636.628302  	44.630488 
1637.592726  	45.610083 
1638.557151  	47.437558 
1639.521575  	48.818132 
1640.486000  	50.134189 
1641.450424  	51.594527 
1642.414849  	52.961931 
1643.379273  	54.542493 
1644.343697  	55.778398 
1645.308122  	56.296158 
1646.272546  	57.199191 
1647.236971  	58.601430 
1648.201395  	60.266214 
1649.165820  	62.753564 
1650.130244  	64.148690 
1651.094669  	64.927519 
1652.059093  	64.679897 
1653.023518  	63.664920 
1653.987942  	66.199712 
1654.952366  	69.055672 
1655.916791  	70.910997 
1656.881215  	72.025777 
1657.845640  	73.221238 
1658.810064  	74.397542 
1659.774489  	75.428138 
1660.738913  	76.203551 
1661.703338  	76.643419 
1662.667762  	77.126339 
1663.632187  	78.782400 
1664.596611  	79.990597 
1665.561036  	80.927519 
1666.525460  	81.874053 
1667.489884  	82.323457 
1668.454309  	81.895091 
1669.418733  	82.275283 
1670.383158  	83.854756 
1671.347582  	84.137231 
1672.312007  	85.202225 
1673.276431  	86.223373 
1674.240856  	86.243125 
1675.205280  	85.726584 
1676.169705  	87.044190 
1677.134129  	88.093351 
1678.098553  	88.582919 
1679.062978  	88.653957 
1680.027402  	88.020567 
1680.991827  	88.654095 
1681.956251  	89.565554 
1682.920676  	88.883345 
1683.885100  	86.294596 
1684.849525  	86.864862 
1685.813949  	90.080095 
1686.778374  	90.922346 
1687.742798  	90.743492 
1688.707222  	90.553457 
1689.671647  	90.928600 
1690.636071  	91.267590 
1691.600496  	91.931576 
1692.564920  	92.129305 
1693.529345  	92.094407 
1694.493769  	91.611937 
1695.458194  	90.446622 
1696.422618  	89.987581 
1697.387043  	90.850573 
1698.351467  	91.103261 
1699.315891  	90.554577 
1700.280316  	88.336976 
1701.244740  	90.425700 
1702.209165  	91.377399 
1703.173589  	91.537367 
1704.138014  	91.107483 
1705.102438  	91.045347 
1706.066863  	91.021125 
1707.031287  	91.081214 
1707.995712  	91.812106 
1708.960136  	92.046417 
1709.924560  	91.632662 
1710.888985  	91.672445 
1711.853409  	92.067245 
1712.817834  	91.795274 
1713.782258  	91.002165 
1714.746683  	90.136247 
1715.711107  	90.308843 
1716.675532  	90.320520 
1717.639956  	88.980530 
1718.604381  	88.958352 
1719.568805  	90.812687 
1720.533230  	91.520970 
1721.497654  	91.618543 
1722.462078  	91.521764 
1723.426503  	91.170619 
1724.390927  	91.302944 
1725.355352  	91.555660 
1726.319776  	91.506960 
1727.284201  	91.464315 
1728.248625  	91.391307 
1729.213050  	90.750025 
1730.177474  	89.813773 
1731.141899  	90.552361 
1732.106323  	90.661508 
1733.070747  	89.497030 
1734.035172  	87.705081 
1734.999596  	89.307763 
1735.964021  	90.826924 
1736.928445  	91.156602 
1737.892870  	91.193172 
1738.857294  	91.015451 
1739.821719  	90.519221 
1740.786143  	91.300375 
1741.750568  	91.763522 
1742.714992  	91.139932 
1743.679416  	90.497467 
1744.643841  	91.296805 
1745.608265  	91.737562 
1746.572690  	91.519455 
1747.537114  	91.152042 
1748.501539  	90.935053 
1749.465963  	91.186604 
1750.430388  	91.368974 
1751.394812  	90.699355 
1752.359237  	91.844644 
1753.323661  	92.679525 
1754.288085  	93.046844 
1755.252510  	93.080097 
1756.216934  	92.515848 
1757.181359  	92.047579 
1758.145783  	92.647130 
1759.110208  	92.965691 
1760.074632  	93.122515 
1761.039057  	92.541480 
1762.003481  	91.897539 
1762.967906  	92.740487 
1763.932330  	93.225217 
1764.896754  	93.331209 
1765.861179  	93.419357 
1766.825603  	93.227103 
1767.790028  	92.432965 
1768.754452  	92.353678 
1769.718877  	93.112404 
1770.683301  	92.699325 
1771.647726  	91.760199 
1772.612150  	91.460453 
1773.576575  	92.568721 
1774.540999  	92.993383 
1775.505423  	92.662251 
1776.469848  	92.987361 
1777.434272  	93.525990 
1778.398697  	93.303440 
1779.363121  	93.019127 
1780.327546  	92.603474 
1781.291970  	92.657741 
1782.256395  	93.249594 
1783.220819  	93.495440 
1784.185244  	93.147736 
1785.149668  	92.749621 
1786.114093  	93.248491 
1787.078517  	93.542535 
1788.042941  	93.501221 
1789.007366  	93.461902 
1789.971790  	93.140085 
1790.936215  	92.352828 
1791.900639  	91.906658 
1792.865064  	91.926638 
1793.829488  	92.842057 
1794.793913  	93.118873 
1795.758337  	92.593874 
1796.722762  	92.718000 
1797.687186  	93.310469 
1798.651610  	93.218239 
1799.616035  	92.717314 
1800.580459  	92.793221 
1801.544884  	92.599816 
1802.509308  	92.499227 
1803.473733  	93.151804 
1804.438157  	93.498687 
1805.402582  	93.429732 
1806.367006  	93.407710 
1807.331431  	93.190312 
1808.295855  	93.168234 
1809.260279  	93.407274 
1810.224704  	93.035853 
1811.189128  	92.742399 
1812.153553  	93.022037 
1813.117977  	93.273593 
1814.082402  	93.572067 
1815.046826  	93.592867 
1816.011251  	93.608341 
1816.975675  	93.352815 
1817.940100  	93.230283 
1818.904524  	93.439440 
1819.868948  	93.536393 
1820.833373  	93.470704 
1821.797797  	93.381436 
1822.762222  	93.234606 
1823.726646  	93.278791 
1824.691071  	92.706111 
1825.655495  	92.255213 
1826.619920  	93.113783 
1827.584344  	93.382626 
1828.548769  	92.958433 
1829.513193  	92.064737 
1830.477617  	92.228162 
1831.442042  	93.148667 
1832.406466  	93.320383 
1833.370891  	93.206484 
1834.335315  	93.400249 
1835.299740  	93.589942 
1836.264164  	93.421349 
1837.228589  	93.021077 
1838.193013  	93.162065 
1839.157438  	93.418275 
1840.121862  	93.444086 
1841.086287  	93.413956 
1842.050711  	93.124369 
1843.015135  	92.813577 
1843.979560  	92.122627 
1844.943984  	92.161230 
1845.908409  	92.796263 
1846.872833  	92.913056 
1847.837258  	92.594491 
1848.801682  	92.924505 
1849.766107  	93.346517 
1850.730531  	93.508956 
1851.694956  	93.475032 
1852.659380  	93.460728 
1853.623804  	93.477151 
1854.588229  	93.466300 
1855.552653  	93.476882 
1856.517078  	93.478063 
1857.481502  	93.428495 
1858.445927  	93.319573 
1859.410351  	93.213121 
1860.374776  	93.225906 
1861.339200  	93.127306 
1862.303625  	93.230260 
1863.268049  	93.330492 
1864.232473  	93.343901 
1865.196898  	93.356988 
1866.161322  	93.133353 
1867.125747  	92.798488 
1868.090171  	92.316613 
1869.054596  	91.856671 
1870.019020  	92.347924 
1870.983445  	92.908514 
1871.947869  	93.240902 
1872.912294  	93.455948 
1873.876718  	93.494456 
1874.841142  	93.448296 
1875.805567  	93.386429 
1876.769991  	93.392049 
1877.734416  	93.487841 
1878.698840  	93.383663 
1879.663265  	93.254570 
1880.627689  	93.296360 
1881.592114  	93.349872 
1882.556538  	93.322202 
1883.520963  	93.338454 
1884.485387  	93.272926 
1885.449811  	93.244850 
1886.414236  	93.419131 
1887.378660  	93.485716 
1888.343085  	93.171599 
1889.307509  	92.516338 
1890.271934  	92.636872 
1891.236358  	93.195373 
1892.200783  	93.293561 
1893.165207  	93.365007 
1894.129632  	93.253602 
1895.094056  	92.874847 
1896.058480  	92.987166 
1897.022905  	93.340540 
1897.987329  	93.286332 
1898.951754  	93.241526 
1899.916178  	93.310359 
1900.880603  	93.355388 
1901.845027  	93.202556 
1902.809452  	93.299550 
1903.773876  	93.338897 
1904.738301  	93.276719 
1905.702725  	93.291176 
1906.667150  	93.360785 
1907.631574  	93.102908 
1908.595998  	93.014260 
1909.560423  	92.857830 
1910.524847  	92.824921 
1911.489272  	93.150760 
1912.453696  	93.265012 
1913.418121  	93.182701 
1914.382545  	93.190318 
1915.346970  	93.373020 
1916.311394  	93.398207 
1917.275819  	92.895759 
1918.240243  	92.297377 
1919.204667  	92.911245 
1920.169092  	93.302334 
1921.133516  	93.250892 
1922.097941  	92.701216 
1923.062365  	92.165458 
1924.026790  	92.932909 
1924.991214  	93.428404 
1925.955639  	93.346367 
1926.920063  	93.388762 
1927.884488  	93.376831 
1928.848912  	93.321410 
1929.813336  	93.445165 
1930.777761  	93.457529 
1931.742185  	93.402442 
1932.706610  	93.478797 
1933.671034  	93.585656 
1934.635459  	93.545117 
1935.599883  	93.490344 
1936.564308  	93.533040 
1937.528732  	93.472746 
1938.493157  	93.383167 
1939.457581  	93.571302 
1940.422005  	93.554311 
1941.386430  	93.203914 
1942.350854  	92.472534 
1943.315279  	92.645209 
1944.279703  	93.260216 
1945.244128  	93.191212 
1946.208552  	93.141185 
1947.172977  	93.218625 
1948.137401  	93.309486 
1949.101826  	93.525526 
1950.066250  	93.683984 
1951.030674  	93.524840 
1951.995099  	93.333230 
1952.959523  	93.520342 
1953.923948  	93.544659 
1954.888372  	93.410841 
1955.852797  	93.363431 
1956.817221  	93.694926 
1957.781646  	93.718824 
1958.746070  	93.741117 
1959.710495  	93.862036 
1960.674919  	93.745409 
1961.639344  	93.615854 
1962.603768  	93.537313 
1963.568192  	93.513086 
1964.532617  	93.829161 
1965.497041  	94.190946 
1966.461466  	94.259477 
1967.425890  	93.765829 
1968.390315  	93.927776 
1969.354739  	94.065656 
1970.319164  	93.867065 
1971.283588  	93.712562 
1972.248013  	93.862646 
1973.212437  	93.989179 
1974.176861  	93.839015 
1975.141286  	93.495790 
1976.105710  	93.553438 
1977.070135  	93.927535 
1978.034559  	93.767026 
1978.998984  	93.035083 
1979.963408  	92.729091 
1980.927833  	92.811717 
1981.892257  	93.088464 
1982.856682  	93.193605 
1983.821106  	93.240056 
1984.785530  	93.152965 
1985.749955  	93.154061 
1986.714379  	93.286435 
1987.678804  	93.135600 
1988.643228  	93.121409 
1989.607653  	93.601240 
1990.572077  	93.532996 
1991.536502  	93.111975 
1992.500926  	92.894227 
1993.465351  	93.131154 
1994.429775  	93.375155 
1995.394199  	93.519964 
1996.358624  	93.351677 
1997.323048  	93.366101 
1998.287473  	93.373735 
1999.251897  	93.525042 
2000.216322  	93.644298 
2001.180746  	93.831235 
2002.145171  	93.790711 
2003.109595  	93.956036 
2004.074020  	94.136748 
2005.038444  	94.261386 
2006.002868  	94.182374 
2006.967293  	93.901615 
2007.931717  	93.249175 
2008.896142  	93.129531 
2009.860566  	93.308108 
2010.824991  	93.452879 
2011.789415  	93.644538 
2012.753840  	94.019561 
2013.718264  	93.798608 
2014.682689  	93.816262 
2015.647113  	94.015712 
2016.611537  	93.483439 
2017.575962  	93.009455 
2018.540386  	93.465755 
2019.504811  	93.659503 
2020.469235  	93.730151 
2021.433660  	93.777915 
2022.398084  	93.740843 
2023.362509  	93.809473 
2024.326933  	93.769308 
2025.291358  	93.626532 
2026.255782  	93.552357 
2027.220207  	93.498145 
2028.184631  	93.733063 
2029.149055  	93.977425 
2030.113480  	93.920691 
2031.077904  	93.706790 
2032.042329  	93.572623 
2033.006753  	93.605114 
2033.971178  	93.634934 
2034.935602  	93.554862 
2035.900027  	93.448698 
2036.864451  	93.211056 
2037.828876  	93.244237 
2038.793300  	93.379237 
2039.757724  	93.303111 
2040.722149  	92.956658 
2041.686573  	92.914748 
2042.650998  	92.988771 
2043.615422  	92.962809 
2044.579847  	93.088917 
2045.544271  	93.408891 
2046.508696  	93.259052 
2047.473120  	93.167192 
2048.437545  	93.385362 
2049.401969  	93.372600 
2050.366393  	92.987152 
2051.330818  	92.939143 
2052.295242  	93.374735 
2053.259667  	93.530208 
2054.224091  	93.241248 
2055.188516  	93.028852 
2056.152940  	93.005211 
2057.117365  	93.031389 
2058.081789  	93.128086 
2059.046214  	93.219666 
2060.010638  	93.056462 
2060.975062  	93.027959 
2061.939487  	93.163657 
2062.903911  	93.131238 
2063.868336  	92.995300 
2064.832760  	92.961967 
2065.797185  	92.964409 
2066.761609  	93.070257 
2067.726034  	93.256365 
2068.690458  	93.199584 
2069.654883  	93.049885 
2070.619307  	93.037185 
2071.583731  	93.036040 
2072.548156  	93.176732 
2073.512580  	93.092890 
2074.477005  	92.943776 
2075.441429  	93.070360 
2076.405854  	93.075031 
2077.370278  	92.996605 
2078.334703  	93.051918 
2079.299127  	92.991562 
2080.263552  	92.998633 
2081.227976  	92.949131 
2082.192401  	92.963237 
2083.156825  	92.831218 
2084.121249  	92.831558 
2085.085674  	93.003058 
2086.050098  	93.065837 
2087.014523  	92.971555 
2087.978947  	93.013315 
2088.943372  	93.014753 
2089.907796  	92.968412 
2090.872221  	93.006493 
2091.836645  	93.317996 
2092.801070  	93.314857 
2093.765494  	93.229195 
2094.729918  	93.181447 
2095.694343  	93.054166 
2096.658767  	92.875525 
2097.623192  	92.885345 
2098.587616  	92.914174 
2099.552041  	92.926912 
2100.516465  	92.833516 
2101.480890  	92.890949 
2102.445314  	92.933519 
2103.409739  	93.047996 
2104.374163  	93.036924 
2105.338587  	92.884916 
2106.303012  	92.753470 
2107.267436  	92.809947 
2108.231861  	92.876224 
2109.196285  	92.930531 
2110.160710  	93.022153 
2111.125134  	93.083961 
2112.089559  	92.990981 
2113.053983  	92.948407 
2114.018408  	92.942150 
2114.982832  	92.948699 
2115.947256  	92.900924 
2116.911681  	93.047320 
2117.876105  	93.159439 
2118.840530  	93.057473 
2119.804954  	93.069606 
2120.769379  	93.092968 
2121.733803  	93.033148 
2122.698228  	93.142837 
2123.662652  	93.099490 
2124.627077  	93.057528 
2125.591501  	93.223630 
2126.555925  	93.414924 
2127.520350  	93.326028 
2128.484774  	93.320035 
2129.449199  	93.445384 
2130.413623  	93.637174 
2131.378048  	93.626866 
2132.342472  	93.589334 
2133.306897  	93.438088 
2134.271321  	93.281243 
2135.235746  	93.141880 
2136.200170  	93.192407 
2137.164594  	93.480544 
2138.129019  	93.594641 
2139.093443  	93.585292 
2140.057868  	93.500755 
2141.022292  	93.416714 
2141.986717  	93.488110 
2142.951141  	93.425836 
2143.915566  	93.731536 
2144.879990  	93.811384 
2145.844415  	93.727619 
2146.808839  	93.490543 
2147.773264  	93.464904 
2148.737688  	93.378012 
2149.702112  	93.442920 
2150.666537  	93.622028 
2151.630961  	93.690480 
2152.595386  	93.830335 
2153.559810  	93.815460 
2154.524235  	93.930350 
2155.488659  	94.124989 
2156.453084  	94.297852 
2157.417508  	94.249903 
2158.381933  	93.872712 
2159.346357  	93.619197 
2160.310781  	93.375017 
2161.275206  	92.982267 
2162.239630  	93.114577 
2163.204055  	93.577372 
2164.168479  	93.472057 
2165.132904  	93.071160 
2166.097328  	93.013051 
2167.061753  	93.392144 
2168.026177  	93.280992 
2168.990602  	92.905711 
2169.955026  	92.914498 
2170.919450  	93.438776 
2171.883875  	93.349906 
2172.848299  	93.049124 
2173.812724  	92.953153 
2174.777148  	93.273094 
2175.741573  	93.266426 
2176.705997  	93.076517 
2177.670422  	92.968406 
2178.634846  	93.065793 
2179.599271  	93.193077 
2180.563695  	93.281790 
2181.528119  	93.308474 
2182.492544  	93.169329 
2183.456968  	92.781717 
2184.421393  	92.763678 
2185.385817  	93.010818 
2186.350242  	93.229823 
2187.314666  	93.025721 
2188.279091  	93.137861 
2189.243515  	93.084013 
2190.207940  	93.016574 
2191.172364  	93.111419 
2192.136788  	93.359813 
2193.101213  	93.486515 
2194.065637  	93.169210 
2195.030062  	92.888825 
2195.994486  	92.796674 
2196.958911  	92.864201 
2197.923335  	92.954638 
2198.887760  	92.886507 
2199.852184  	93.068254 
2200.816609  	93.165685 
2201.781033  	93.074356 
2202.745458  	92.972945 
2203.709882  	93.028896 
2204.674306  	93.034984 
2205.638731  	93.013151 
2206.603155  	92.967880 
2207.567580  	93.108119 
2208.532004  	92.988887 
2209.496429  	92.852256 
2210.460853  	92.895007 
2211.425278  	93.031898 
2212.389702  	92.962667 
2213.354127  	92.808124 
2214.318551  	92.766783 
2215.282975  	92.897651 
2216.247400  	92.982164 
2217.211824  	93.151551 
2218.176249  	93.164188 
2219.140673  	93.049940 
2220.105098  	92.753645 
2221.069522  	92.786279 
2222.033947  	92.844226 
2222.998371  	92.933829 
2223.962796  	92.978445 
2224.927220  	92.967211 
2225.891644  	92.898735 
2226.856069  	93.005552 
2227.820493  	92.981085 
2228.784918  	92.962184 
2229.749342  	92.907081 
2230.713767  	92.933949 
2231.678191  	92.805101 
2232.642616  	92.806456 
2233.607040  	92.988869 
2234.571465  	93.039244 
2235.535889  	92.952882 
2236.500313  	92.945539 
2237.464738  	92.968379 
2238.429162  	93.003721 
2239.393587  	92.842065 
2240.358011  	92.763375 
2241.322436  	92.997070 
2242.286860  	93.088943 
2243.251285  	93.026805 
2244.215709  	92.974720 
2245.180134  	92.848995 
2246.144558  	92.837444 
2247.108982  	92.946747 
2248.073407  	92.983994 
2249.037831  	92.910624 
2250.002256  	92.888275 
2250.966680  	92.959059 
2251.931105  	93.076590 
2252.895529  	93.076290 
2253.859954  	93.062669 
2254.824378  	92.956588 
2255.788803  	92.966616 
2256.753227  	92.927173 
2257.717651  	92.958573 
2258.682076  	92.905309 
2259.646500  	92.886365 
2260.610925  	92.841471 
2261.575349  	92.854276 
2262.539774  	92.817444 
2263.504198  	92.900347 
2264.468623  	92.909187 
2265.433047  	92.905034 
2266.397472  	92.892904 
2267.361896  	92.856873 
2268.326321  	92.866459 
2269.290745  	92.893079 
2270.255169  	92.899786 
2271.219594  	92.922405 
2272.184018  	92.808786 
2273.148443  	92.747776 
2274.112867  	92.749278 
2275.077292  	92.783547 
2276.041716  	92.680852 
2277.006141  	92.658379 
2277.970565  	92.689674 
2278.934990  	92.699026 
2279.899414  	92.716392 
2280.863838  	92.753808 
2281.828263  	92.728619 
2282.792687  	92.674471 
2283.757112  	92.592559 
2284.721536  	92.620987 
2285.685961  	92.671342 
2286.650385  	92.788960 
2287.614810  	92.747147 
2288.579234  	92.647370 
2289.543659  	92.600914 
2290.508083  	92.708058 
2291.472507  	92.729041 
2292.436932  	92.714798 
2293.401356  	92.636515 
2294.365781  	92.650330 
2295.330205  	92.676770 
2296.294630  	92.657812 
2297.259054  	92.565782 
2298.223479  	92.530965 
2299.187903  	92.602742 
2300.152328  	92.651850 
2301.116752  	92.638768 
2302.081176  	92.662693 
2303.045601  	92.623856 
2304.010025  	92.682484 
2304.974450  	92.592638 
2305.938874  	92.629958 
2306.903299  	92.560856 
2307.867723  	92.640564 
2308.832148  	92.546407 
2309.796572  	92.666899 
2310.760997  	92.559050 
2311.725421  	92.595066 
2312.689845  	92.600326 
2313.654270  	92.756155 
2314.618694  	92.688503 
2315.583119  	92.799907 
2316.547543  	92.845598 
2317.511968  	92.977080 
2318.476392  	92.873871 
2319.440817  	92.892365 
2320.405241  	92.928108 
2321.369666  	93.113025 
2322.334090  	93.136127 
2323.298515  	93.107328 
2324.262939  	93.058090 
2325.227363  	93.452337 
2326.191788  	93.769146 
2327.156212  	93.901951 
2328.120637  	93.957959 
2329.085061  	94.035490 
2330.049486  	94.085902 
2331.013910  	94.100757 
2331.978335  	94.230289 
2332.942759  	94.307567 
2333.907184  	94.354314 
2334.871608  	94.399813 
2335.836032  	94.547817 
2336.800457  	94.709674 
2337.764881  	94.739761 
2338.729306  	94.682870 
2339.693730  	94.647805 
2340.658155  	94.739858 
2341.622579  	94.836955 
2342.587004  	94.825699 
2343.551428  	94.688802 
2344.515853  	94.472276 
2345.480277  	94.230575 
2346.444701  	93.953968 
2347.409126  	93.772991 
2348.373550  	93.483899 
2349.337975  	93.280335 
2350.302399  	93.535944 
2351.266824  	93.983132 
2352.231248  	94.461286 
2353.195673  	94.687637 
2354.160097  	94.729394 
2355.124522  	94.909864 
2356.088946  	95.201623 
2357.053370  	95.225691 
2358.017795  	95.257313 
2358.982219  	95.378627 
2359.946644  	95.671897 
2360.911068  	95.672897 
2361.875493  	95.452326 
2362.839917  	95.300613 
2363.804342  	95.363639 
2364.768766  	95.345028 
2365.733191  	95.388180 
2366.697615  	95.208106 
2367.662039  	94.931590 
2368.626464  	94.655441 
2369.590888  	94.384863 
2370.555313  	94.110137 
2371.519737  	93.908495 
2372.484162  	93.768046 
2373.448586  	93.683800 
2374.413011  	93.549245 
2375.377435  	93.402288 
2376.341860  	93.233442 
2377.306284  	93.088332 
2378.270708  	92.967093 
2379.235133  	92.805184 
2380.199557  	92.752547 
2381.163982  	92.751884 
2382.128406  	92.749970 
2383.092831  	92.773739 
2384.057255  	92.796882 
2385.021680  	92.819351 
2385.986104  	92.876810 
2386.950529  	92.910433 
2387.914953  	92.940724 
2388.879378  	92.974604 
2389.843802  	92.999843 
2390.808226  	93.014138 
2391.772651  	93.005655 
2392.737075  	92.991478 
2393.701500  	92.998478 
2394.665924  	93.006714 
2395.630349  	93.008119 
2396.594773  	92.979445 
2397.559198  	92.935434 
2398.523622  	92.969433 
2399.488047  	92.989623 
2400.452471  	92.972925 
2401.416895  	92.953661 
2402.381320  	92.961559 
2403.345744  	92.994897 
2404.310169  	93.000188 
2405.274593  	92.957148 
2406.239018  	92.921452 
2407.203442  	92.902539 
2408.167867  	92.908127 
2409.132291  	92.932110 
2410.096716  	92.893863 
2411.061140  	92.816710 
2412.025564  	92.865738 
2412.989989  	92.881502 
2413.954413  	92.823515 
2414.918838  	92.887938 
2415.883262  	92.896013 
2416.847687  	92.834168 
2417.812111  	92.871396 
2418.776536  	92.877232 
2419.740960  	92.883089 
2420.705385  	92.923214 
2421.669809  	92.894373 
2422.634233  	92.871038 
2423.598658  	92.867876 
2424.563082  	92.888261 
2425.527507  	92.930167 
2426.491931  	92.846552 
2427.456356  	92.809360 
2428.420780  	92.941768 
2429.385205  	92.947239 
2430.349629  	92.917218 
2431.314054  	92.897417 
2432.278478  	92.883946 
2433.242902  	92.886122 
2434.207327  	92.837764 
2435.171751  	92.833415 
2436.136176  	92.882117 
2437.100600  	92.888304 
2438.065025  	92.839695 
2439.029449  	92.884913 
2439.993874  	92.885627 
2440.958298  	92.866912 
2441.922723  	92.820229 
2442.887147  	92.814319 
2443.851572  	92.856439 
2444.815996  	92.874368 
2445.780420  	92.814625 
2446.744845  	92.699016 
2447.709269  	92.748114 
2448.673694  	92.907002 
2449.638118  	92.893588 
2450.602543  	92.816252 
2451.566967  	92.746528 
2452.531392  	92.744346 
2453.495816  	92.774829 
2454.460241  	92.794927 
2455.424665  	92.813591 
2456.389089  	92.788437 
2457.353514  	92.769359 
2458.317938  	92.787723 
2459.282363  	92.762513 
2460.246787  	92.752097 
2461.211212  	92.735926 
2462.175636  	92.768525 
2463.140061  	92.794747 
2464.104485  	92.797219 
2465.068910  	92.782397 
2466.033334  	92.739011 
2466.997758  	92.755220 
2467.962183  	92.822272 
2468.926607  	92.810666 
2469.891032  	92.817042 
2470.855456  	92.793142 
2471.819881  	92.783437 
2472.784305  	92.816518 
2473.748730  	92.836518 
2474.713154  	92.853161 
2475.677579  	92.821089 
2476.642003  	92.735440 
2477.606427  	92.737412 
2478.570852  	92.786851 
2479.535276  	92.786481 
2480.499701  	92.737767 
2481.464125  	92.763808 
2482.428550  	92.828016 
2483.392974  	92.830071 
2484.357399  	92.845654 
2485.321823  	92.780755 
2486.286248  	92.733734 
2487.250672  	92.772605 
2488.215096  	92.819135 
2489.179521  	92.778371 
2490.143945  	92.717841 
2491.108370  	92.721202 
2492.072794  	92.725406 
2493.037219  	92.707718 
2494.001643  	92.731857 
2494.966068  	92.821374 
2495.930492  	92.836798 
2496.894917  	92.801123 
2497.859341  	92.788586 
2498.823765  	92.762865 
2499.788190  	92.751090 
2500.752614  	92.722434 
2501.717039  	92.680129 
2502.681463  	92.689875 
2503.645888  	92.743973 
2504.610312  	92.729548 
2505.574737  	92.687486 
2506.539161  	92.731631 
2507.503586  	92.797008 
2508.468010  	92.780748 
2509.432435  	92.728229 
2510.396859  	92.699897 
2511.361283  	92.679313 
2512.325708  	92.665657 
2513.290132  	92.681413 
2514.254557  	92.720474 
2515.218981  	92.712387 
2516.183406  	92.729827 
2517.147830  	92.777138 
2518.112255  	92.701086 
2519.076679  	92.681622 
2520.041104  	92.696317 
2521.005528  	92.640932 
2521.969952  	92.624246 
2522.934377  	92.647290 
2523.898801  	92.701108 
2524.863226  	92.703796 
2525.827650  	92.664511 
2526.792075  	92.720472 
2527.756499  	92.729042 
2528.720924  	92.679697 
2529.685348  	92.636294 
2530.649773  	92.660226 
2531.614197  	92.690109 
2532.578621  	92.715802 
2533.543046  	92.709503 
2534.507470  	92.669794 
2535.471895  	92.656966 
2536.436319  	92.671594 
2537.400744  	92.729461 
2538.365168  	92.659719 
2539.329593  	92.650702 
2540.294017  	92.631349 
2541.258442  	92.580218 
2542.222866  	92.600869 
2543.187290  	92.630955 
2544.151715  	92.634080 
2545.116139  	92.637729 
2546.080564  	92.617403 
2547.044988  	92.561269 
2548.009413  	92.490949 
2548.973837  	92.508029 
2549.938262  	92.576820 
2550.902686  	92.637895 
2551.867111  	92.620858 
2552.831535  	92.532440 
2553.795959  	92.513935 
2554.760384  	92.550864 
2555.724808  	92.508207 
2556.689233  	92.435020 
2557.653657  	92.443235 
2558.618082  	92.497590 
2559.582506  	92.586257 
2560.546931  	92.554034 
2561.511355  	92.470724 
2562.475780  	92.492120 
2563.440204  	92.510369 
2564.404629  	92.536252 
2565.369053  	92.514363 
2566.333477  	92.503212 
2567.297902  	92.507863 
2568.262326  	92.487431 
2569.226751  	92.397480 
2570.191175  	92.320220 
2571.155600  	92.355495 
2572.120024  	92.434009 
2573.084449  	92.475721 
2574.048873  	92.432849 
2575.013298  	92.344561 
2575.977722  	92.371766 
2576.942146  	92.411004 
2577.906571  	92.390352 
2578.870995  	92.370953 
2579.835420  	92.361185 
2580.799844  	92.372799 
2581.764269  	92.354362 
2582.728693  	92.343067 
2583.693118  	92.312852 
2584.657542  	92.281500 
2585.621967  	92.344307 
2586.586391  	92.370644 
2587.550815  	92.358371 
2588.515240  	92.306537 
2589.479664  	92.267330 
2590.444089  	92.302741 
2591.408513  	92.352467 
2592.372938  	92.337075 
2593.337362  	92.296708 
2594.301787  	92.264823 
2595.266211  	92.264673 
2596.230636  	92.280958 
2597.195060  	92.313194 
2598.159484  	92.324013 
2599.123909  	92.341748 
2600.088333  	92.333676 
2601.052758  	92.292654 
2602.017182  	92.269627 
2602.981607  	92.299599 
2603.946031  	92.284470 
2604.910456  	92.271591 
2605.874880  	92.263822 
2606.839305  	92.263167 
2607.803729  	92.270387 
2608.768153  	92.282178 
2609.732578  	92.263997 
2610.697002  	92.252326 
2611.661427  	92.244191 
2612.625851  	92.240219 
2613.590276  	92.266804 
2614.554700  	92.269961 
2615.519125  	92.257262 
2616.483549  	92.270146 
2617.447974  	92.266892 
2618.412398  	92.285203 
2619.376822  	92.252125 
2620.341247  	92.269891 
2621.305671  	92.289960 
2622.270096  	92.268902 
2623.234520  	92.252750 
2624.198945  	92.222101 
2625.163369  	92.245090 
2626.127794  	92.242126 
2627.092218  	92.218449 
2628.056643  	92.208585 
2629.021067  	92.198474 
2629.985492  	92.223426 
2630.949916  	92.269472 
2631.914340  	92.266601 
2632.878765  	92.203804 
2633.843189  	92.189757 
2634.807614  	92.201567 
2635.772038  	92.216254 
2636.736463  	92.182500 
2637.700887  	92.200555 
2638.665312  	92.216701 
2639.629736  	92.186792 
2640.594161  	92.193711 
2641.558585  	92.213947 
2642.523009  	92.171779 
2643.487434  	92.159370 
2644.451858  	92.163373 
2645.416283  	92.150688 
2646.380707  	92.159756 
2647.345132  	92.156960 
2648.309556  	92.143389 
2649.273981  	92.129717 
2650.238405  	92.111869 
2651.202830  	92.131115 
2652.167254  	92.141263 
2653.131678  	92.135288 
2654.096103  	92.127499 
2655.060527  	92.121604 
2656.024952  	92.117838 
2656.989376  	92.093596 
2657.953801  	92.066962 
2658.918225  	92.095516 
2659.882650  	92.128192 
2660.847074  	92.131008 
2661.811499  	92.145840 
2662.775923  	92.145084 
2663.740347  	92.134320 
2664.704772  	92.128096 
2665.669196  	92.151955 
2666.633621  	92.165116 
2667.598045  	92.147836 
2668.562470  	92.143628 
2669.526894  	92.134520 
2670.491319  	92.118170 
2671.455743  	92.126979 
2672.420168  	92.146961 
2673.384592  	92.125026 
2674.349016  	92.101488 
2675.313441  	92.113239 
2676.277865  	92.112807 
2677.242290  	92.124062 
2678.206714  	92.109681 
2679.171139  	92.059041 
2680.135563  	92.047472 
2681.099988  	92.078221 
2682.064412  	92.110042 
2683.028837  	92.089435 
2683.993261  	92.062164 
2684.957686  	92.075299 
2685.922110  	92.070451 
2686.886534  	92.023213 
2687.850959  	92.010950 
2688.815383  	92.019449 
2689.779808  	92.010759 
2690.744232  	92.020124 
2691.708657  	92.040464 
2692.673081  	92.030970 
2693.637506  	92.018312 
2694.601930  	92.017643 
2695.566355  	92.014268 
2696.530779  	92.007031 
2697.495203  	92.009183 
2698.459628  	92.002444 
2699.424052  	91.976340 
2700.388477  	91.949078 
2701.352901  	91.931158 
2702.317326  	91.947893 
2703.281750  	91.968317 
2704.246175  	91.975536 
2705.210599  	91.960544 
2706.175024  	91.951123 
2707.139448  	91.972334 
2708.103872  	91.951460 
2709.068297  	91.963489 
2710.032721  	91.960734 
2710.997146  	91.916421 
2711.961570  	91.900787 
2712.925995  	91.929211 
2713.890419  	91.927732 
2714.854844  	91.884184 
2715.819268  	91.851635 
2716.783693  	91.853176 
2717.748117  	91.852836 
2718.712541  	91.844634 
2719.676966  	91.818754 
2720.641390  	91.814348 
2721.605815  	91.835657 
2722.570239  	91.814152 
2723.534664  	91.796940 
2724.499088  	91.770935 
2725.463513  	91.732128 
2726.427937  	91.707223 
2727.392362  	91.701602 
2728.356786  	91.688481 
2729.321210  	91.637430 
2730.285635  	91.622197 
2731.250059  	91.605329 
2732.214484  	91.597260 
2733.178908  	91.561350 
2734.143333  	91.537414 
2735.107757  	91.523767 
2736.072182  	91.528232 
2737.036606  	91.517037 
2738.001031  	91.476720 
2738.965455  	91.445648 
2739.929879  	91.444425 
2740.894304  	91.439751 
2741.858728  	91.445568 
2742.823153  	91.417396 
2743.787577  	91.380879 
2744.752002  	91.378711 
2745.716426  	91.366697 
2746.680851  	91.358661 
2747.645275  	91.361886 
2748.609700  	91.352787 
2749.574124  	91.354166 
2750.538549  	91.344057 
2751.502973  	91.305674 
2752.467397  	91.314799 
2753.431822  	91.324016 
2754.396246  	91.304782 
2755.360671  	91.299531 
2756.325095  	91.293662 
2757.289520  	91.271548 
2758.253944  	91.270862 
2759.218369  	91.266857 
2760.182793  	91.213136 
2761.147218  	91.184117 
2762.111642  	91.206481 
2763.076066  	91.210711 
2764.040491  	91.210926 
2765.004915  	91.194439 
2765.969340  	91.153241 
2766.933764  	91.139492 
2767.898189  	91.125592 
2768.862613  	91.117630 
2769.827038  	91.113400 
2770.791462  	91.090957 
2771.755887  	91.062266 
2772.720311  	91.042309 
2773.684735  	91.044445 
2774.649160  	91.050275 
2775.613584  	91.039224 
2776.578009  	91.016711 
2777.542433  	91.001518 
2778.506858  	90.992693 
2779.471282  	90.998239 
2780.435707  	90.965042 
2781.400131  	90.931993 
2782.364556  	90.918311 
2783.328980  	90.892947 
2784.293404  	90.883790 
2785.257829  	90.869727 
2786.222253  	90.863993 
2787.186678  	90.849888 
2788.151102  	90.800704 
2789.115527  	90.801376 
2790.079951  	90.790629 
2791.044376  	90.770560 
2792.008800  	90.743846 
2792.973225  	90.685422 
2793.937649  	90.646671 
2794.902073  	90.603938 
2795.866498  	90.586176 
2796.830922  	90.552955 
2797.795347  	90.531023 
2798.759771  	90.499603 
2799.724196  	90.448762 
2800.688620  	90.377261 
2801.653045  	90.343841 
2802.617469  	90.347263 
2803.581894  	90.355321 
2804.546318  	90.306313 
2805.510743  	90.229086 
2806.475167  	90.163803 
2807.439591  	90.150610 
2808.404016  	90.118433 
2809.368440  	90.069173 
2810.332865  	90.039842 
2811.297289  	89.964138 
2812.261714  	89.887108 
2813.226138  	89.871115 
2814.190563  	89.801595 
2815.154987  	89.759259 
2816.119412  	89.714638 
2817.083836  	89.634431 
2818.048260  	89.543774 
2819.012685  	89.475348 
2819.977109  	89.447702 
2820.941534  	89.376692 
2821.905958  	89.291287 
2822.870383  	89.212294 
2823.834807  	89.157735 
2824.799232  	89.081718 
2825.763656  	89.036261 
2826.728081  	89.007234 
2827.692505  	88.944550 
2828.656929  	88.903541 
2829.621354  	88.847599 
2830.585778  	88.797255 
2831.550203  	88.725943 
2832.514627  	88.600707 
2833.479052  	88.490031 
2834.443476  	88.387704 
2835.407901  	88.268126 
2836.372325  	88.103296 
2837.336750  	87.909616 
2838.301174  	87.659218 
2839.265598  	87.387592 
2840.230023  	87.131773 
2841.194447  	86.820095 
2842.158872  	86.424287 
2843.123296  	85.972265 
2844.087721  	85.440107 
2845.052145  	84.834725 
2846.016570  	84.127265 
2846.980994  	83.352687 
2847.945419  	82.507405 
2848.909843  	81.628624 
2849.874267  	80.830528 
2850.838692  	80.199808 
2851.803116  	79.715292 
2852.767541  	79.278379 
2853.731965  	78.875366 
2854.696390  	78.506766 
2855.660814  	78.200100 
2856.625239  	77.930903 
2857.589663  	77.737381 
2858.554088  	77.640774 
2859.518512  	77.616117 
2860.482936  	77.655531 
2861.447361  	77.766395 
2862.411785  	77.986809 
2863.376210  	78.241856 
2864.340634  	78.464003 
2865.305059  	78.738386 
2866.269483  	79.061846 
2867.233908  	79.259962 
2868.198332  	79.395562 
2869.162757  	79.563793 
2870.127181  	79.698844 
2871.091606  	79.832631 
2872.056030  	79.992225 
2873.020454  	80.171300 
2873.984879  	80.353616 
2874.949303  	80.560897 
2875.913728  	80.816972 
2876.878152  	81.142037 
2877.842577  	81.475276 
2878.807001  	81.845872 
2879.771426  	82.279909 
2880.735850  	82.648152 
2881.700275  	82.984135 
2882.664699  	83.323004 
2883.629123  	83.624899 
2884.593548  	83.864209 
2885.557972  	84.062740 
2886.522397  	84.185920 
2887.486821  	84.269785 
2888.451246  	84.290226 
2889.415670  	84.291501 
2890.380095  	84.259693 
2891.344519  	84.154174 
2892.308944  	84.026106 
2893.273368  	83.849120 
2894.237792  	83.650232 
2895.202217  	83.405060 
2896.166641  	83.175719 
2897.131066  	82.902618 
2898.095490  	82.608783 
2899.059915  	82.279272 
2900.024339  	81.914669 
2900.988764  	81.562576 
2901.953188  	81.230223 
2902.917613  	80.868430 
2903.882037  	80.506148 
2904.846461  	80.167352 
2905.810886  	79.817808 
2906.775310  	79.467716 
2907.739735  	79.113879 
2908.704159  	78.768401 
2909.668584  	78.446749 
2910.633008  	78.104318 
2911.597433  	77.766739 
2912.561857  	77.391396 
2913.526282  	76.949697 
2914.490706  	76.465845 
2915.455130  	75.944157 
2916.419555  	75.445938 
2917.383979  	75.031209 
2918.348404  	74.641004 
2919.312828  	74.277506 
2920.277253  	73.932102 
2921.241677  	73.610842 
2922.206102  	73.311772 
2923.170526  	73.031521 
2924.134951  	72.754868 
2925.099375  	72.472594 
2926.063800  	72.181395 
2927.028224  	71.907322 
2927.992648  	71.649812 
2928.957073  	71.415273 
2929.921497  	71.180595 
2930.885922  	70.995604 
2931.850346  	70.879091 
2932.814771  	70.862226 
2933.779195  	70.913640 
2934.743620  	71.046040 
2935.708044  	71.294464 
2936.672469  	71.616058 
2937.636893  	72.038000 
2938.601317  	72.563853 
2939.565742  	73.116310 
2940.530166  	73.704765 
2941.494591  	74.298467 
2942.459015  	74.843911 
2943.423440  	75.383632 
2944.387864  	75.872301 
2945.352289  	76.354176 
2946.316713  	76.952232 
2947.281138  	77.630998 
2948.245562  	78.382743 
2949.209986  	79.127224 
2950.174411  	79.856566 
2951.138835  	80.637871 
2952.103260  	81.368325 
2953.067684  	82.031292 
2954.032109  	82.663998 
2954.996533  	83.269723 
2955.960958  	83.820961 
2956.925382  	84.323299 
2957.889807  	84.802971 
2958.854231  	85.236085 
2959.818655  	85.595483 
2960.783080  	85.949182 
2961.747504  	86.272196 
2962.711929  	86.557976 
2963.676353  	86.847541 
2964.640778  	87.118995 
2965.605202  	87.360925 
2966.569627  	87.568780 
2967.534051  	87.879240 
2968.498476  	88.208621 
2969.462900  	88.471262 
2970.427324  	88.702931 
2971.391749  	88.921326 
2972.356173  	89.145642 
2973.320598  	89.398191 
2974.285022  	89.616049 
2975.249447  	89.773108 
2976.213871  	89.942440 
2977.178296  	90.130387 
2978.142720  	90.266017 
2979.107145  	90.414272 
2980.071569  	90.570159 
2981.035993  	90.685456 
2982.000418  	90.826007 
2982.964842  	90.968143 
2983.929267  	91.034031 
2984.893691  	91.085883 
2985.858116  	91.157236 
2986.822540  	91.266560 
2987.786965  	91.296359 
2988.751389  	91.300773 
2989.715814  	91.364105 
2990.680238  	91.432812 
2991.644663  	91.460150 
2992.609087  	91.486436 
2993.573511  	91.520186 
2994.537936  	91.570741 
2995.502360  	91.629884 
2996.466785  	91.630588 
2997.431209  	91.635643 
2998.395634  	91.615583 
2999.360058  	91.594298 
3000.324483  	91.639504 
3001.288907  	91.653203 
3002.253332  	91.616619 
3003.217756  	91.603890 
3004.182180  	91.588568 
3005.146605  	91.575572 
3006.111029  	91.582743 
3007.075454  	91.588971 
3008.039878  	91.604766 
3009.004303  	91.616129 
3009.968727  	91.598686 
3010.933152  	91.576516 
3011.897576  	91.552043 
3012.862001  	91.435876 
3013.826425  	91.448242 
3014.790849  	91.505801 
3015.755274  	91.460880 
3016.719698  	91.417557 
3017.684123  	91.422912 
3018.648547  	91.381913 
3019.612972  	91.328536 
3020.577396  	91.322979 
3021.541821  	91.277409 
3022.506245  	91.212139 
3023.470670  	91.170418 
3024.435094  	91.167780 
3025.399518  	91.165853 
3026.363943  	91.110289 
3027.328367  	91.047682 
3028.292792  	91.033164 
3029.257216  	91.006388 
3030.221641  	90.861155 
3031.186065  	90.687752 
3032.150490  	90.620324 
3033.114914  	90.668933 
3034.079339  	90.645656 
3035.043763  	90.599382 
3036.008187  	90.540314 
3036.972612  	90.496117 
3037.937036  	90.401077 
3038.901461  	90.279099 
3039.865885  	90.190508 
3040.830310  	90.174799 
3041.794734  	90.099135 
3042.759159  	89.961527 
3043.723583  	89.877362 
3044.688008  	89.826699 
3045.652432  	89.729487 
3046.616857  	89.572391 
3047.581281  	89.418414 
3048.545705  	89.249795 
3049.510130  	89.135197 
3050.474554  	89.080354 
3051.438979  	89.006599 
3052.403403  	88.893587 
3053.367828  	88.776051 
3054.332252  	88.696127 
3055.296677  	88.602105 
3056.261101  	88.409620 
3057.225526  	88.326037 
3058.189950  	88.354166 
3059.154374  	88.295316 
3060.118799  	88.253532 
3061.083223  	88.247890 
3062.047648  	88.210964 
3063.012072  	88.155899 
3063.976497  	88.057678 
3064.940921  	87.995762 
3065.905346  	88.056325 
3066.869770  	88.049051 
3067.834195  	88.060929 
3068.798619  	88.081610 
3069.763043  	88.047546 
3070.727468  	88.046960 
3071.691892  	88.081024 
3072.656317  	88.031278 
3073.620741  	88.019033 
3074.585166  	88.067770 
3075.549590  	88.115503 
3076.514015  	88.104839 
3077.478439  	88.028889 
3078.442864  	88.047781 
3079.407288  	88.118703 
3080.371712  	88.135526 
3081.336137  	88.147472 
3082.300561  	88.117710 
3083.264986  	88.186858 
3084.229410  	88.290515 
3085.193835  	88.299475 
3086.158259  	88.297674 
3087.122684  	88.292396 
3088.087108  	88.306684 
3089.051533  	88.425514 
3090.015957  	88.520500 
3090.980381  	88.564081 
3091.944806  	88.576057 
3092.909230  	88.605305 
3093.873655  	88.632039 
3094.838079  	88.677471 
3095.802504  	88.704452 
3096.766928  	88.788571 
3097.731353  	88.879016 
3098.695777  	88.929990 
3099.660202  	88.999399 
3100.624626  	89.084823 
3101.589050  	89.129357 
3102.553475  	89.185716 
3103.517899  	89.239982 
3104.482324  	89.341005 
3105.446748  	89.429274 
3106.411173  	89.461238 
3107.375597  	89.523082 
3108.340022  	89.619364 
3109.304446  	89.700815 
3110.268871  	89.709275 
3111.233295  	89.696001 
3112.197720  	89.719326 
3113.162144  	89.761587 
3114.126568  	89.810986 
3115.090993  	89.863544 
3116.055417  	89.923479 
3117.019842  	90.001412 
3117.984266  	90.044042 
3118.948691  	90.002710 
3119.913115  	90.108574 
3120.877540  	90.193612 
3121.841964  	90.111517 
3122.806389  	90.068951 
3123.770813  	90.159009 
3124.735237  	90.190937 
3125.699662  	90.188354 
3126.664086  	90.139366 
3127.628511  	90.208126 
3128.592935  	90.257192 
3129.557360  	90.222166 
3130.521784  	90.196765 
3131.486209  	90.213125 
3132.450633  	90.170058 
3133.415058  	90.110047 
3134.379482  	90.189603 
3135.343906  	90.244737 
3136.308331  	90.231518 
3137.272755  	90.195681 
3138.237180  	90.193344 
3139.201604  	90.220199 
3140.166029  	90.213408 
3141.130453  	90.203304 
3142.094878  	90.147353 
3143.059302  	90.064724 
3144.023727  	90.054761 
3144.988151  	90.097492 
3145.952575  	90.052839 
3146.917000  	89.964077 
3147.881424  	89.974968 
3148.845849  	90.042143 
3149.810273  	89.979298 
3150.774698  	89.923547 
3151.739122  	89.888121 
3152.703547  	89.824387 
3153.667971  	89.760506 
3154.632396  	89.769487 
3155.596820  	89.772106 
3156.561244  	89.668916 
3157.525669  	89.612998 
3158.490093  	89.598428 
3159.454518  	89.556733 
3160.418942  	89.459970 
3161.383367  	89.348888 
3162.347791  	89.285769 
3163.312216  	89.242419 
3164.276640  	89.209733 
3165.241065  	89.195861 
3166.205489  	89.155937 
3167.169914  	89.029832 
3168.134338  	88.916224 
3169.098762  	88.844138 
3170.063187  	88.737105 
3171.027611  	88.661337 
3171.992036  	88.680111 
3172.956460  	88.648761 
3173.920885  	88.531724 
3174.885309  	88.397877 
3175.849734  	88.325240 
3176.814158  	88.285178 
3177.778583  	88.157652 
3178.743007  	88.036520 
3179.707431  	88.013291 
3180.671856  	87.995190 
3181.636280  	88.001126 
3182.600705  	87.964539 
3183.565129  	87.876042 
3184.529554  	87.753918 
3185.493978  	87.649683 
3186.458403  	87.600476 
3187.422827  	87.545137 
3188.387252  	87.460404 
3189.351676  	87.466294 
3190.316100  	87.478837 
3191.280525  	87.430674 
3192.244949  	87.356711 
3193.209374  	87.325912 
3194.173798  	87.187366 
3195.138223  	87.109416 
3196.102647  	87.027789 
3197.067072  	86.950616 
3198.031496  	86.890474 
3198.995921  	86.903141 
3199.960345  	86.859618 
3200.924769  	86.865225 
3201.889194  	86.850344 
3202.853618  	86.772777 
3203.818043  	86.695500 
3204.782467  	86.629334 
3205.746892  	86.619592 
3206.711316  	86.608398 
3207.675741  	86.538892 
3208.640165  	86.492851 
3209.604590  	86.397047 
3210.569014  	86.346331 
3211.533438  	86.386361 
3212.497863  	86.357472 
3213.462287  	86.276080 
3214.426712  	86.152386 
3215.391136  	86.076042 
3216.355561  	86.023803 
3217.319985  	85.978826 
3218.284410  	85.909978 
3219.248834  	85.820743 
3220.213259  	85.816618 
3221.177683  	85.782727 
3222.142107  	85.655278 
3223.106532  	85.529220 
3224.070956  	85.465250 
3225.035381  	85.399623 
3225.999805  	85.291053 
3226.964230  	85.110231 
3227.928654  	84.917740 
3228.893079  	84.844902 
3229.857503  	84.799396 
3230.821928  	84.678751 
3231.786352  	84.546185 
3232.750777  	84.375826 
3233.715201  	84.233836 
3234.679625  	84.126905 
3235.644050  	83.966273 
3236.608474  	83.789296 
3237.572899  	83.629109 
3238.537323  	83.456379 
3239.501748  	83.256860 
3240.466172  	83.080730 
3241.430597  	82.935633 
3242.395021  	82.702734 
3243.359446  	82.519774 
3244.323870  	82.300321 
3245.288294  	82.053027 
3246.252719  	81.938242 
3247.217143  	81.807738 
3248.181568  	81.581108 
3249.145992  	81.328978 
3250.110417  	81.136423 
3251.074841  	80.891503 
3252.039266  	80.611496 
3253.003690  	80.377014 
3253.968115  	80.061726 
3254.932539  	79.812195 
3255.896963  	79.591158 
3256.861388  	79.323225 
3257.825812  	79.127908 
3258.790237  	78.839360 
3259.754661  	78.491218 
3260.719086  	78.204813 
3261.683510  	78.007647 
3262.647935  	77.791070 
3263.612359  	77.510041 
3264.576784  	77.229136 
3265.541208  	76.885306 
3266.505632  	76.521192 
3267.470057  	76.261686 
3268.434481  	76.040968 
3269.398906  	75.727191 
3270.363330  	75.472584 
3271.327755  	75.230836 
3272.292179  	74.892831 
3273.256604  	74.482499 
3274.221028  	74.126073 
3275.185453  	73.816085 
3276.149877  	73.477771 
3277.114301  	73.139044 
3278.078726  	72.794222 
3279.043150  	72.412076 
3280.007575  	72.046667 
3280.971999  	71.664342 
3281.936424  	71.298001 
3282.900848  	70.894228 
3283.865273  	70.451994 
3284.829697  	70.040826 
3285.794122  	69.621740 
3286.758546  	69.231916 
3287.722971  	68.918713 
3288.687395  	68.555572 
3289.651819  	68.240712 
3290.616244  	67.903287 
3291.580668  	67.570379 
3292.545093  	67.387002 
3293.509517  	67.297174 
3294.473942  	67.195585 
3295.438366  	67.088392 
3296.402791  	67.044952 
3297.367215  	67.089104 
3298.331640  	67.137291 
3299.296064  	67.264821 
3300.260488  	67.486772 
3301.224913  	67.805753 
3302.189337  	68.137679 
3303.153762  	68.477336 
3304.118186  	68.864108 
3305.082611  	69.349259 
3306.047035  	69.886978 
3307.011460  	70.467947 
3307.975884  	71.039872 
3308.940309  	71.646142 
3309.904733  	72.349882 
3310.869157  	73.008428 
3311.833582  	73.647378 
3312.798006  	74.387383 
3313.762431  	75.092342 
3314.726855  	75.811398 
3315.691280  	76.485653 
3316.655704  	77.085310 
3317.620129  	77.667373 
3318.584553  	78.265098 
3319.548978  	78.805778 
3320.513402  	79.364549 
3321.477826  	79.891612 
3322.442251  	80.392220 
3323.406675  	80.905773 
3324.371100  	81.314008 
3325.335524  	81.668062 
3326.299949  	82.106797 
3327.264373  	82.445581 
3328.228798  	82.799471 
3329.193222  	83.102566 
3330.157647  	83.373496 
3331.122071  	83.777255 
3332.086495  	84.208620 
3333.050920  	84.456590 
3334.015344  	84.619529 
3334.979769  	84.831009 
3335.944193  	85.125357 
3336.908618  	85.266832 
3337.873042  	85.516787 
3338.837467  	85.819636 
3339.801891  	86.055104 
3340.766316  	86.244548 
3341.730740  	86.398154 
3342.695164  	86.575598 
3343.659589  	86.801389 
3344.624013  	87.042542 
3345.588438  	87.232336 
3346.552862  	87.344303 
3347.517287  	87.446754 
3348.481711  	87.536245 
3349.446136  	87.679424 
3350.410560  	87.786250 
3351.374985  	87.952177 
3352.339409  	88.141087 
3353.303834  	88.198076 
3354.268258  	88.239978 
3355.232682  	88.287653 
3356.197107  	88.290781 
3357.161531  	88.428631 
3358.125956  	88.603890 
3359.090380  	88.683882 
3360.054805  	88.646379 
3361.019229  	88.716589 
3361.983654  	88.837621 
3362.948078  	88.998039 
3363.912503  	89.048418 
3364.876927  	89.016755 
3365.841351  	89.107856 
3366.805776  	89.240133 
3367.770200  	89.228463 
3368.734625  	89.259226 
3369.699049  	89.344908 
3370.663474  	89.446819 
3371.627898  	89.533400 
3372.592323  	89.573774 
3373.556747  	89.574780 
3374.521172  	89.719054 
3375.485596  	89.795593 
3376.450020  	89.754838 
3377.414445  	89.777054 
3378.378869  	89.877804 
3379.343294  	89.951374 
3380.307718  	89.965269 
3381.272143  	90.004452 
3382.236567  	89.985428 
3383.200992  	89.957020 
3384.165416  	89.921961 
3385.129841  	89.916537 
3386.094265  	90.037042 
3387.058689  	90.178998 
3388.023114  	90.255501 
3388.987538  	90.271122 
3389.951963  	90.248639 
3390.916387  	90.184644 
3391.880812  	90.101332 
3392.845236  	90.010220 
3393.809661  	90.139512 
3394.774085  	90.333898 
3395.738510  	90.354532 
3396.702934  	90.331509 
3397.667358  	90.234005 
3398.631783  	90.302705 
3399.596207  	90.432746 
3400.560632  	90.399804 
3401.525056  	90.366743 
3402.489481  	90.412370 
3403.453905  	90.444431 
3404.418330  	90.459447 
3405.382754  	90.542874 
3406.347179  	90.536214 
3407.311603  	90.493542 
3408.276028  	90.518836 
3409.240452  	90.482718 
3410.204876  	90.409181 
3411.169301  	90.482029 
3412.133725  	90.580214 
3413.098150  	90.640035 
3414.062574  	90.644104 
3415.026999  	90.631747 
3415.991423  	90.592375 
3416.955848  	90.621703 
3417.920272  	90.618014 
3418.884697  	90.629501 
3419.849121  	90.511060 
3420.813545  	90.337489 
3421.777970  	90.292745 
3422.742394  	90.435418 
3423.706819  	90.635510 
3424.671243  	90.738604 
3425.635668  	90.773757 
3426.600092  	90.761156 
3427.564517  	90.744536 
3428.528941  	90.766046 
3429.493366  	90.780780 
3430.457790  	90.741207 
3431.422214  	90.707592 
3432.386639  	90.739943 
3433.351063  	90.766037 
3434.315488  	90.801224 
3435.279912  	90.749891 
3436.244337  	90.763317 
3437.208761  	90.808998 
3438.173186  	90.859950 
3439.137610  	90.874614 
3440.102035  	90.876343 
3441.066459  	90.847931 
3442.030883  	90.736169 
3442.995308  	90.631163 
3443.959732  	90.820083 
3444.924157  	90.843885 
3445.888581  	90.795660 
3446.853006  	90.418205 
3447.817430  	90.212681 
3448.781855  	90.712868 
3449.746279  	90.943350 
3450.710704  	90.967656 
3451.675128  	90.960389 
3452.639552  	90.953237 
3453.603977  	90.976506 
3454.568401  	91.018716 
3455.532826  	91.027890 
3456.497250  	91.028029 
3457.461675  	91.006707 
3458.426099  	91.024897 
3459.390524  	91.084077 
3460.354948  	91.047594 
3461.319373  	90.904701 
3462.283797  	90.866636 
3463.248221  	90.916220 
3464.212646  	91.058149 
3465.177070  	91.117945 
3466.141495  	91.065517 
3467.105919  	90.867291 
3468.070344  	90.981668 
3469.034768  	91.163846 
3469.999193  	91.111479 
3470.963617  	91.122184 
3471.928042  	91.217429 
3472.892466  	91.253134 
3473.856891  	91.230451 
3474.821315  	91.138809 
3475.785739  	91.155098 
3476.750164  	91.187974 
3477.714588  	91.173548 
3478.679013  	91.254172 
3479.643437  	91.234797 
3480.607862  	90.960135 
3481.572286  	90.813648 
3482.536711  	90.797481 
3483.501135  	91.064566 
3484.465560  	91.214954 
3485.429984  	91.155994 
3486.394408  	91.180353 
3487.358833  	91.171032 
3488.323257  	90.938496 
3489.287682  	91.004302 
3490.252106  	91.226791 
3491.216531  	91.273951 
3492.180955  	91.382254 
3493.145380  	91.442665 
3494.109804  	91.459430 
3495.074229  	91.367619 
3496.038653  	91.206832 
3497.003077  	91.158826 
3497.967502  	91.317653 
3498.931926  	91.437279 
3499.896351  	91.369467 
3500.860775  	91.314929 
3501.825200  	91.127040 
3502.789624  	90.772610 
3503.754049  	90.705557 
3504.718473  	91.035523 
3505.682898  	91.299612 
3506.647322  	91.529500 
3507.611746  	91.620814 
3508.576171  	91.379145 
3509.540595  	90.918174 
3510.505020  	91.138813 
3511.469444  	91.472182 
3512.433869  	91.472391 
3513.398293  	91.530044 
3514.362718  	91.776793 
3515.327142  	91.907299 
3516.291567  	91.844979 
3517.255991  	91.730751 
3518.220415  	91.635224 
3519.184840  	91.642952 
3520.149264  	91.739701 
3521.113689  	91.879465 
3522.078113  	91.724463 
3523.042538  	91.138471 
3524.006962  	90.978167 
3524.971387  	91.304809 
3525.935811  	91.431495 
3526.900236  	91.376031 
3527.864660  	91.229418 
3528.829085  	91.325435 
3529.793509  	91.542299 
3530.757933  	91.806137 
3531.722358  	91.838711 
3532.686782  	92.039622 
3533.651207  	92.233738 
3534.615631  	92.295437 
3535.580056  	92.031123 
3536.544480  	91.564595 
3537.508905  	91.854787 
3538.473329  	92.298728 
3539.437754  	92.218029 
3540.402178  	92.236324 
3541.366602  	92.320999 
3542.331027  	92.363977 
3543.295451  	92.181940 
3544.259876  	91.881473 
3545.224300  	91.206648 
3546.188725  	91.043096 
3547.153149  	91.074004 
3548.117574  	91.540713 
3549.081998  	92.254262 
3550.046423  	92.481854 
3551.010847  	92.410114 
3551.975271  	91.891171 
3552.939696  	91.724028 
3553.904120  	92.066557 
3554.868545  	92.395951 
3555.832969  	92.652854 
3556.797394  	92.654692 
3557.761818  	92.770683 
3558.726243  	92.874078 
3559.690667  	92.486684 
3560.655092  	92.130233 
3561.619516  	92.451612 
3562.583940  	92.390157 
3563.548365  	92.365098 
3564.512789  	92.413687 
3565.477214  	91.726657 
3566.441638  	89.878552 
3567.406063  	89.818571 
3568.370487  	90.295639 
3569.334912  	91.602827 
3570.299336  	92.371970 
3571.263761  	92.556602 
3572.228185  	92.918913 
3573.192609  	92.894720 
3574.157034  	92.764064 
3575.121458  	92.798737 
3576.085883  	92.924192 
3577.050307  	92.859167 
3578.014732  	92.896523 
3578.979156  	92.950918 
3579.943581  	92.600430 
3580.908005  	92.615618 
3581.872430  	92.995716 
3582.836854  	93.031473 
3583.801278  	93.010757 
3584.765703  	93.074478 
3585.730127  	92.642269 
3586.694552  	91.309217 
3587.658976  	90.671241 
3588.623401  	90.868806 
3589.587825  	91.906855 
3590.552250  	92.992831 
3591.516674  	93.154305 
3592.481099  	93.048881 
3593.445523  	92.644475 
3594.409948  	92.672301 
3595.374372  	92.233729 
3596.338796  	92.197834 
3597.303221  	92.872308 
3598.267645  	92.893051 
3599.232070  	92.697752 
3600.196494  	92.718650 
3601.160919  	92.499788 
3602.125343  	92.882380 
3603.089768  	93.070065 
3604.054192  	93.297249 
3605.018617  	93.504379 
3605.983041  	93.358484 
3606.947465  	92.367990 
3607.911890  	92.029661 
3608.876314  	92.226466 
3609.840739  	92.092013 
3610.805163  	92.981156 
3611.769588  	92.856157 
3612.734012  	91.863786 
3613.698437  	92.145533 
3614.662861  	92.216143 
3615.627286  	92.273998 
3616.591710  	93.143162 
3617.556134  	92.607858 
3618.520559  	91.933273 
3619.484983  	91.852475 
3620.449408  	91.953087 
3621.413832  	92.591105 
3622.378257  	93.158013 
3623.342681  	93.480528 
3624.307106  	93.631329 
3625.271530  	93.613053 
3626.235955  	93.302195 
3627.200379  	93.191098 
3628.164803  	92.277430 
3629.129228  	89.965837 
3630.093652  	90.666275 
3631.058077  	92.650011 
3632.022501  	93.355850 
3632.986926  	93.321549 
3633.951350  	92.724894 
3634.915775  	93.113923 
3635.880199  	93.663476 
3636.844624  	93.744251 
3637.809048  	93.570511 
3638.773472  	93.563753 
3639.737897  	93.789538 
3640.702321  	93.796639 
3641.666746  	93.537629 
3642.631170  	93.267244 
3643.595595  	93.500808 
3644.560019  	93.804226 
3645.524444  	93.551171 
3646.488868  	92.543874 
3647.453293  	91.177052 
3648.417717  	91.427965 
3649.382142  	91.010601 
3650.346566  	90.323105 
3651.310990  	90.594482 
3652.275415  	92.443834 
3653.239839  	93.462941 
3654.204264  	93.741637 
3655.168688  	93.593066 
3656.133113  	92.744809 
3657.097537  	92.794558 
3658.061962  	93.698256 
3659.026386  	93.747873 
3659.990811  	93.680633 
3660.955235  	93.867477 
3661.919659  	94.065947 
3662.884084  	94.024160 
3663.848508  	94.045671 
3664.812933  	94.027775 
3665.777357  	94.048497 
3666.741782  	94.049159 
3667.706206  	93.949650 
3668.670631  	93.145641 
3669.635055  	92.254336 
3670.599480  	91.488825 
3671.563904  	92.091729 
3672.528328  	93.486152 
3673.492753  	93.560660 
3674.457177  	92.386799 
3675.421602  	90.008873 
3676.386026  	90.935547 
3677.350451  	92.473775 
3678.314875  	92.930040 
3679.279300  	92.842742 
3680.243724  	92.998188 
3681.208149  	93.743803 
3682.172573  	94.030209 
3683.136997  	94.084248 
3684.101422  	93.976410 
3685.065846  	93.891113 
3686.030271  	93.997199 
3686.994695  	93.844752 
3687.959120  	93.020342 
3688.923544  	92.318379 
3689.887969  	92.794051 
3690.852393  	92.028950 
3691.816818  	92.011667 
3692.781242  	93.522755 
3693.745666  	93.842219 
3694.710091  	93.945024 
3695.674515  	94.043548 
3696.638940  	93.962570 
3697.603364  	94.046657 
3698.567789  	94.231331 
3699.532213  	94.216417 
3700.496638  	94.189417 
3701.461062  	93.425862 
3702.425487  	93.044217 
3703.389911  	93.934365 
3704.354335  	94.167621 
3705.318760  	94.049098 
3706.283184  	94.078711 
3707.247609  	94.188069 
3708.212033  	94.067628 
3709.176458  	93.446746 
3710.140882  	93.115276 
3711.105307  	92.822258 
3712.069731  	91.669455 
3713.034156  	92.136865 
3713.998580  	93.343505 
3714.963005  	93.287017 
3715.927429  	93.584294 
3716.891853  	94.120259 
3717.856278  	94.155196 
3718.820702  	93.529297 
3719.785127  	93.403303 
3720.749551  	93.933311 
3721.713976  	93.436357 
3722.678400  	92.446675 
3723.642825  	93.157170 
3724.607249  	93.340066 
3725.571674  	92.747402 
3726.536098  	92.497387 
3727.500522  	92.796941 
3728.464947  	93.641031 
3729.429371  	94.105324 
3730.393796  	94.028915 
3731.358220  	93.544116 
3732.322645  	92.789905 
3733.287069  	93.217564 
3734.251494  	92.554621 
3735.215918  	90.006241 
3736.180343  	90.494491 
3737.144767  	91.725142 
3738.109191  	92.492453 
3739.073616  	92.835423 
3740.038040  	93.259302 
3741.002465  	92.875601 
3741.966889  	93.207551 
3742.931314  	93.698514 
3743.895738  	92.453503 
3744.860163  	89.389148 
3745.824587  	92.200519 
3746.789012  	92.842158 
3747.753436  	92.706959 
3748.717860  	92.494945 
3749.682285  	92.225524 
3750.646709  	92.418254 
3751.611134  	91.700696 
3752.575558  	90.692670 
3753.539983  	92.382393 
3754.504407  	93.162290 
3755.468832  	93.519359 
3756.433256  	93.262842 
3757.397681  	93.432589 
3758.362105  	93.599829 
3759.326529  	92.621781 
3760.290954  	92.382303 
3761.255378  	93.706873 
3762.219803  	93.922504 
3763.184227  	94.001487 
3764.148652  	94.073990 
3765.113076  	93.630514 
3766.077501  	92.889155 
3767.041925  	93.625502 
3768.006350  	94.033586 
3768.970774  	93.664847 
3769.935199  	92.795007 
3770.899623  	93.169278 
3771.864047  	93.779506 
3772.828472  	94.009728 
3773.792896  	94.133351 
3774.757321  	94.206643 
3775.721745  	94.281731 
3776.686170  	94.368741 
3777.650594  	94.287665 
3778.615019  	93.808418 
3779.579443  	93.023682 
3780.543868  	93.362123 
3781.508292  	94.013107 
3782.472716  	94.052862 
3783.437141  	94.114742 
3784.401565  	93.741474 
3785.365990  	93.392969 
3786.330414  	93.773924 
3787.294839  	94.039230 
3788.259263  	94.165821 
3789.223688  	94.194661 
3790.188112  	94.217772 
3791.152537  	94.278709 
3792.116961  	94.255160 
3793.081385  	94.292527 
3794.045810  	94.345859 
3795.010234  	94.230427 
3795.974659  	93.672592 
3796.939083  	93.028863 
3797.903508  	93.413081 
3798.867932  	93.833120 
3799.832357  	93.881163 
3800.796781  	92.852268 
3801.761206  	91.613829 
3802.725630  	92.282631 
3803.690054  	93.135085 
3804.654479  	93.896876 
3805.618903  	93.947488 
3806.583328  	93.195446 
3807.547752  	92.748360 
3808.512177  	93.761612 
3809.476601  	94.007983 
3810.441026  	94.045779 
3811.405450  	94.155752 
3812.369875  	94.246862 
3813.334299  	94.336919 
3814.298723  	94.236902 
3815.263148  	93.497362 
3816.227572  	92.112701 
3817.191997  	92.967351 
3818.156421  	93.704814 
3819.120846  	93.543741 
3820.085270  	92.901324 
3821.049695  	91.391387 
3822.014119  	91.452761 
3822.978544  	93.013624 
3823.942968  	93.463914 
3824.907392  	93.730711 
3825.871817  	93.710370 
3826.836241  	93.202346 
3827.800666  	93.367809 
3828.765090  	93.885193 
3829.729515  	94.084184 
3830.693939  	93.874232 
3831.658364  	93.135039 
3832.622788  	93.425354 
3833.587213  	93.909533 
3834.551637  	93.315884 
3835.516062  	93.002742 
3836.480486  	93.682112 
3837.444910  	93.012076 
3838.409335  	92.195354 
3839.373759  	92.737415 
3840.338184  	92.035660 
3841.302608  	92.211160 
3842.267033  	93.436034 
3843.231457  	93.307586 
3844.195882  	92.708177 
3845.160306  	93.604194 
3846.124731  	94.005606 
3847.089155  	94.079901 
3848.053579  	94.119351 
3849.018004  	93.961226 
3849.982428  	93.597326 
3850.946853  	93.531465 
3851.911277  	92.724995 
3852.875702  	91.463768 
3853.840126  	90.473027 
3854.804551  	91.100741 
3855.768975  	93.105652 
3856.733400  	92.962049 
3857.697824  	92.663392 
3858.662248  	93.687138 
3859.626673  	94.161786 
3860.591097  	94.091058 
3861.555522  	93.443304 
3862.519946  	93.079232 
3863.484371  	93.406764 
3864.448795  	92.525511 
3865.413220  	91.675506 
3866.377644  	93.153491 
3867.342069  	93.971489 
3868.306493  	93.830936 
3869.270917  	92.635809 
3870.235342  	91.059877 
3871.199766  	92.419003 
3872.164191  	93.401341 
3873.128615  	93.445390 
3874.093040  	92.262633 
3875.057464  	92.579269 
3876.021889  	93.917880 
3876.986313  	94.134789 
3877.950738  	94.265796 
3878.915162  	94.216015 
3879.879586  	93.235400 
3880.844011  	91.820491 
3881.808435  	92.941774 
3882.772860  	93.587907 
3883.737284  	93.420809 
3884.701709  	93.388765 
3885.666133  	92.515382 
3886.630558  	92.483258 
3887.594982  	93.752861 
3888.559407  	94.087129 
3889.523831  	94.135721 
3890.488256  	93.720579 
3891.452680  	92.646308 
3892.417104  	92.788631 
3893.381529  	93.500362 
3894.345953  	93.425663 
3895.310378  	93.757017 
3896.274802  	94.177491 
3897.239227  	94.204009 
3898.203651  	93.604619 
3899.168076  	92.699868 
3900.132500  	92.856637 
3901.096925  	93.333935 
3902.061349  	92.132332 
3903.025773  	92.346035 
3903.990198  	92.579883 
3904.954622  	92.310804 
3905.919047  	92.587963 
3906.883471  	93.202775 
3907.847896  	94.018508 
3908.812320  	94.268435 
3909.776745  	94.287754 
3910.741169  	94.266399 
3911.705594  	94.245409 
3912.670018  	94.221688 
3913.634442  	94.251532 
3914.598867  	94.313211 
3915.563291  	94.179151 
3916.527716  	93.365850 
3917.492140  	92.788112 
3918.456565  	93.610588 
3919.420989  	93.676608 
3920.385414  	93.100477 
3921.349838  	93.705306 
3922.314263  	94.262562 
3923.278687  	93.945510 
3924.243111  	93.215634 
3925.207536  	92.801324 
3926.171960  	93.475202 
3927.136385  	94.137479 
3928.100809  	94.159572 
3929.065234  	93.988329 
3930.029658  	93.757815 
3930.994083  	93.601970 
3931.958507  	93.211128 
3932.922932  	92.962346 
3933.887356  	93.621074 
3934.851780  	93.870200 
3935.816205  	94.119260 
3936.780629  	94.254265 
3937.745054  	94.168456 
3938.709478  	94.019926 
3939.673903  	94.178006 
3940.638327  	94.247458 
3941.602752  	94.098257 
3942.567176  	93.298972 
3943.531601  	93.036073 
3944.496025  	93.753934 
3945.460449  	94.044545 
3946.424874  	94.100375 
3947.389298  	93.646852 
3948.353723  	93.401001 
3949.318147  	93.600052 
3950.282572  	93.351908 
3951.246996  	93.748574 
3952.211421  	94.201872 
3953.175845  	94.073516 
3954.140270  	94.138395 
3955.104694  	94.263494 
3956.069119  	94.166541 
3957.033543  	94.031662 
3957.997967  	94.066241 
3958.962392  	94.151764 
3959.926816  	94.177976 
3960.891241  	94.130270 
3961.855665  	93.762129 
3962.820090  	93.745322 
3963.784514  	94.142376 
3964.748939  	94.167879 
3965.713363  	94.207319 
3966.677788  	94.302246 
3967.642212  	94.294246 
3968.606636  	94.151323 
3969.571061  	94.020868 
3970.535485  	94.129073 
3971.499910  	94.173495 
3972.464334  	94.040606 
3973.428759  	94.187678 
3974.393183  	94.256671 
3975.357608  	94.053979 
3976.322032  	93.913152 
3977.286457  	94.073800 
3978.250881  	94.256559 
3979.215305  	94.258179 
3980.179730  	94.244090 
3981.144154  	94.234510 
3982.108579  	94.168556 
3983.073003  	94.165520 
3984.037428  	94.275630 
3985.001852  	94.267880 
3985.966277  	94.248079 
3986.930701  	94.269681 
3987.895126  	94.262286 
3988.859550  	94.277978 
3989.823974  	94.207459 
3990.788399  	94.005152 
3991.752823  	94.078902 
3992.717248  	94.210691 
3993.681672  	94.188892 
3994.646097  	94.098905 
3995.610521  	94.061047 
3996.574946  	94.192690 
3997.539370  	94.279539 
3998.503795  	94.300556 
3999.468219  	94.259416 
4000.432643  	94.285836 
4001.397068  	94.292280 
4002.361492  	94.239823 
4003.325917  	94.213047 
4004.290341  	94.271528 
4005.254766  	94.286407 
4006.219190  	94.249396 
4007.183615  	94.187857 
4008.148039  	94.090782 
4009.112464  	94.026652 
4010.076888  	94.147346 
4011.041313  	94.213234 
4012.005737  	94.232224 
4012.970161  	94.208647 
4013.934586  	94.226214 
4014.899010  	94.231826 
4015.863435  	94.215003 
4016.827859  	94.252418 
4017.792284  	94.242532 
4018.756708  	94.183346 
4019.721133  	94.130947 
4020.685557  	94.167379 
4021.649982  	94.252567 
4022.614406  	94.309419 
4023.578830  	94.287271 
4024.543255  	94.218685 
4025.507679  	94.146390 
4026.472104  	94.160257 
4027.436528  	94.207444 
4028.400953  	94.221037 
4029.365377  	94.236535 
4030.329802  	94.256193 
4031.294226  	94.279980 
4032.258651  	94.259165 
4033.223075  	94.286473 
4034.187499  	94.299812 
4035.151924  	94.270940 
4036.116348  	94.275745 
4037.080773  	94.323633 
4038.045197  	94.331384 
4039.009622  	94.299991 
4039.974046  	94.271886 
4040.938471  	94.310029 
4041.902895  	94.345831 
4042.867320  	94.361670 
4043.831744  	94.250467 
4044.796168  	94.136700 
4045.760593  	94.167741 
4046.725017  	94.242614 
4047.689442  	94.279802 
4048.653866  	94.290457 
4049.618291  	94.298434 
4050.582715  	94.294149 
4051.547140  	94.285524 
4052.511564  	94.308872 
4053.475989  	94.338455 
4054.440413  	94.315224 
4055.404837  	94.256573 
4056.369262  	94.285192 
4057.333686  	94.379375 
4058.298111  	94.360511 
4059.262535  	94.320053 
4060.226960  	94.257550 
4061.191384  	94.212004 
4062.155809  	94.278810 
4063.120233  	94.323937 
4064.084658  	94.329402 
4065.049082  	94.362906 
4066.013506  	94.339539 
4066.977931  	94.286773 
4067.942355  	94.291347 
4068.906780  	94.291071 
4069.871204  	94.303302 
4070.835629  	94.339843 
4071.800053  	94.367314 
4072.764478  	94.333216 
4073.728902  	94.291979 
4074.693327  	94.330117 
4075.657751  	94.356930 
4076.622176  	94.292014 
4077.586600  	94.320492 
4078.551024  	94.368579 
4079.515449  	94.345720 
4080.479873  	94.351578 
4081.444298  	94.361690 
4082.408722  	94.337891 
4083.373147  	94.295810 
4084.337571  	94.287535 
4085.301996  	94.300191 
4086.266420  	94.304403 
4087.230845  	94.309284 
4088.195269  	94.292377 
4089.159693  	94.320118 
4090.124118  	94.368624 
4091.088542  	94.357399 
4092.052967  	94.362300 
4093.017391  	94.375790 
4093.981816  	94.368971 
4094.946240  	94.325570 
4095.910665  	94.334334 
4096.875089  	94.425754 
4097.839514  	94.365780 
4098.803938  	94.250392 
4099.768362  	94.337388 
4100.732787  	94.425715 
4101.697211  	94.385291 
4102.661636  	94.369955 
4103.626060  	94.364727 
4104.590485  	94.361979 
4105.554909  	94.280852 
4106.519334  	94.257999 
4107.483758  	94.295871 
4108.448183  	94.305431 
4109.412607  	94.322799 
4110.377031  	94.327381 
4111.341456  	94.348984 
4112.305880  	94.345544 
4113.270305  	94.323044 
4114.234729  	94.308118 
4115.199154  	94.346967 
4116.163578  	94.366284 
4117.128003  	94.366481 
4118.092427  	94.338822 
4119.056852  	94.313389 
4120.021276  	94.308700 
4120.985700  	94.323262 
4121.950125  	94.348510 
4122.914549  	94.325372 
4123.878974  	94.313653 
4124.843398  	94.297749 
4125.807823  	94.332880 
4126.772247  	94.344036 
4127.736672  	94.322100 
4128.701096  	94.319435 
4129.665521  	94.385148 
4130.629945  	94.397289 
4131.594370  	94.381423 
4132.558794  	94.390588 
4133.523218  	94.319373 
4134.487643  	94.298765 
4135.452067  	94.348231 
4136.416492  	94.393181 
4137.380916  	94.440283 
4138.345341  	94.356925 
4139.309765  	94.293234 
4140.274190  	94.308587 
4141.238614  	94.312519 
4142.203039  	94.326763 
4143.167463  	94.448455 
4144.131887  	94.405962 
4145.096312  	94.321309 
4146.060736  	94.342461 
4147.025161  	94.389621 
4147.989585  	94.378376 
4148.954010  	94.282687 
4149.918434  	94.266977 
4150.882859  	94.323861 
4151.847283  	94.301525 
4152.811708  	94.297473 
4153.776132  	94.349184 
4154.740556  	94.352338 
4155.704981  	94.301027 
4156.669405  	94.264380 
4157.633830  	94.282152 
4158.598254  	94.323090 
4159.562679  	94.340723 
4160.527103  	94.325433 
4161.491528  	94.327978 
4162.455952  	94.343708 
4163.420377  	94.382460 
4164.384801  	94.373661 
4165.349225  	94.334888 
4166.313650  	94.275324 
4167.278074  	94.281398 
4168.242499  	94.331756 
4169.206923  	94.381773 
4170.171348  	94.377430 
4171.135772  	94.362198 
4172.100197  	94.333394 
4173.064621  	94.328391 
4174.029046  	94.325128 
4174.993470  	94.313298 
4175.957894  	94.327641 
4176.922319  	94.361876 
4177.886743  	94.354584 
4178.851168  	94.335154 
4179.815592  	94.294782 
4180.780017  	94.252010 
4181.744441  	94.296814 
4182.708866  	94.305735 
4183.673290  	94.273612 
4184.637715  	94.277658 
4185.602139  	94.325097 
4186.566563  	94.327102 
4187.530988  	94.291553 
4188.495412  	94.301200 
4189.459837  	94.325547 
4190.424261  	94.333785 
4191.388686  	94.290473 
4192.353110  	94.327568 
4193.317535  	94.332074 
4194.281959  	94.319059 
4195.246384  	94.316912 
4196.210808  	94.288345 
4197.175233  	94.274198 
4198.139657  	94.307519 
4199.104081  	94.289855 
4200.068506  	94.284768 
4201.032930  	94.322470 
4201.997355  	94.373244 
4202.961779  	94.409917 
4203.926204  	94.353228 
4204.890628  	94.308726 
4205.855053  	94.312689 
4206.819477  	94.303282 
4207.783902  	94.274111 
4208.748326  	94.257795 
4209.712750  	94.297152 
4210.677175  	94.331720 
4211.641599  	94.318827 
4212.606024  	94.338563 
4213.570448  	94.339850 
4214.534873  	94.348988 
4215.499297  	94.340266 
4216.463722  	94.353296 
4217.428146  	94.284811 
4218.392571  	94.247159 
4219.356995  	94.327544 
4220.321419  	94.379784 
4221.285844  	94.405760 
4222.250268  	94.433761 
4223.214693  	94.324833 
4224.179117  	94.277411 
4225.143542  	94.364659 
4226.107966  	94.402216 
4227.072391  	94.391673 
4228.036815  	94.333756 
4229.001240  	94.308022 
4229.965664  	94.304075 
4230.930088  	94.315252 
4231.894513  	94.408827 
4232.858937  	94.431424 
4233.823362  	94.404444 
4234.787786  	94.409213 
4235.752211  	94.384187 
4236.716635  	94.369625 
4237.681060  	94.405091 
4238.645484  	94.373162 
4239.609909  	94.306678 
4240.574333  	94.299054 
4241.538757  	94.362174 
4242.503182  	94.430606 
4243.467606  	94.435948 
4244.432031  	94.390991 
4245.396455  	94.345786 
4246.360880  	94.347650 
4247.325304  	94.357777 
4248.289729  	94.361228 
4249.254153  	94.370921 
4250.218578  	94.435261 
4251.183002  	94.456885 
4252.147427  	94.435139 
4253.111851  	94.395147 
4254.076275  	94.347489 
4255.040700  	94.340577 
4256.005124  	94.390147 
4256.969549  	94.463217 
4257.933973  	94.445002 
4258.898398  	94.367339 
4259.862822  	94.287749 
4260.827247  	94.277368 
4261.791671  	94.343598 
4262.756096  	94.422525 
4263.720520  	94.368022 
4264.684944  	94.310163 
4265.649369  	94.346207 
4266.613793  	94.434539 
4267.578218  	94.418871 
4268.542642  	94.388167 
4269.507067  	94.340845 
4270.471491  	94.285466 
4271.435916  	94.317351 
4272.400340  	94.352250 
4273.364765  	94.346244 
4274.329189  	94.384427 
4275.293613  	94.419845 
4276.258038  	94.377282 
4277.222462  	94.370805 
4278.186887  	94.338871 
4279.151311  	94.303138 
4280.115736  	94.328711 
4281.080160  	94.392722 
4282.044585  	94.389925 
4283.009009  	94.330454 
4283.973434  	94.348478 
4284.937858  	94.335123 
4285.902282  	94.285354 
4286.866707  	94.362269 
4287.831131  	94.452816 
4288.795556  	94.448968 
4289.759980  	94.403679 
4290.724405  	94.358314 
4291.688829  	94.391243 
4292.653254  	94.384311 
4293.617678  	94.450752 
4294.582103  	94.534557 
4295.546527  	94.539537 
4296.510951  	94.493505 
4297.475376  	94.434370 
4298.439800  	94.392168 
4299.404225  	94.426650 
4300.368649  	94.512853 
4301.333074  	94.474536 
4302.297498  	94.324829 
4303.261923  	94.292398 
4304.226347  	94.406331 
4305.190772  	94.563996 
4306.155196  	94.548755 
4307.119620  	94.428516 
4308.084045  	94.336555 
4309.048469  	94.407244 
4310.012894  	94.419750 
4310.977318  	94.425265 
4311.941743  	94.427271 
4312.906167  	94.414552 
4313.870592  	94.346630 
4314.835016  	94.369992 
4315.799441  	94.455774 
4316.763865  	94.441015 
4317.728290  	94.414199 
4318.692714  	94.437804 
4319.657138  	94.427789 
4320.621563  	94.387475 
4321.585987  	94.391743 
4322.550412  	94.414366 
4323.514836  	94.389677 
4324.479261  	94.380055 
4325.443685  	94.390194 
4326.408110  	94.415281 
4327.372534  	94.407572 
4328.336959  	94.361015 
4329.301383  	94.333523 
4330.265807  	94.353436 
4331.230232  	94.371031 
4332.194656  	94.332745 
4333.159081  	94.383307 
4334.123505  	94.401069 
4335.087930  	94.391260 
4336.052354  	94.385268 
4337.016779  	94.402541 
4337.981203  	94.424918 
4338.945628  	94.406700 
4339.910052  	94.386776 
4340.874476  	94.382116 
4341.838901  	94.419175 
4342.803325  	94.377606 
4343.767750  	94.314807 
4344.732174  	94.284202 
4345.696599  	94.271679 
4346.661023  	94.293496 
4347.625448  	94.241682 
4348.589872  	94.232473 
4349.554297  	94.310597 
4350.518721  	94.386474 
4351.483145  	94.367345 
4352.447570  	94.311474 
4353.411994  	94.323118 
4354.376419  	94.313761 
4355.340843  	94.348360 
4356.305268  	94.382943 
4357.269692  	94.383165 
4358.234117  	94.355923 
4359.198541  	94.303889 
4360.162966  	94.284910 
4361.127390  	94.258656 
4362.091814  	94.276503 
4363.056239  	94.238142 
4364.020663  	94.298246 
4364.985088  	94.347075 
4365.949512  	94.309974 
4366.913937  	94.251373 
4367.878361  	94.247517 
4368.842786  	94.278183 
4369.807210  	94.326424 
4370.771635  	94.341158 
4371.736059  	94.316714 
4372.700484  	94.358669 
4373.664908  	94.372216 
4374.629332  	94.296714 
4375.593757  	94.312522 
4376.558181  	94.420009 
4377.522606  	94.435122 
4378.487030  	94.370226 
4379.451455  	94.410837 
4380.415879  	94.378882 
4381.380304  	94.360997 
4382.344728  	94.413208 
4383.309153  	94.420737 
4384.273577  	94.426496 
4385.238001  	94.453526 
4386.202426  	94.437856 
4387.166850  	94.470452 
4388.131275  	94.494620 
4389.095699  	94.425624 
4390.060124  	94.364522 
4391.024548  	94.400870 
4391.988973  	94.515415 
4392.953397  	94.587283 
4393.917822  	94.519289 
4394.882246  	94.460139 
4395.846670  	94.446809 
4396.811095  	94.449197 
4397.775519  	94.479505 
4398.739944  	94.502891 
4399.704368  	94.539284 
4400.668793  	94.604936 
4401.633217  	94.507617 
4402.597642  	94.455803 
4403.562066  	94.571934 
4404.526491  	94.619890 
4405.490915  	94.604443 
4406.455339  	94.550063 
4407.419764  	94.521014 
4408.384188  	94.558907 
4409.348613  	94.574800 
4410.313037  	94.567025 
4411.277462  	94.553480 
4412.241886  	94.524782 
4413.206311  	94.541573 
4414.170735  	94.615320 
4415.135160  	94.637886 
4416.099584  	94.589792 
4417.064008  	94.488435 
4418.028433  	94.455589 
4418.992857  	94.524067 
4419.957282  	94.513933 
4420.921706  	94.488370 
4421.886131  	94.509775 
4422.850555  	94.520734 
4423.814980  	94.486402 
4424.779404  	94.489566 
4425.743829  	94.490884 
4426.708253  	94.481084 
4427.672677  	94.508846 
4428.637102  	94.490905 
4429.601526  	94.545806 
4430.565951  	94.617158 
4431.530375  	94.613799 
4432.494800  	94.540374 
4433.459224  	94.469642 
4434.423649  	94.497378 
4435.388073  	94.523279 
4436.352498  	94.597145 
4437.316922  	94.693740 
4438.281347  	94.684753 
4439.245771  	94.579665 
4440.210195  	94.585284 
4441.174620  	94.588926 
4442.139044  	94.560864 
4443.103469  	94.592973 
4444.067893  	94.580640 
4445.032318  	94.589956 
4445.996742  	94.662068 
4446.961167  	94.658451 
4447.925591  	94.605462 
4448.890016  	94.583568 
4449.854440  	94.511587 
4450.818864  	94.518380 
4451.783289  	94.573452 
4452.747713  	94.541702 
4453.712138  	94.585342 
4454.676562  	94.633830 
4455.640987  	94.553296 
4456.605411  	94.564158 
4457.569836  	94.634757 
4458.534260  	94.589254 
4459.498685  	94.543872 
4460.463109  	94.573742 
4461.427533  	94.548142 
4462.391958  	94.511638 
4463.356382  	94.541308 
4464.320807  	94.589944 
4465.285231  	94.552156 
4466.249656  	94.522872 
4467.214080  	94.576297 
4468.178505  	94.633883 
4469.142929  	94.629647 
4470.107354  	94.645881 
4471.071778  	94.590677 
4472.036202  	94.615047 
4473.000627  	94.658791 
4473.965051  	94.573563 
4474.929476  	94.515936 
4475.893900  	94.528593 
4476.858325  	94.503161 
4477.822749  	94.544092 
4478.787174  	94.599398 
4479.751598  	94.589997 
4480.716023  	94.551570 
4481.680447  	94.528517 
4482.644871  	94.523406 
4483.609296  	94.470011 
4484.573720  	94.483899 
4485.538145  	94.562995 
4486.502569  	94.587914 
4487.466994  	94.607407 
4488.431418  	94.663177 
4489.395843  	94.632626 
4490.360267  	94.680084 
4491.324692  	94.717414 
4492.289116  	94.640929 
4493.253541  	94.599767 
4494.217965  	94.595853 
4495.182389  	94.595707 
4496.146814  	94.607306 
4497.111238  	94.594909 
4498.075663  	94.575725 
4499.040087  	94.574613 
4500.004512  	94.591509 
4500.968936  	94.640643 
4501.933361  	94.616780 
4502.897785  	94.599916 
4503.862210  	94.615673 
4504.826634  	94.614532 
4505.791058  	94.585574 
4506.755483  	94.561069 
4507.719907  	94.592694 
4508.684332  	94.676198 
4509.648756  	94.649286 
4510.613181  	94.581017 
4511.577605  	94.630419 
4512.542030  	94.677686 
4513.506454  	94.650243 
4514.470879  	94.568350 
4515.435303  	94.501428 
4516.399727  	94.525954 
4517.364152  	94.563714 
4518.328576  	94.604580 
4519.293001  	94.650615 
4520.257425  	94.633329 
4521.221850  	94.571046 
4522.186274  	94.647314 
4523.150699  	94.654035 
4524.115123  	94.576803 
4525.079548  	94.596249 
4526.043972  	94.638398 
4527.008396  	94.628902 
4527.972821  	94.576641 
4528.937245  	94.563571 
4529.901670  	94.537612 
4530.866094  	94.540004 
4531.830519  	94.586282 
4532.794943  	94.552521 
4533.759368  	94.545553 
4534.723792  	94.481673 
4535.688217  	94.454577 
4536.652641  	94.531364 
4537.617065  	94.534368 
4538.581490  	94.571363 
4539.545914  	94.645970 
4540.510339  	94.646176 
4541.474763  	94.565085 
4542.439188  	94.503972 
4543.403612  	94.505981 
4544.368037  	94.475447 
4545.332461  	94.450411 
4546.296886  	94.524460 
4547.261310  	94.527697 
4548.225734  	94.555680 
4549.190159  	94.664673 
4550.154583  	94.732359 
4551.119008  	94.619656 
4552.083432  	94.534177 
4553.047857  	94.576526 
4554.012281  	94.590531 
4554.976706  	94.577595 
4555.941130  	94.534465 
4556.905555  	94.531937 
4557.869979  	94.604042 
4558.834404  	94.676924 
4559.798828  	94.610675 
4560.763252  	94.495297 
4561.727677  	94.509944 
4562.692101  	94.547668 
4563.656526  	94.584839 
4564.620950  	94.645483 
4565.585375  	94.598193 
4566.549799  	94.579676 
4567.514224  	94.643442 
4568.478648  	94.690511 
4569.443073  	94.680676 
4570.407497  	94.653462 
4571.371921  	94.660214 
4572.336346  	94.618345 
4573.300770  	94.604543 
4574.265195  	94.604242 
4575.229619  	94.542695 
4576.194044  	94.513085 
4577.158468  	94.507624 
4578.122893  	94.603536 
4579.087317  	94.637003 
4580.051742  	94.590390 
4581.016166  	94.649405 
4581.980590  	94.725614 
4582.945015  	94.715823 
4583.909439  	94.673242 
4584.873864  	94.656256 
4585.838288  	94.573375 
4586.802713  	94.549338 
4587.767137  	94.477065 
4588.731562  	94.503891 
4589.695986  	94.527220 
4590.660411  	94.535857 
4591.624835  	94.561731 
4592.589259  	94.598615 
4593.553684  	94.633162 
4594.518108  	94.582065 
4595.482533  	94.613645 
4596.446957  	94.637079 
4597.411382  	94.481834 
4598.375806  	94.434786 
4599.340231  	94.534578 
4600.304655  	94.633342 
4601.269080  	94.642967 
4602.233504  	94.594272 
4603.197928  	94.566068 
4604.162353  	94.626854 
4605.126777  	94.682736 
4606.091202  	94.709320 
4607.055626  	94.733176 
4608.020051  	94.695931 
4608.984475  	94.589005 
4609.948900  	94.600563 
4610.913324  	94.677074 
4611.877749  	94.646148 
4612.842173  	94.621053 
4613.806598  	94.690765 
4614.771022  	94.730346 
4615.735446  	94.704360 
4616.699871  	94.594155 
4617.664295  	94.513361 
4618.628720  	94.558250 
4619.593144  	94.631192 
4620.557569  	94.744842 
4621.521993  	94.631361 
4622.486418  	94.468978 
4623.450842  	94.533925 
4624.415267  	94.585041 
4625.379691  	94.604112 
4626.344115  	94.595157 
4627.308540  	94.616614 
4628.272964  	94.631946 
4629.237389  	94.667448 
4630.201813  	94.681298 
4631.166238  	94.684295 
4632.130662  	94.644404 
4633.095087  	94.575071 
4634.059511  	94.531602 
4635.023936  	94.625901 
4635.988360  	94.718239 
4636.952784  	94.638042 
4637.917209  	94.641230 
4638.881633  	94.677103 
4639.846058  	94.655009 
4640.810482  	94.620397 
4641.774907  	94.578939 
4642.739331  	94.522745 
4643.703756  	94.555378 
4644.668180  	94.614293 
4645.632605  	94.601298 
4646.597029  	94.595168 
4647.561453  	94.608377 
4648.525878  	94.658810 
4649.490302  	94.711658 
4650.454727  	94.710402 
4651.419151  	94.659724 
4652.383576  	94.602405 
4653.348000  	94.533974 
4654.312425  	94.573914 
4655.276849  	94.637037 
4656.241274  	94.618115 
4657.205698  	94.581554 
4658.170122  	94.521523 
4659.134547  	94.519665 
4660.098971  	94.565822 
4661.063396  	94.638506 
4662.027820  	94.640181 
4662.992245  	94.604482 
4663.956669  	94.659013 
4664.921094  	94.688373 
4665.885518  	94.675294 
4666.849943  	94.721296 
4667.814367  	94.663640 
4668.778791  	94.662304 
4669.743216  	94.708732 
4670.707640  	94.680157 
4671.672065  	94.644026 
4672.636489  	94.558110 
4673.600914  	94.596524 
4674.565338  	94.666568 
4675.529763  	94.672140 
4676.494187  	94.685625 
4677.458612  	94.693790 
4678.423036  	94.702462 
4679.387461  	94.678618 
4680.351885  	94.669071 
4681.316309  	94.671315 
4682.280734  	94.642543 
4683.245158  	94.612064 
4684.209583  	94.637761 
4685.174007  	94.651856 
4686.138432  	94.661620 
4687.102856  	94.726319 
4688.067281  	94.743436 
4689.031705  	94.660369 
4689.996130  	94.670102 
4690.960554  	94.701881 
4691.924978  	94.712957 
4692.889403  	94.665682 
4693.853827  	94.641608 
4694.818252  	94.643728 
4695.782676  	94.665345 
4696.747101  	94.706048 
4697.711525  	94.695936 
4698.675950  	94.664022 
4699.640374  	94.547245 