##TITLE=No Description
##DATA TYPE=INFRARED SPECTRUM
##XUNITS=1/CM
##YUNITS=%T
400.236149  	120.465006 
401.200574  	103.413200 
402.164998  	79.012531 
403.129423  	74.073621 
404.093847  	91.154734 
405.058272  	102.321283 
406.022696  	100.874973 
406.987120  	77.160130 
407.951545  	80.501192 
408.915969  	84.736823 
409.880394  	79.469356 
410.844818  	89.251678 
411.809243  	94.762912 
412.773667  	88.524485 
413.738092  	80.297823 
414.702516  	70.448595 
415.666941  	74.362604 
416.631365  	86.461108 
417.595789  	96.782160 
418.560214  	95.344071 
419.524638  	88.873756 
420.489063  	82.622445 
421.453487  	79.919701 
422.417912  	78.936532 
423.382336  	79.881943 
424.346761  	79.793975 
425.311185  	76.524944 
426.275610  	77.488082 
427.240034  	78.634822 
428.204458  	79.555053 
429.168883  	80.473365 
430.133307  	80.873870 
431.097732  	78.990764 
432.062156  	76.216312 
433.026581  	76.133375 
433.991005  	77.353568 
434.955430  	77.368373 
435.919854  	76.461709 
436.884279  	77.180642 
437.848703  	77.280825 
438.813127  	76.251687 
439.777552  	76.415465 
440.741976  	77.790971 
441.706401  	77.781706 
442.670825  	78.253112 
443.635250  	77.161747 
444.599674  	76.639554 
445.564099  	77.783450 
446.528523  	77.547202 
447.492948  	76.583000 
448.457372  	77.620443 
449.421796  	76.446706 
450.386221  	74.528155 
451.350645  	75.334924 
452.315070  	75.829158 
453.279494  	75.922317 
454.243919  	75.717136 
455.208343  	75.077197 
456.172768  	74.429647 
457.137192  	74.801201 
458.101617  	74.850761 
459.066041  	75.004692 
460.030466  	75.407331 
460.994890  	74.706461 
461.959314  	74.474527 
462.923739  	74.650074 
463.888163  	74.087484 
464.852588  	73.946886 
465.817012  	74.343819 
466.781437  	74.146230 
467.745861  	73.693059 
468.710286  	73.209865 
469.674710  	72.514223 
470.639135  	72.137242 
471.603559  	71.816477 
472.567983  	72.477964 
473.532408  	73.942290 
474.496832  	73.919341 
475.461257  	74.162377 
476.425681  	73.715582 
477.390106  	73.820946 
478.354530  	73.694671 
479.318955  	72.627087 
480.283379  	72.260717 
481.247804  	73.232530 
482.212228  	72.663691 
483.176652  	72.784835 
484.141077  	73.296896 
485.105501  	72.485210 
486.069926  	71.754963 
487.034350  	72.459748 
487.998775  	72.625521 
488.963199  	72.350131 
489.927624  	72.785251 
490.892048  	72.710230 
491.856473  	71.912262 
492.820897  	72.013570 
493.785321  	71.919399 
494.749746  	71.038521 
495.714170  	70.763088 
496.678595  	71.138712 
497.643019  	71.678951 
498.607444  	71.898882 
499.571868  	71.448396 
500.536293  	71.060324 
501.500717  	70.416625 
502.465142  	70.221088 
503.429566  	70.805522 
504.393990  	71.091500 
505.358415  	71.059933 
506.322839  	70.148560 
507.287264  	69.537959 
508.251688  	70.291020 
509.216113  	70.888102 
510.180537  	70.484754 
511.144962  	70.102066 
512.109386  	70.247471 
513.073811  	69.949098 
514.038235  	69.578497 
515.002660  	69.149524 
515.967084  	68.560200 
516.931508  	68.059934 
517.895933  	68.780467 
518.860357  	68.963931 
519.824782  	68.498309 
520.789206  	69.039129 
521.753631  	69.266246 
522.718055  	69.180977 
523.682480  	68.810294 
524.646904  	68.406562 
525.611329  	67.933686 
526.575753  	67.764796 
527.540177  	67.763099 
528.504602  	67.473200 
529.469026  	67.190784 
530.433451  	67.129930 
531.397875  	67.059641 
532.362300  	67.162893 
533.326724  	67.301783 
534.291149  	66.997536 
535.255573  	67.234400 
536.219998  	67.763266 
537.184422  	68.234157 
538.148846  	68.337694 
539.113271  	68.617002 
540.077695  	68.799635 
541.042120  	69.235819 
542.006544  	69.588647 
542.970969  	69.420896 
543.935393  	69.120897 
544.899818  	69.266099 
545.864242  	69.381821 
546.828667  	69.229169 
547.793091  	68.941240 
548.757515  	68.912572 
549.721940  	68.719403 
550.686364  	68.554559 
551.650789  	68.746905 
552.615213  	68.500162 
553.579638  	68.281712 
554.544062  	68.218208 
555.508487  	68.151289 
556.472911  	67.733936 
557.437336  	67.238923 
558.401760  	67.055805 
559.366184  	67.010542 
560.330609  	66.346243 
561.295033  	66.011632 
562.259458  	65.786714 
563.223882  	65.239885 
564.188307  	64.881438 
565.152731  	64.561241 
566.117156  	64.100727 
567.081580  	63.485503 
568.046005  	63.009324 
569.010429  	62.459286 
569.974853  	61.911734 
570.939278  	61.168867 
571.903702  	60.648490 
572.868127  	60.262849 
573.832551  	59.761762 
574.796976  	59.522064 
575.761400  	58.981109 
576.725825  	58.980861 
577.690249  	59.198768 
578.654674  	59.505656 
579.619098  	59.867819 
580.583523  	60.316898 
581.547947  	61.217653 
582.512371  	62.288701 
583.476796  	63.156962 
584.441220  	63.885374 
585.405645  	64.724445 
586.370069  	65.776918 
587.334494  	66.578449 
588.298918  	67.131818 
589.263343  	67.560384 
590.227767  	68.046126 
591.192192  	68.176351 
592.156616  	68.316297 
593.121040  	68.949008 
594.085465  	69.473425 
595.049889  	69.730864 
596.014314  	69.919956 
596.978738  	70.086213 
597.943163  	70.316908 
598.907587  	70.494642 
599.872012  	70.451383 
600.836436  	70.524816 
601.800861  	70.737017 
602.765285  	70.942423 
603.729709  	71.179048 
604.694134  	71.252114 
605.658558  	71.283973 
606.622983  	71.407797 
607.587407  	71.295722 
608.551832  	71.304762 
609.516256  	71.431047 
610.480681  	71.443156 
611.445105  	71.404292 
612.409530  	71.584511 
613.373954  	71.653082 
614.338378  	71.415314 
615.302803  	71.264692 
616.267227  	71.245953 
617.231652  	71.446536 
618.196076  	71.491071 
619.160501  	71.458293 
620.124925  	71.225405 
621.089350  	71.238654 
622.053774  	71.399815 
623.018199  	71.851515 
623.982623  	71.622602 
624.947047  	71.489611 
625.911472  	71.410076 
626.875896  	71.449906 
627.840321  	71.385597 
628.804745  	71.471058 
629.769170  	71.373356 
630.733594  	71.310008 
631.698019  	71.391223 
632.662443  	71.420086 
633.626868  	71.164852 
634.591292  	71.016160 
635.555717  	70.877834 
636.520141  	71.140784 
637.484565  	71.077587 
638.448990  	70.915420 
639.413414  	70.688875 
640.377839  	70.673783 
641.342263  	70.611894 
642.306688  	70.426679 
643.271112  	70.365621 
644.235537  	70.368979 
645.199961  	70.186394 
646.164386  	70.161203 
647.128810  	70.089363 
648.093234  	69.865440 
649.057659  	69.578181 
650.022083  	69.463510 
650.986508  	69.401364 
651.950932  	69.109608 
652.915357  	68.774967 
653.879781  	68.692282 
654.844206  	68.612423 
655.808630  	68.283119 
656.773055  	67.844695 
657.737479  	67.737065 
658.701903  	67.409818 
659.666328  	67.023698 
660.630752  	66.834909 
661.595177  	66.666851 
662.559601  	66.446131 
663.524026  	66.118982 
664.488450  	65.887331 
665.452875  	65.537639 
666.417299  	65.409415 
667.381724  	65.474114 
668.346148  	64.721609 
669.310572  	64.253142 
670.274997  	64.200570 
671.239421  	64.162714 
672.203846  	63.909551 
673.168270  	63.647826 
674.132695  	63.345662 
675.097119  	63.142416 
676.061544  	62.914546 
677.025968  	62.753917 
677.990393  	62.483512 
678.954817  	62.369486 
679.919241  	62.338284 
680.883666  	62.407689 
681.848090  	62.326509 
682.812515  	62.219528 
683.776939  	62.119972 
684.741364  	62.127890 
685.705788  	62.228331 
686.670213  	62.447384 
687.634637  	62.615411 
688.599062  	62.812226 
689.563486  	63.124895 
690.527910  	63.597429 
691.492335  	64.009616 
692.456759  	64.429385 
693.421184  	64.852497 
694.385608  	65.418462 
695.350033  	65.930063 
696.314457  	66.335151 
697.278882  	66.662992 
698.243306  	67.134450 
699.207731  	67.543870 
700.172155  	67.947621 
701.136580  	68.301251 
702.101004  	68.717388 
703.065428  	69.097673 
704.029853  	69.340752 
704.994277  	69.561307 
705.958702  	69.930226 
706.923126  	70.269808 
707.887551  	70.479019 
708.851975  	70.765100 
709.816400  	70.920974 
710.780824  	71.033749 
711.745249  	71.175224 
712.709673  	71.317560 
713.674097  	71.372892 
714.638522  	71.593015 
715.602946  	71.797930 
716.567371  	71.785317 
717.531795  	71.786251 
718.496220  	71.740626 
719.460644  	71.743487 
720.425069  	71.841799 
721.389493  	71.929720 
722.353918  	71.948200 
723.318342  	71.903746 
724.282766  	71.890984 
725.247191  	71.790281 
726.211615  	71.688244 
727.176040  	71.695390 
728.140464  	71.626782 
729.104889  	71.616018 
730.069313  	71.836298 
731.033738  	72.362464 
731.998162  	73.009997 
732.962587  	73.725853 
733.927011  	74.418675 
734.891435  	75.122847 
735.855860  	75.860130 
736.820284  	76.616520 
737.784709  	77.263102 
738.749133  	77.831861 
739.713558  	78.279186 
740.677982  	78.666575 
741.642407  	79.005489 
742.606831  	79.363442 
743.571256  	79.567082 
744.535680  	79.620972 
745.500104  	79.841744 
746.464529  	79.979465 
747.428953  	80.012807 
748.393378  	80.190073 
749.357802  	80.267705 
750.322227  	80.321723 
751.286651  	80.426431 
752.251076  	80.568676 
753.215500  	80.659797 
754.179925  	80.766415 
755.144349  	80.818539 
756.108774  	80.981164 
757.073198  	81.084477 
758.037622  	81.079281 
759.002047  	81.085776 
759.966471  	81.224083 
760.930896  	81.325638 
761.895320  	81.437976 
762.859745  	81.645766 
763.824169  	81.831327 
764.788594  	81.973890 
765.753018  	82.032925 
766.717443  	82.065343 
767.681867  	82.216342 
768.646291  	82.381825 
769.610716  	82.517119 
770.575140  	82.631211 
771.539565  	82.775939 
772.503989  	82.788338 
773.468414  	82.806797 
774.432838  	82.860178 
775.397263  	83.013117 
776.361687  	83.109281 
777.326112  	83.364639 
778.290536  	83.501458 
779.254960  	83.528923 
780.219385  	83.530331 
781.183809  	83.943002 
782.148234  	83.794156 
783.112658  	83.828732 
784.077083  	83.949627 
785.041507  	84.024593 
786.005932  	84.255691 
786.970356  	84.160777 
787.934781  	84.072467 
788.899205  	84.105965 
789.863629  	84.245101 
790.828054  	84.228140 
791.792478  	84.224631 
792.756903  	84.332727 
793.721327  	84.381039 
794.685752  	84.279343 
795.650176  	84.378464 
796.614601  	84.517382 
797.579025  	84.538697 
798.543450  	84.494272 
799.507874  	84.667266 
800.472298  	84.946899 
801.436723  	85.120636 
802.401147  	85.179880 
803.365572  	85.238695 
804.329996  	85.428056 
805.294421  	85.609729 
806.258845  	85.699223 
807.223270  	85.798071 
808.187694  	85.847430 
809.152119  	85.855315 
810.116543  	85.919027 
811.080967  	86.031421 
812.045392  	86.083548 
813.009816  	86.139981 
813.974241  	86.216163 
814.938665  	86.336328 
815.903090  	86.389043 
816.867514  	86.376137 
817.831939  	86.484714 
818.796363  	86.640298 
819.760788  	86.708321 
820.725212  	86.766939 
821.689637  	86.807517 
822.654061  	86.882488 
823.618485  	86.970241 
824.582910  	86.983654 
825.547334  	86.946470 
826.511759  	86.943091 
827.476183  	87.043675 
828.440608  	87.149824 
829.405032  	87.171159 
830.369457  	87.229392 
831.333881  	87.335834 
832.298306  	87.405465 
833.262730  	87.385802 
834.227154  	87.413288 
835.191579  	87.515713 
836.156003  	87.588760 
837.120428  	87.518701 
838.084852  	87.418945 
839.049277  	87.441125 
840.013701  	87.496038 
840.978126  	87.492480 
841.942550  	87.588846 
842.906975  	87.651736 
843.871399  	87.638892 
844.835823  	87.616803 
845.800248  	87.671210 
846.764672  	87.738887 
847.729097  	87.799318 
848.693521  	87.795739 
849.657946  	87.795533 
850.622370  	87.845801 
851.586795  	87.854493 
852.551219  	87.747352 
853.515644  	87.790164 
854.480068  	87.823606 
855.444492  	87.827629 
856.408917  	87.877377 
857.373341  	87.902238 
858.337766  	87.893551 
859.302190  	87.954414 
860.266615  	87.935649 
861.231039  	87.883744 
862.195464  	87.899838 
863.159888  	87.887224 
864.124313  	87.878921 
865.088737  	87.929006 
866.053161  	88.009918 
867.017586  	88.010633 
867.982010  	87.958576 
868.946435  	87.962967 
869.910859  	87.942244 
870.875284  	87.909273 
871.839708  	87.882169 
872.804133  	87.869198 
873.768557  	87.871065 
874.732982  	87.789764 
875.697406  	87.705050 
876.661831  	87.675673 
877.626255  	87.659501 
878.590679  	87.709755 
879.555104  	87.725525 
880.519528  	87.709678 
881.483953  	87.655761 
882.448377  	87.620143 
883.412802  	87.621842 
884.377226  	87.585813 
885.341651  	87.582165 
886.306075  	87.531454 
887.270500  	87.502281 
888.234924  	87.574118 
889.199348  	87.536138 
890.163773  	87.386110 
891.128197  	87.372442 
892.092622  	87.372531 
893.057046  	87.267082 
894.021471  	87.206201 
894.985895  	87.204522 
895.950320  	87.059793 
896.914744  	86.865052 
897.879169  	86.744139 
898.843593  	86.636481 
899.808017  	86.436979 
900.772442  	86.098654 
901.736866  	85.749323 
902.701291  	85.502119 
903.665715  	85.236755 
904.630140  	84.936643 
905.594564  	84.743772 
906.558989  	84.771578 
907.523413  	84.999725 
908.487838  	85.264609 
909.452262  	85.570477 
910.416686  	85.857103 
911.381111  	85.973293 
912.345535  	85.969047 
913.309960  	85.924587 
914.274384  	85.853917 
915.238809  	85.732849 
916.203233  	85.644322 
917.167658  	85.590560 
918.132082  	85.488419 
919.096507  	85.307368 
920.060931  	85.169980 
921.025355  	85.051236 
921.989780  	84.883110 
922.954204  	84.627959 
923.918629  	84.314215 
924.883053  	84.008746 
925.847478  	83.684718 
926.811902  	83.266021 
927.776327  	82.810326 
928.740751  	82.261547 
929.705176  	81.607177 
930.669600  	80.868919 
931.634024  	80.152829 
932.598449  	79.490080 
933.562873  	78.994064 
934.527298  	78.852281 
935.491722  	79.085633 
936.456147  	79.696656 
937.420571  	80.607587 
938.384996  	81.535718 
939.349420  	82.423257 
940.313845  	83.251231 
941.278269  	83.934184 
942.242694  	84.454251 
943.207118  	84.842447 
944.171542  	85.190794 
945.135967  	85.495828 
946.100391  	85.726119 
947.064816  	85.832105 
948.029240  	85.919648 
948.993665  	86.071304 
949.958089  	86.192199 
950.922514  	86.267284 
951.886938  	86.344788 
952.851363  	86.371558 
953.815787  	86.386999 
954.780211  	86.487171 
955.744636  	86.566153 
956.709060  	86.595413 
957.673485  	86.616459 
958.637909  	86.624121 
959.602334  	86.627889 
960.566758  	86.656137 
961.531183  	86.629778 
962.495607  	86.593047 
963.460032  	86.648048 
964.424456  	86.694698 
965.388880  	86.648702 
966.353305  	86.619023 
967.317729  	86.655709 
968.282154  	86.672387 
969.246578  	86.641546 
970.211003  	86.616437 
971.175427  	86.587941 
972.139852  	86.487343 
973.104276  	86.397040 
974.068701  	86.379219 
975.033125  	86.344366 
975.997549  	86.288140 
976.961974  	86.218567 
977.926398  	86.161422 
978.890823  	86.110848 
979.855247  	86.019548 
980.819672  	85.921629 
981.784096  	85.829193 
982.748521  	85.717941 
983.712945  	85.546510 
984.677370  	85.355282 
985.641794  	85.225823 
986.606218  	85.154088 
987.570643  	85.108412 
988.535067  	85.080441 
989.499492  	85.076811 
990.463916  	85.044667 
991.428341  	84.997494 
992.392765  	84.928460 
993.357190  	84.807432 
994.321614  	84.722278 
995.286039  	84.630918 
996.250463  	84.554514 
997.214888  	84.491981 
998.179312  	84.439197 
999.143736  	84.331971 
1000.108161  	84.243282 
1001.072585  	84.217668 
1002.037010  	84.192105 
1003.001434  	84.110687 
1003.965859  	84.027853 
1004.930283  	83.965128 
1005.894708  	83.859037 
1006.859132  	83.751032 
1007.823557  	83.632777 
1008.787981  	83.517296 
1009.752405  	83.429681 
1010.716830  	83.312952 
1011.681254  	83.219227 
1012.645679  	83.186881 
1013.610103  	83.130746 
1014.574528  	82.994565 
1015.538952  	82.913034 
1016.503377  	82.945295 
1017.467801  	82.934533 
1018.432226  	82.869545 
1019.396650  	82.865413 
1020.361074  	82.886416 
1021.325499  	82.876913 
1022.289923  	82.834463 
1023.254348  	82.786917 
1024.218772  	82.690040 
1025.183197  	82.577782 
1026.147621  	82.458169 
1027.112046  	82.399911 
1028.076470  	82.342498 
1029.040895  	82.217234 
1030.005319  	82.095009 
1030.969743  	82.022623 
1031.934168  	81.996252 
1032.898592  	81.966993 
1033.863017  	81.924316 
1034.827441  	81.845595 
1035.791866  	81.767280 
1036.756290  	81.745172 
1037.720715  	81.721693 
1038.685139  	81.695387 
1039.649564  	81.683481 
1040.613988  	81.677436 
1041.578412  	81.633613 
1042.542837  	81.656673 
1043.507261  	81.789133 
1044.471686  	81.855784 
1045.436110  	81.898578 
1046.400535  	81.993853 
1047.364959  	82.077267 
1048.329384  	82.085172 
1049.293808  	82.078838 
1050.258233  	82.156177 
1051.222657  	82.253308 
1052.187081  	82.242776 
1053.151506  	82.199059 
1054.115930  	82.177707 
1055.080355  	82.150542 
1056.044779  	82.110071 
1057.009204  	82.054906 
1057.973628  	82.026244 
1058.938053  	82.031279 
1059.902477  	81.938881 
1060.866902  	81.867954 
1061.831326  	81.918075 
1062.795751  	81.944276 
1063.760175  	81.946402 
1064.724599  	81.977380 
1065.689024  	82.064552 
1066.653448  	82.197228 
1067.617873  	82.356370 
1068.582297  	82.502206 
1069.546722  	82.682683 
1070.511146  	82.843523 
1071.475571  	82.973834 
1072.439995  	83.099212 
1073.404420  	83.182510 
1074.368844  	83.227682 
1075.333268  	83.244256 
1076.297693  	83.230054 
1077.262117  	83.261614 
1078.226542  	83.303299 
1079.190966  	83.281664 
1080.155391  	83.221563 
1081.119815  	83.170855 
1082.084240  	83.182850 
1083.048664  	83.209251 
1084.013089  	83.194649 
1084.977513  	83.152198 
1085.941937  	83.045730 
1086.906362  	82.890669 
1087.870786  	82.808360 
1088.835211  	82.783715 
1089.799635  	82.703443 
1090.764060  	82.607935 
1091.728484  	82.570306 
1092.692909  	82.523472 
1093.657333  	82.425245 
1094.621758  	82.313744 
1095.586182  	82.319171 
1096.550606  	82.321271 
1097.515031  	82.287879 
1098.479455  	82.257083 
1099.443880  	82.242786 
1100.408304  	82.305742 
1101.372729  	82.336094 
1102.337153  	82.374502 
1103.301578  	82.417307 
1104.266002  	82.425229 
1105.230427  	82.403622 
1106.194851  	82.407372 
1107.159275  	82.442253 
1108.123700  	82.452107 
1109.088124  	82.427508 
1110.052549  	82.407198 
1111.016973  	82.419984 
1111.981398  	82.425284 
1112.945822  	82.411195 
1113.910247  	82.413202 
1114.874671  	82.434747 
1115.839096  	82.479064 
1116.803520  	82.509800 
1117.767945  	82.473267 
1118.732369  	82.455220 
1119.696793  	82.482381 
1120.661218  	82.463347 
1121.625642  	82.404039 
1122.590067  	82.371726 
1123.554491  	82.306760 
1124.518916  	82.197496 
1125.483340  	82.106161 
1126.447765  	82.062564 
1127.412189  	81.985063 
1128.376614  	81.863828 
1129.341038  	81.739649 
1130.305462  	81.583877 
1131.269887  	81.358796 
1132.234311  	81.036757 
1133.198736  	80.663373 
1134.163160  	80.296692 
1135.127585  	79.863386 
1136.092009  	79.378678 
1137.056434  	78.957324 
1138.020858  	78.712205 
1138.985283  	78.617158 
1139.949707  	78.598988 
1140.914131  	78.670942 
1141.878556  	78.787516 
1142.842980  	78.832906 
1143.807405  	78.829903 
1144.771829  	78.837569 
1145.736254  	78.849757 
1146.700678  	78.866232 
1147.665103  	78.885344 
1148.629527  	78.964987 
1149.593952  	79.099513 
1150.558376  	79.270242 
1151.522800  	79.420248 
1152.487225  	79.612218 
1153.451649  	79.823695 
1154.416074  	80.017393 
1155.380498  	80.150558 
1156.344923  	80.254652 
1157.309347  	80.353672 
1158.273772  	80.437835 
1159.238196  	80.441025 
1160.202621  	80.444478 
1161.167045  	80.423406 
1162.131469  	80.337367 
1163.095894  	80.206040 
1164.060318  	80.087816 
1165.024743  	79.957850 
1165.989167  	79.796783 
1166.953592  	79.606546 
1167.918016  	79.407195 
1168.882441  	79.154981 
1169.846865  	78.806761 
1170.811290  	78.435770 
1171.775714  	78.010776 
1172.740138  	77.567184 
1173.704563  	77.041542 
1174.668987  	76.434078 
1175.633412  	75.931810 
1176.597836  	75.497043 
1177.562261  	75.117986 
1178.526685  	74.836414 
1179.491110  	74.759746 
1180.455534  	74.842419 
1181.419959  	75.012323 
1182.384383  	75.252073 
1183.348808  	75.499696 
1184.313232  	75.725802 
1185.277656  	75.865412 
1186.242081  	75.908801 
1187.206505  	75.884831 
1188.170930  	75.759488 
1189.135354  	75.453212 
1190.099779  	74.994379 
1191.064203  	74.429629 
1192.028628  	73.717120 
1192.993052  	72.835335 
1193.957477  	71.892656 
1194.921901  	70.991037 
1195.886325  	70.249021 
1196.850750  	69.799836 
1197.815174  	69.783065 
1198.779599  	70.292766 
1199.744023  	71.226947 
1200.708448  	72.334727 
1201.672872  	73.475096 
1202.637297  	74.596715 
1203.601721  	75.605679 
1204.566146  	76.441355 
1205.530570  	77.139952 
1206.494994  	77.722494 
1207.459419  	78.173021 
1208.423843  	78.523737 
1209.388268  	78.776391 
1210.352692  	78.951756 
1211.317117  	79.033173 
1212.281541  	79.036005 
1213.245966  	79.101390 
1214.210390  	79.157004 
1215.174815  	79.109260 
1216.139239  	79.037957 
1217.103663  	78.967395 
1218.068088  	78.866090 
1219.032512  	78.680968 
1219.996937  	78.414733 
1220.961361  	78.087724 
1221.925786  	77.717634 
1222.890210  	77.303594 
1223.854635  	76.972510 
1224.819059  	76.848477 
1225.783484  	77.024623 
1226.747908  	77.308509 
1227.712332  	77.457073 
1228.676757  	77.491998 
1229.641181  	77.420026 
1230.605606  	77.276590 
1231.570030  	77.092658 
1232.534455  	76.911339 
1233.498879  	76.739889 
1234.463304  	76.580426 
1235.427728  	76.432788 
1236.392153  	76.298474 
1237.356577  	76.166501 
1238.321002  	76.033442 
1239.285426  	75.937154 
1240.249850  	75.853636 
1241.214275  	75.751308 
1242.178699  	75.621734 
1243.143124  	75.483393 
1244.107548  	75.328751 
1245.071973  	75.251014 
1246.036397  	75.132099 
1247.000822  	74.972632 
1247.965246  	74.850695 
1248.929671  	74.717276 
1249.894095  	74.543907 
1250.858519  	74.391283 
1251.822944  	74.225036 
1252.787368  	74.055788 
1253.751793  	73.878706 
1254.716217  	73.669454 
1255.680642  	73.471213 
1256.645066  	73.274162 
1257.609491  	73.005706 
1258.573915  	72.694392 
1259.538340  	72.317429 
1260.502764  	71.924164 
1261.467188  	71.697258 
1262.431613  	71.430928 
1263.396037  	71.088675 
1264.360462  	70.744906 
1265.324886  	70.388074 
1266.289311  	70.026869 
1267.253735  	69.742080 
1268.218160  	69.463840 
1269.182584  	69.139155 
1270.147009  	68.841089 
1271.111433  	68.672624 
1272.075857  	68.523279 
1273.040282  	68.499642 
1274.004706  	68.530286 
1274.969131  	68.697544 
1275.933555  	69.006591 
1276.897980  	69.439646 
1277.862404  	70.007175 
1278.826829  	70.694663 
1279.791253  	71.416905 
1280.755678  	72.141188 
1281.720102  	72.904096 
1282.684526  	73.648631 
1283.648951  	74.268929 
1284.613375  	74.817950 
1285.577800  	75.370741 
1286.542224  	75.794965 
1287.506649  	76.010567 
1288.471073  	76.292288 
1289.435498  	76.720049 
1290.399922  	77.006875 
1291.364347  	77.214927 
1292.328771  	77.414079 
1293.293195  	77.565789 
1294.257620  	77.709608 
1295.222044  	77.783691 
1296.186469  	77.752471 
1297.150893  	77.780649 
1298.115318  	77.895969 
1299.079742  	77.874423 
1300.044167  	77.857872 
1301.008591  	77.874277 
1301.973016  	77.880125 
1302.937440  	77.889171 
1303.901865  	77.957297 
1304.866289  	78.079109 
1305.830713  	78.189741 
1306.795138  	78.279474 
1307.759562  	78.310961 
1308.723987  	78.417586 
1309.688411  	78.634524 
1310.652836  	78.742752 
1311.617260  	78.707334 
1312.581685  	78.443458 
1313.546109  	78.544558 
1314.510534  	78.728750 
1315.474958  	78.922691 
1316.439382  	78.871934 
1317.403807  	78.744735 
1318.368231  	78.693477 
1319.332656  	78.562445 
1320.297080  	78.843665 
1321.261505  	79.021615 
1322.225929  	79.108624 
1323.190354  	79.014304 
1324.154778  	78.934169 
1325.119203  	78.871559 
1326.083627  	78.804014 
1327.048051  	78.734871 
1328.012476  	78.686799 
1328.976900  	78.615252 
1329.941325  	78.558824 
1330.905749  	78.595518 
1331.870174  	78.645529 
1332.834598  	78.591736 
1333.799023  	78.534037 
1334.763447  	78.454465 
1335.727872  	78.133126 
1336.692296  	77.566832 
1337.656720  	77.369624 
1338.621145  	76.657774 
1339.585569  	75.939741 
1340.549994  	76.131772 
1341.514418  	77.188068 
1342.478843  	77.625293 
1343.443267  	77.536508 
1344.407692  	77.427126 
1345.372116  	77.330351 
1346.336541  	77.214213 
1347.300965  	77.081029 
1348.265389  	76.865724 
1349.229814  	76.547937 
1350.194238  	76.400842 
1351.158663  	76.321570 
1352.123087  	76.140625 
1353.087512  	75.941241 
1354.051936  	75.582242 
1355.016361  	75.120555 
1355.980785  	75.129061 
1356.945210  	75.038625 
1357.909634  	74.715401 
1358.874059  	74.542100 
1359.838483  	74.326212 
1360.802907  	73.549602 
1361.767332  	72.931226 
1362.731756  	72.006350 
1363.696181  	71.974319 
1364.660605  	72.964699 
1365.625030  	73.021128 
1366.589454  	72.810189 
1367.553879  	72.402762 
1368.518303  	71.803728 
1369.482728  	71.749735 
1370.447152  	72.064839 
1371.411576  	72.126505 
1372.376001  	72.097615 
1373.340425  	71.657523 
1374.304850  	71.529285 
1375.269274  	72.357900 
1376.233699  	73.502722 
1377.198123  	74.020306 
1378.162548  	74.176130 
1379.126972  	74.617281 
1380.091397  	75.068206 
1381.055821  	75.518118 
1382.020245  	75.805655 
1382.984670  	76.050302 
1383.949094  	76.284239 
1384.913519  	76.445225 
1385.877943  	76.162115 
1386.842368  	75.348005 
1387.806792  	75.459103 
1388.771217  	76.714530 
1389.735641  	77.263989 
1390.700066  	77.423554 
1391.664490  	77.671609 
1392.628914  	77.905591 
1393.593339  	77.480950 
1394.557763  	76.503460 
1395.522188  	76.620000 
1396.486612  	77.462852 
1397.451037  	77.525946 
1398.415461  	76.985938 
1399.379886  	76.920301 
1400.344310  	77.773432 
1401.308735  	78.171820 
1402.273159  	78.051984 
1403.237583  	77.765275 
1404.202008  	76.966126 
1405.166432  	76.024576 
1406.130857  	76.299216 
1407.095281  	76.294165 
1408.059706  	75.716617 
1409.024130  	74.916016 
1409.988555  	73.841271 
1410.952979  	72.672080 
1411.917404  	71.308502 
1412.881828  	70.173037 
1413.846252  	68.922627 
1414.810677  	67.634663 
1415.775101  	66.513036 
1416.739526  	66.064843 
1417.703950  	66.507014 
1418.668375  	67.014853 
1419.632799  	68.483548 
1420.597224  	71.514375 
1421.561648  	72.678536 
1422.526073  	73.287062 
1423.490497  	72.862594 
1424.454922  	73.094793 
1425.419346  	74.395614 
1426.383770  	74.918210 
1427.348195  	74.948495 
1428.312619  	74.706368 
1429.277044  	74.176323 
1430.241468  	73.767182 
1431.205893  	74.098685 
1432.170317  	73.900504 
1433.134742  	73.510298 
1434.099166  	73.553664 
1435.063591  	73.224499 
1436.028015  	71.863806 
1436.992439  	71.192772 
1437.956864  	72.688963 
1438.921288  	73.282981 
1439.885713  	73.440850 
1440.850137  	73.544542 
1441.814562  	73.631241 
1442.778986  	73.705247 
1443.743411  	73.718698 
1444.707835  	73.701569 
1445.672260  	73.652882 
1446.636684  	73.452622 
1447.601108  	72.652140 
1448.565533  	72.585428 
1449.529957  	73.201637 
1450.494382  	73.125225 
1451.458806  	72.437833 
1452.423231  	71.764922 
1453.387655  	71.795386 
1454.352080  	71.097059 
1455.316504  	69.743256 
1456.280929  	68.499990 
1457.245353  	67.525021 
1458.209777  	67.337800 
1459.174202  	67.686354 
1460.138626  	68.251820 
1461.103051  	68.173757 
1462.067475  	67.485405 
1463.031900  	66.795573 
1463.996324  	65.898255 
1464.960749  	65.306651 
1465.925173  	66.693872 
1466.889598  	68.051260 
1467.854022  	69.171340 
1468.818446  	70.111564 
1469.782871  	70.416125 
1470.747295  	69.752377 
1471.711720  	67.757169 
1472.676144  	65.811039 
1473.640569  	65.764225 
1474.604993  	66.757761 
1475.569418  	66.798126 
1476.533842  	67.212170 
1477.498267  	69.373779 
1478.462691  	70.948065 
1479.427116  	72.263868 
1480.391540  	73.252344 
1481.355964  	73.973408 
1482.320389  	75.518807 
1483.284813  	76.633013 
1484.249238  	77.252469 
1485.213662  	77.370172 
1486.178087  	76.938823 
1487.142511  	76.355028 
1488.106936  	76.385353 
1489.071360  	75.271549 
1490.035785  	73.749187 
1491.000209  	74.766291 
1491.964633  	76.069310 
1492.929058  	76.330505 
1493.893482  	76.007861 
1494.857907  	75.308070 
1495.822331  	73.978198 
1496.786756  	73.291883 
1497.751180  	73.467498 
1498.715605  	72.659361 
1499.680029  	72.596889 
1500.644454  	72.594974 
1501.608878  	71.856523 
1502.573302  	71.477411 
1503.537727  	71.258496 
1504.502151  	70.288047 
1505.466576  	68.291327 
1506.431000  	64.693572 
1507.395425  	62.903428 
1508.359849  	63.779081 
1509.324274  	64.401003 
1510.288698  	64.610066 
1511.253123  	64.812765 
1512.217547  	63.912150 
1513.181971  	63.572338 
1514.146396  	63.035646 
1515.110820  	61.403562 
1516.075245  	59.667357 
1517.039669  	57.763076 
1518.004094  	58.131919 
1518.968518  	58.164106 
1519.932943  	56.518558 
1520.897367  	53.664393 
1521.861792  	52.989176 
1522.826216  	52.991460 
1523.790640  	52.797971 
1524.755065  	51.636107 
1525.719489  	50.431208 
1526.683914  	49.933668 
1527.648338  	48.996129 
1528.612763  	48.623658 
1529.577187  	48.797612 
1530.541612  	48.545797 
1531.506036  	47.815796 
1532.470461  	47.305513 
1533.434885  	46.837970 
1534.399309  	47.930595 
1535.363734  	48.899079 
1536.328158  	49.692924 
1537.292583  	50.301178 
1538.257007  	49.911198 
1539.221432  	48.805560 
1540.185856  	50.476927 
1541.150281  	52.036607 
1542.114705  	52.728237 
1543.079130  	54.130059 
1544.043554  	54.705803 
1545.007979  	55.160816 
1545.972403  	57.233869 
1546.936827  	58.946550 
1547.901252  	59.776830 
1548.865676  	59.975225 
1549.830101  	59.263663 
1550.794525  	60.668379 
1551.758950  	62.310743 
1552.723374  	62.832823 
1553.687799  	62.474902 
1554.652223  	62.611285 
1555.616648  	64.156521 
1556.581072  	64.482883 
1557.545496  	63.543571 
1558.509921  	61.198204 
1559.474345  	61.278998 
1560.438770  	65.009438 
1561.403194  	67.619440 
1562.367619  	68.656928 
1563.332043  	69.324194 
1564.296468  	69.480128 
1565.260892  	69.936032 
1566.225317  	71.072589 
1567.189741  	71.705605 
1568.154165  	71.792914 
1569.118590  	70.955364 
1570.083014  	71.706770 
1571.047439  	73.521581 
1572.011863  	74.257564 
1572.976288  	74.690302 
1573.940712  	75.092908 
1574.905137  	75.020265 
1575.869561  	74.303126 
1576.833986  	74.545447 
1577.798410  	75.746677 
1578.762834  	76.543329 
1579.727259  	77.042113 
1580.691683  	77.334281 
1581.656108  	77.543321 
1582.620532  	77.643924 
1583.584957  	77.738432 
1584.549381  	77.790203 
1585.513806  	77.849688 
1586.478230  	77.832468 
1587.442655  	77.820351 
1588.407079  	77.715968 
1589.371503  	77.451851 
1590.335928  	77.166249 
1591.300352  	77.023969 
1592.264777  	76.789065 
1593.229201  	76.515516 
1594.193626  	75.887822 
1595.158050  	75.445605 
1596.122475  	75.117173 
1597.086899  	74.768826 
1598.051324  	74.329871 
1599.015748  	73.744486 
1599.980173  	73.043823 
1600.944597  	72.198158 
1601.909021  	71.282781 
1602.873446  	70.312388 
1603.837870  	69.438573 
1604.802295  	68.779185 
1605.766719  	67.829482 
1606.731144  	66.709563 
1607.695568  	65.714015 
1608.659993  	64.957600 
1609.624417  	63.863189 
1610.588842  	63.238673 
1611.553266  	62.355116 
1612.517690  	61.293088 
1613.482115  	60.158103 
1614.446539  	58.979046 
1615.410964  	57.443061 
1616.375388  	55.569431 
1617.339813  	54.125343 
1618.304237  	53.927067 
1619.268662  	53.096617 
1620.233086  	52.176207 
1621.197511  	51.214003 
1622.161935  	50.147896 
1623.126359  	48.648123 
1624.090784  	48.210693 
1625.055208  	48.049800 
1626.019633  	47.520880 
1626.984057  	46.585120 
1627.948482  	45.733616 
1628.912906  	45.473712 
1629.877331  	45.246764 
1630.841755  	44.852505 
1631.806180  	44.750675 
1632.770604  	44.839499 
1633.735028  	44.964685 
1634.699453  	44.403052 
1635.663877  	44.804934 
1636.628302  	46.758456 
1637.592726  	47.769064 
1638.557151  	49.538502 
1639.521575  	50.918411 
1640.486000  	52.118822 
1641.450424  	53.517217 
1642.414849  	54.803556 
1643.379273  	56.283301 
1644.343697  	57.460378 
1645.308122  	57.876738 
1646.272546  	58.301689 
1647.236971  	59.494028 
1648.201395  	61.183718 
1649.165820  	63.783755 
1650.130244  	65.261635 
1651.094669  	66.016518 
1652.059093  	65.736685 
1653.023518  	64.041424 
1653.987942  	65.983234 
1654.952366  	69.296969 
1655.916791  	71.406695 
1656.881215  	72.610502 
1657.845640  	73.811923 
1658.810064  	74.991683 
1659.774489  	75.952630 
1660.738913  	76.603757 
1661.703338  	76.919451 
1662.667762  	77.227232 
1663.632187  	78.795491 
1664.596611  	80.153115 
1665.561036  	81.064622 
1666.525460  	81.910973 
1667.489884  	82.244929 
1668.454309  	81.657781 
1669.418733  	81.728126 
1670.383158  	83.406104 
1671.347582  	83.734206 
1672.312007  	84.670841 
1673.276431  	85.802657 
1674.240856  	85.915408 
1675.205280  	85.214998 
1676.169705  	86.213634 
1677.134129  	87.480169 
1678.098553  	88.034472 
1679.062978  	88.004378 
1680.027402  	87.013724 
1680.991827  	87.541686 
1681.956251  	88.713962 
1682.920676  	87.929055 
1683.885100  	84.615849 
1684.849525  	84.941598 
1685.813949  	88.789547 
1686.778374  	89.924471 
1687.742798  	89.702671 
1688.707222  	89.378611 
1689.671647  	89.849911 
1690.636071  	90.232785 
1691.600496  	91.035719 
1692.564920  	91.262575 
1693.529345  	91.179669 
1694.493769  	90.680408 
1695.458194  	89.406010 
1696.422618  	88.393083 
1697.387043  	89.479354 
1698.351467  	89.943977 
1699.315891  	89.523576 
1700.280316  	86.960840 
1701.244740  	88.793193 
1702.209165  	90.261822 
1703.173589  	90.625074 
1704.138014  	90.087099 
1705.102438  	89.865046 
1706.066863  	89.907299 
1707.031287  	89.904098 
1707.995712  	90.804814 
1708.960136  	91.210836 
1709.924560  	90.735402 
1710.888985  	90.682585 
1711.853409  	91.105258 
1712.817834  	90.760293 
1713.782258  	89.801606 
1714.746683  	88.685668 
1715.711107  	88.707559 
1716.675532  	88.797801 
1717.639956  	87.274031 
1718.604381  	87.060007 
1719.568805  	89.365287 
1720.533230  	90.295109 
1721.497654  	90.347092 
1722.462078  	90.167871 
1723.426503  	89.695660 
1724.390927  	89.807707 
1725.355352  	90.181184 
1726.319776  	90.125716 
1727.284201  	90.066499 
1728.248625  	89.979832 
1729.213050  	89.240423 
1730.177474  	87.974615 
1731.141899  	88.834913 
1732.106323  	89.114269 
1733.070747  	87.849541 
1734.035172  	85.694564 
1734.999596  	87.471830 
1735.964021  	89.452351 
1736.928445  	90.002325 
1737.892870  	90.024848 
1738.857294  	89.897650 
1739.821719  	89.337819 
1740.786143  	90.202908 
1741.750568  	90.862639 
1742.714992  	90.132805 
1743.679416  	89.192097 
1744.643841  	90.125696 
1745.608265  	90.735611 
1746.572690  	90.500368 
1747.537114  	90.045752 
1748.501539  	89.721698 
1749.465963  	89.910466 
1750.430388  	90.257311 
1751.394812  	89.424682 
1752.359237  	90.709148 
1753.323661  	91.893782 
1754.288085  	92.372375 
1755.252510  	92.409533 
1756.216934  	91.730517 
1757.181359  	91.015199 
1758.145783  	91.707233 
1759.110208  	92.193991 
1760.074632  	92.447486 
1761.039057  	91.811062 
1762.003481  	90.866745 
1762.967906  	91.853697 
1763.932330  	92.577707 
1764.896754  	92.723394 
1765.861179  	92.788322 
1766.825603  	92.551114 
1767.790028  	91.565651 
1768.754452  	91.299303 
1769.718877  	92.309613 
1770.683301  	91.963910 
1771.647726  	90.842960 
1772.612150  	90.421739 
1773.576575  	91.617917 
1774.540999  	92.252292 
1775.505423  	91.869773 
1776.469848  	92.166953 
1777.434272  	92.865471 
1778.398697  	92.661154 
1779.363121  	92.339301 
1780.327546  	91.835444 
1781.291970  	91.785257 
1782.256395  	92.516420 
1783.220819  	92.850902 
1784.185244  	92.462349 
1785.149668  	91.917347 
1786.114093  	92.535934 
1787.078517  	92.985256 
1788.042941  	92.921299 
1789.007366  	92.826970 
1789.971790  	92.456019 
1790.936215  	91.452268 
1791.900639  	90.960688 
1792.865064  	90.943951 
1793.829488  	91.971809 
1794.793913  	92.433582 
1795.758337  	91.732025 
1796.722762  	91.809671 
1797.687186  	92.604774 
1798.651610  	92.599442 
1799.616035  	91.958815 
1800.580459  	91.967553 
1801.544884  	91.740214 
1802.509308  	91.564595 
1803.473733  	92.409642 
1804.438157  	92.924594 
1805.402582  	92.886874 
1806.367006  	92.855791 
1807.331431  	92.552745 
1808.295855  	92.477347 
1809.260279  	92.769713 
1810.224704  	92.267125 
1811.189128  	91.851503 
1812.153553  	92.215849 
1813.117977  	92.584927 
1814.082402  	93.004635 
1815.046826  	93.048108 
1816.011251  	93.047977 
1816.975675  	92.734431 
1817.940100  	92.536801 
1818.904524  	92.836793 
1819.868948  	93.032494 
1820.833373  	92.967048 
1821.797797  	92.827054 
1822.762222  	92.561060 
1823.726646  	92.587418 
1824.691071  	91.951720 
1825.655495  	91.298615 
1826.619920  	92.382195 
1827.584344  	92.789383 
1828.548769  	92.278350 
1829.513193  	91.129797 
1830.477617  	91.199413 
1831.442042  	92.386652 
1832.406466  	92.700872 
1833.370891  	92.574526 
1834.335315  	92.766138 
1835.299740  	92.964057 
1836.264164  	92.745087 
1837.228589  	92.226208 
1838.193013  	92.406530 
1839.157438  	92.779586 
1840.121862  	92.833028 
1841.086287  	92.805138 
1842.050711  	92.404467 
1843.015135  	92.061525 
1843.979560  	91.233895 
1844.943984  	91.076273 
1845.908409  	91.977912 
1846.872833  	92.233167 
1847.837258  	91.728236 
1848.801682  	92.078834 
1849.766107  	92.694503 
1850.730531  	92.906256 
1851.694956  	92.902463 
1852.659380  	92.875733 
1853.623804  	92.906861 
1854.588229  	92.887365 
1855.552653  	92.886138 
1856.517078  	92.867088 
1857.481502  	92.812763 
1858.445927  	92.668411 
1859.410351  	92.574822 
1860.374776  	92.605016 
1861.339200  	92.483504 
1862.303625  	92.569317 
1863.268049  	92.710330 
1864.232473  	92.777907 
1865.196898  	92.747066 
1866.161322  	92.363242 
1867.125747  	91.907552 
1868.090171  	91.302265 
1869.054596  	90.784292 
1870.019020  	91.333820 
1870.983445  	92.098154 
1871.947869  	92.566911 
1872.912294  	92.840379 
1873.876718  	92.894848 
1874.841142  	92.813208 
1875.805567  	92.780896 
1876.769991  	92.808472 
1877.734416  	92.838968 
1878.698840  	92.761198 
1879.663265  	92.606270 
1880.627689  	92.682980 
1881.592114  	92.752835 
1882.556538  	92.699114 
1883.520963  	92.693758 
1884.485387  	92.619286 
1885.449811  	92.551468 
1886.414236  	92.745001 
1887.378660  	92.825513 
1888.343085  	92.492910 
1889.307509  	91.694850 
1890.271934  	91.651955 
1891.236358  	92.483185 
1892.200783  	92.728556 
1893.165207  	92.769081 
1894.129632  	92.580791 
1895.094056  	92.140671 
1896.058480  	92.252724 
1897.022905  	92.641603 
1897.987329  	92.609129 
1898.951754  	92.609715 
1899.916178  	92.668819 
1900.880603  	92.726436 
1901.845027  	92.605487 
1902.809452  	92.635218 
1903.773876  	92.605329 
1904.738301  	92.589794 
1905.702725  	92.614348 
1906.667150  	92.664998 
1907.631574  	92.361005 
1908.595998  	92.266191 
1909.560423  	92.167181 
1910.524847  	92.164730 
1911.489272  	92.584779 
1912.453696  	92.668618 
1913.418121  	92.599010 
1914.382545  	92.645348 
1915.346970  	92.720110 
1916.311394  	92.726593 
1917.275819  	92.158924 
1918.240243  	91.406085 
1919.204667  	92.079787 
1920.169092  	92.604276 
1921.133516  	92.498579 
1922.097941  	91.877545 
1923.062365  	91.187184 
1924.026790  	92.016117 
1924.991214  	92.753724 
1925.955639  	92.700753 
1926.920063  	92.599974 
1927.884488  	92.631865 
1928.848912  	92.716553 
1929.813336  	92.758365 
1930.777761  	92.770829 
1931.742185  	92.710323 
1932.706610  	92.667800 
1933.671034  	92.785168 
1934.635459  	92.738371 
1935.599883  	92.682549 
1936.564308  	92.757286 
1937.528732  	92.715306 
1938.493157  	92.745140 
1939.457581  	92.937636 
1940.422005  	92.809052 
1941.386430  	92.402404 
1942.350854  	91.280818 
1943.315279  	91.280405 
1944.279703  	92.230587 
1945.244128  	92.381151 
1946.208552  	92.334301 
1947.172977  	92.527082 
1948.137401  	92.651758 
1949.101826  	92.713620 
1950.066250  	92.884825 
1951.030674  	92.918914 
1951.995099  	92.739240 
1952.959523  	92.890114 
1953.923948  	92.791928 
1954.888372  	92.646510 
1955.852797  	92.594435 
1956.817221  	92.890483 
1957.781646  	93.167421 
1958.746070  	93.120712 
1959.710495  	93.106086 
1960.674919  	93.043405 
1961.639344  	92.866472 
1962.603768  	92.610823 
1963.568192  	92.594228 
1964.532617  	93.095154 
1965.497041  	93.438841 
1966.461466  	93.075432 
1967.425890  	92.355729 
1968.390315  	92.615635 
1969.354739  	92.895876 
1970.319164  	92.957671 
1971.283588  	93.085632 
1972.248013  	92.807023 
1973.212437  	92.573465 
1974.176861  	92.890510 
1975.141286  	92.880731 
1976.105710  	92.944662 
1977.070135  	93.208276 
1978.034559  	93.255333 
1978.998984  	92.481603 
1979.963408  	92.183579 
1980.927833  	92.414188 
1981.892257  	92.635831 
1982.856682  	92.462029 
1983.821106  	92.442792 
1984.785530  	92.548527 
1985.749955  	92.574639 
1986.714379  	92.579254 
1987.678804  	92.432461 
1988.643228  	92.241695 
1989.607653  	92.845326 
1990.572077  	92.810402 
1991.536502  	91.929063 
1992.500926  	91.508037 
1993.465351  	91.918954 
1994.429775  	92.317143 
1995.394199  	92.513721 
1996.358624  	92.433641 
1997.323048  	92.410352 
1998.287473  	92.549770 
1999.251897  	92.851517 
2000.216322  	92.915894 
2001.180746  	93.091931 
2002.145171  	93.235188 
2003.109595  	93.235721 
2004.074020  	93.110901 
2005.038444  	93.124743 
2006.002868  	92.941270 
2006.967293  	92.903348 
2007.931717  	92.615094 
2008.896142  	92.607232 
2009.860566  	92.838875 
2010.824991  	92.926358 
2011.789415  	92.933224 
2012.753840  	92.988646 
2013.718264  	92.533427 
2014.682689  	92.477475 
2015.647113  	92.541996 
2016.611537  	92.195686 
2017.575962  	92.127226 
2018.540386  	92.462112 
2019.504811  	92.875904 
2020.469235  	93.154507 
2021.433660  	93.043142 
2022.398084  	93.113808 
2023.362509  	92.942641 
2024.326933  	92.817213 
2025.291358  	92.915399 
2026.255782  	92.815526 
2027.220207  	92.356709 
2028.184631  	92.561858 
2029.149055  	92.931694 
2030.113480  	93.137086 
2031.077904  	93.275527 
2032.042329  	93.074474 
2033.006753  	92.864067 
2033.971178  	92.830428 
2034.935602  	92.765824 
2035.900027  	92.862167 
2036.864451  	92.585387 
2037.828876  	92.471969 
2038.793300  	92.675284 
2039.757724  	92.666866 
2040.722149  	92.184174 
2041.686573  	91.916178 
2042.650998  	92.077332 
2043.615422  	92.314257 
2044.579847  	92.518613 
2045.544271  	92.987165 
2046.508696  	93.160017 
2047.473120  	93.046818 
2048.437545  	92.863506 
2049.401969  	92.673422 
2050.366393  	92.356108 
2051.330818  	92.281365 
2052.295242  	92.681912 
2053.259667  	93.087005 
2054.224091  	92.739371 
2055.188516  	92.479189 
2056.152940  	92.482316 
2057.117365  	92.349067 
2058.081789  	92.410990 
2059.046214  	92.531501 
2060.010638  	92.507366 
2060.975062  	92.527743 
2061.939487  	92.652744 
2062.903911  	92.609195 
2063.868336  	92.394939 
2064.832760  	92.072031 
2065.797185  	92.136961 
2066.761609  	92.462479 
2067.726034  	92.686916 
2068.690458  	92.660314 
2069.654883  	92.613628 
2070.619307  	92.617945 
2071.583731  	92.544630 
2072.548156  	92.600871 
2073.512580  	92.467717 
2074.477005  	92.387005 
2075.441429  	92.468618 
2076.405854  	92.430493 
2077.370278  	92.370858 
2078.334703  	92.370411 
2079.299127  	92.369353 
2080.263552  	92.429609 
2081.227976  	92.413027 
2082.192401  	92.467831 
2083.156825  	92.411646 
2084.121249  	92.343164 
2085.085674  	92.440849 
2086.050098  	92.592861 
2087.014523  	92.485154 
2087.978947  	92.394100 
2088.943372  	92.370953 
2089.907796  	92.307377 
2090.872221  	92.360874 
2091.836645  	92.656550 
2092.801070  	92.740765 
2093.765494  	92.674222 
2094.729918  	92.620551 
2095.694343  	92.558441 
2096.658767  	92.495045 
2097.623192  	92.468129 
2098.587616  	92.410208 
2099.552041  	92.453884 
2100.516465  	92.470512 
2101.480890  	92.529835 
2102.445314  	92.537396 
2103.409739  	92.444852 
2104.374163  	92.373684 
2105.338587  	92.407720 
2106.303012  	92.374510 
2107.267436  	92.337538 
2108.231861  	92.331638 
2109.196285  	92.415144 
2110.160710  	92.456235 
2111.125134  	92.489535 
2112.089559  	92.416131 
2113.053983  	92.410526 
2114.018408  	92.452624 
2114.982832  	92.429639 
2115.947256  	92.386540 
2116.911681  	92.484327 
2117.876105  	92.545822 
2118.840530  	92.525549 
2119.804954  	92.466395 
2120.769379  	92.453733 
2121.733803  	92.512249 
2122.698228  	92.711963 
2123.662652  	92.648077 
2124.627077  	92.555327 
2125.591501  	92.568014 
2126.555925  	92.770524 
2127.520350  	92.821871 
2128.484774  	92.794525 
2129.449199  	92.877680 
2130.413623  	92.915424 
2131.378048  	92.792198 
2132.342472  	92.883689 
2133.306897  	92.986379 
2134.271321  	92.958127 
2135.235746  	92.826750 
2136.200170  	92.740255 
2137.164594  	92.806808 
2138.129019  	93.048980 
2139.093443  	93.171727 
2140.057868  	93.040212 
2141.022292  	92.771953 
2141.986717  	92.566997 
2142.951141  	92.665178 
2143.915566  	93.024166 
2144.879990  	92.814087 
2145.844415  	92.736731 
2146.808839  	92.740029 
2147.773264  	92.864571 
2148.737688  	92.977911 
2149.702112  	93.169989 
2150.666537  	93.165756 
2151.630961  	93.071135 
2152.595386  	93.112808 
2153.559810  	93.045369 
2154.524235  	93.101640 
2155.488659  	93.647679 
2156.453084  	94.036489 
2157.417508  	94.052877 
2158.381933  	93.674825 
2159.346357  	92.940751 
2160.310781  	92.703901 
2161.275206  	92.821909 
2162.239630  	92.619575 
2163.204055  	92.404332 
2164.168479  	92.433218 
2165.132904  	92.229670 
2166.097328  	92.144034 
2167.061753  	92.588038 
2168.026177  	92.487693 
2168.990602  	92.231340 
2169.955026  	92.403073 
2170.919450  	93.063547 
2171.883875  	92.915827 
2172.848299  	92.784549 
2173.812724  	92.865882 
2174.777148  	92.949962 
2175.741573  	92.661516 
2176.705997  	92.415516 
2177.670422  	92.559418 
2178.634846  	92.882107 
2179.599271  	92.780389 
2180.563695  	92.564807 
2181.528119  	92.470771 
2182.492544  	92.461414 
2183.456968  	92.430771 
2184.421393  	92.289779 
2185.385817  	92.459378 
2186.350242  	92.649349 
2187.314666  	92.386235 
2188.279091  	92.437096 
2189.243515  	92.484793 
2190.207940  	92.468714 
2191.172364  	92.556433 
2192.136788  	92.592257 
2193.101213  	92.489640 
2194.065637  	92.459289 
2195.030062  	92.348552 
2195.994486  	92.173038 
2196.958911  	92.281647 
2197.923335  	92.444614 
2198.887760  	92.478701 
2199.852184  	92.663171 
2200.816609  	92.406410 
2201.781033  	92.288460 
2202.745458  	92.416626 
2203.709882  	92.626381 
2204.674306  	92.531725 
2205.638731  	92.345280 
2206.603155  	92.364596 
2207.567580  	92.515124 
2208.532004  	92.484661 
2209.496429  	92.478609 
2210.460853  	92.412893 
2211.425278  	92.335022 
2212.389702  	92.253936 
2213.354127  	92.196077 
2214.318551  	92.173818 
2215.282975  	92.306352 
2216.247400  	92.383796 
2217.211824  	92.431080 
2218.176249  	92.479319 
2219.140673  	92.552296 
2220.105098  	92.464427 
2221.069522  	92.440985 
2222.033947  	92.483261 
2222.998371  	92.443607 
2223.962796  	92.314581 
2224.927220  	92.485312 
2225.891644  	92.537120 
2226.856069  	92.465980 
2227.820493  	92.564268 
2228.784918  	92.679696 
2229.749342  	92.388988 
2230.713767  	92.277633 
2231.678191  	92.223230 
2232.642616  	92.239631 
2233.607040  	92.596160 
2234.571465  	92.564905 
2235.535889  	92.273177 
2236.500313  	92.223874 
2237.464738  	92.359373 
2238.429162  	92.428869 
2239.393587  	92.364446 
2240.358011  	92.424088 
2241.322436  	92.549612 
2242.286860  	92.494855 
2243.251285  	92.390835 
2244.215709  	92.351181 
2245.180134  	92.275568 
2246.144558  	92.262982 
2247.108982  	92.286141 
2248.073407  	92.370553 
2249.037831  	92.326667 
2250.002256  	92.228495 
2250.966680  	92.285546 
2251.931105  	92.393378 
2252.895529  	92.438125 
2253.859954  	92.461044 
2254.824378  	92.306767 
2255.788803  	92.330097 
2256.753227  	92.375433 
2257.717651  	92.396047 
2258.682076  	92.307590 
2259.646500  	92.376437 
2260.610925  	92.269405 
2261.575349  	92.145475 
2262.539774  	92.281232 
2263.504198  	92.415305 
2264.468623  	92.263148 
2265.433047  	92.296142 
2266.397472  	92.414196 
2267.361896  	92.308264 
2268.326321  	92.195139 
2269.290745  	92.231551 
2270.255169  	92.302115 
2271.219594  	92.414253 
2272.184018  	92.361925 
2273.148443  	92.268414 
2274.112867  	92.292946 
2275.077292  	92.265493 
2276.041716  	92.191955 
2277.006141  	92.285157 
2277.970565  	92.267377 
2278.934990  	92.197982 
2279.899414  	92.106020 
2280.863838  	92.176310 
2281.828263  	92.231571 
2282.792687  	92.173335 
2283.757112  	92.120885 
2284.721536  	92.087828 
2285.685961  	92.016159 
2286.650385  	92.048050 
2287.614810  	92.074837 
2288.579234  	92.066285 
2289.543659  	92.008400 
2290.508083  	92.099348 
2291.472507  	92.097634 
2292.436932  	92.090444 
2293.401356  	91.988228 
2294.365781  	91.906464 
2295.330205  	91.959669 
2296.294630  	91.927097 
2297.259054  	91.892098 
2298.223479  	91.809237 
2299.187903  	91.802002 
2300.152328  	91.823018 
2301.116752  	91.773514 
2302.081176  	91.860367 
2303.045601  	91.811477 
2304.010025  	91.851352 
2304.974450  	91.692830 
2305.938874  	91.685335 
2306.903299  	91.609865 
2307.867723  	91.689690 
2308.832148  	91.625070 
2309.796572  	91.659991 
2310.760997  	91.599363 
2311.725421  	91.583931 
2312.689845  	91.697614 
2313.654270  	91.763195 
2314.618694  	91.786876 
2315.583119  	91.892952 
2316.547543  	91.930021 
2317.511968  	91.930441 
2318.476392  	91.941640 
2319.440817  	92.005479 
2320.405241  	91.956920 
2321.369666  	92.021524 
2322.334090  	92.141866 
2323.298515  	92.129996 
2324.262939  	92.116778 
2325.227363  	92.486238 
2326.191788  	92.804453 
2327.156212  	92.973348 
2328.120637  	92.973439 
2329.085061  	93.030842 
2330.049486  	93.086114 
2331.013910  	93.098192 
2331.978335  	93.235771 
2332.942759  	93.480986 
2333.907184  	93.639346 
2334.871608  	93.705125 
2335.836032  	93.763671 
2336.800457  	93.885990 
2337.764881  	93.986963 
2338.729306  	93.987874 
2339.693730  	93.896439 
2340.658155  	93.949115 
2341.622579  	94.040407 
2342.587004  	93.906025 
2343.551428  	93.714860 
2344.515853  	93.465788 
2345.480277  	93.239363 
2346.444701  	93.038616 
2347.409126  	92.839646 
2348.373550  	92.505911 
2349.337975  	92.333837 
2350.302399  	92.601057 
2351.266824  	93.060892 
2352.231248  	93.527653 
2353.195673  	93.740384 
2354.160097  	93.866870 
2355.124522  	93.994328 
2356.088946  	94.168802 
2357.053370  	94.187868 
2358.017795  	94.298500 
2358.982219  	94.467076 
2359.946644  	94.767782 
2360.911068  	94.673534 
2361.875493  	94.572969 
2362.839917  	94.548586 
2363.804342  	94.403984 
2364.768766  	94.155281 
2365.733191  	94.221392 
2366.697615  	94.087760 
2367.662039  	93.859838 
2368.626464  	93.614453 
2369.590888  	93.401713 
2370.555313  	93.194175 
2371.519737  	93.044075 
2372.484162  	92.827234 
2373.448586  	92.649071 
2374.413011  	92.483309 
2375.377435  	92.303613 
2376.341860  	92.129124 
2377.306284  	92.040628 
2378.270708  	91.952317 
2379.235133  	91.870116 
2380.199557  	91.899792 
2381.163982  	91.941648 
2382.128406  	91.941828 
2383.092831  	92.015236 
2384.057255  	92.065848 
2385.021680  	92.147936 
2385.986104  	92.254087 
2386.950529  	92.316760 
2387.914953  	92.326510 
2388.879378  	92.315086 
2389.843802  	92.382042 
2390.808226  	92.388252 
2391.772651  	92.339652 
2392.737075  	92.348826 
2393.701500  	92.404092 
2394.665924  	92.404192 
2395.630349  	92.365406 
2396.594773  	92.377981 
2397.559198  	92.379703 
2398.523622  	92.425704 
2399.488047  	92.418380 
2400.452471  	92.373136 
2401.416895  	92.351388 
2402.381320  	92.368786 
2403.345744  	92.437377 
2404.310169  	92.428721 
2405.274593  	92.386108 
2406.239018  	92.389733 
2407.203442  	92.374976 
2408.167867  	92.361305 
2409.132291  	92.367747 
2410.096716  	92.387547 
2411.061140  	92.345090 
2412.025564  	92.324127 
2412.989989  	92.326504 
2413.954413  	92.352476 
2414.918838  	92.369704 
2415.883262  	92.297628 
2416.847687  	92.233890 
2417.812111  	92.292424 
2418.776536  	92.344157 
2419.740960  	92.344273 
2420.705385  	92.323007 
2421.669809  	92.296615 
2422.634233  	92.294562 
2423.598658  	92.309774 
2424.563082  	92.339595 
2425.527507  	92.401549 
2426.491931  	92.348345 
2427.456356  	92.305396 
2428.420780  	92.352561 
2429.385205  	92.342234 
2430.349629  	92.317249 
2431.314054  	92.289196 
2432.278478  	92.329323 
2433.242902  	92.358858 
2434.207327  	92.320969 
2435.171751  	92.331253 
2436.136176  	92.379303 
2437.100600  	92.425187 
2438.065025  	92.348664 
2439.029449  	92.332989 
2439.993874  	92.325932 
2440.958298  	92.326885 
2441.922723  	92.316798 
2442.887147  	92.212910 
2443.851572  	92.203241 
2444.815996  	92.314549 
2445.780420  	92.349621 
2446.744845  	92.294989 
2447.709269  	92.274613 
2448.673694  	92.295293 
2449.638118  	92.292779 
2450.602543  	92.247055 
2451.566967  	92.203785 
2452.531392  	92.256717 
2453.495816  	92.250628 
2454.460241  	92.217418 
2455.424665  	92.217937 
2456.389089  	92.207382 
2457.353514  	92.207799 
2458.317938  	92.222006 
2459.282363  	92.228301 
2460.246787  	92.218830 
2461.211212  	92.247913 
2462.175636  	92.280093 
2463.140061  	92.238420 
2464.104485  	92.207986 
2465.068910  	92.215030 
2466.033334  	92.238380 
2466.997758  	92.252142 
2467.962183  	92.252839 
2468.926607  	92.189834 
2469.891032  	92.150905 
2470.855456  	92.159321 
2471.819881  	92.202899 
2472.784305  	92.203327 
2473.748730  	92.235026 
2474.713154  	92.232451 
2475.677579  	92.226859 
2476.642003  	92.236600 
2477.606427  	92.234671 
2478.570852  	92.225887 
2479.535276  	92.200423 
2480.499701  	92.188706 
2481.464125  	92.211789 
2482.428550  	92.289610 
2483.392974  	92.340607 
2484.357399  	92.304408 
2485.321823  	92.229478 
2486.286248  	92.165911 
2487.250672  	92.197028 
2488.215096  	92.227804 
2489.179521  	92.201503 
2490.143945  	92.138269 
2491.108370  	92.095463 
2492.072794  	92.079054 
2493.037219  	92.135390 
2494.001643  	92.188588 
2494.966068  	92.244305 
2495.930492  	92.253706 
2496.894917  	92.195656 
2497.859341  	92.218000 
2498.823765  	92.199959 
2499.788190  	92.142814 
2500.752614  	92.106294 
2501.717039  	92.101787 
2502.681463  	92.140285 
2503.645888  	92.174342 
2504.610312  	92.134526 
2505.574737  	92.109194 
2506.539161  	92.173500 
2507.503586  	92.228338 
2508.468010  	92.242338 
2509.432435  	92.170692 
2510.396859  	92.115730 
2511.361283  	92.120914 
2512.325708  	92.089809 
2513.290132  	92.105373 
2514.254557  	92.207081 
2515.218981  	92.174520 
2516.183406  	92.113801 
2517.147830  	92.171525 
2518.112255  	92.131924 
2519.076679  	92.097902 
2520.041104  	92.137159 
2521.005528  	92.130316 
2521.969952  	92.041644 
2522.934377  	92.016383 
2523.898801  	92.099082 
2524.863226  	92.148061 
2525.827650  	92.132781 
2526.792075  	92.093501 
2527.756499  	92.084428 
2528.720924  	92.064793 
2529.685348  	92.029612 
2530.649773  	92.069873 
2531.614197  	92.076118 
2532.578621  	92.079854 
2533.543046  	92.123187 
2534.507470  	92.145400 
2535.471895  	92.102128 
2536.436319  	92.084344 
2537.400744  	92.092223 
2538.365168  	91.999250 
2539.329593  	92.014240 
2540.294017  	92.055422 
2541.258442  	92.077213 
2542.222866  	92.106043 
2543.187290  	92.081206 
2544.151715  	92.084310 
2545.116139  	92.072528 
2546.080564  	92.000152 
2547.044988  	91.957474 
2548.009413  	91.910016 
2548.973837  	91.919498 
2549.938262  	91.954454 
2550.902686  	91.978718 
2551.867111  	91.982710 
2552.831535  	91.937272 
2553.795959  	91.936528 
2554.760384  	91.980038 
2555.724808  	91.971024 
2556.689233  	91.911389 
2557.653657  	91.888625 
2558.618082  	91.939390 
2559.582506  	91.988938 
2560.546931  	91.966213 
2561.511355  	91.899172 
2562.475780  	91.873894 
2563.440204  	91.882676 
2564.404629  	91.951724 
2565.369053  	91.962578 
2566.333477  	91.925904 
2567.297902  	91.922691 
2568.262326  	91.942568 
2569.226751  	91.862113 
2570.191175  	91.818536 
2571.155600  	91.835681 
2572.120024  	91.841417 
2573.084449  	91.872734 
2574.048873  	91.857477 
2575.013298  	91.791096 
2575.977722  	91.777606 
2576.942146  	91.799623 
2577.906571  	91.800766 
2578.870995  	91.802941 
2579.835420  	91.804725 
2580.799844  	91.807639 
2581.764269  	91.772669 
2582.728693  	91.811801 
2583.693118  	91.783304 
2584.657542  	91.739476 
2585.621967  	91.754574 
2586.586391  	91.728928 
2587.550815  	91.752591 
2588.515240  	91.771110 
2589.479664  	91.753974 
2590.444089  	91.722294 
2591.408513  	91.766459 
2592.372938  	91.742894 
2593.337362  	91.700686 
2594.301787  	91.711007 
2595.266211  	91.707018 
2596.230636  	91.728931 
2597.195060  	91.757931 
2598.159484  	91.749538 
2599.123909  	91.748356 
2600.088333  	91.749582 
2601.052758  	91.720850 
2602.017182  	91.704122 
2602.981607  	91.703494 
2603.946031  	91.710678 
2604.910456  	91.728474 
2605.874880  	91.717419 
2606.839305  	91.689091 
2607.803729  	91.664124 
2608.768153  	91.682081 
2609.732578  	91.676368 
2610.697002  	91.655889 
2611.661427  	91.641990 
2612.625851  	91.690582 
2613.590276  	91.751528 
2614.554700  	91.752089 
2615.519125  	91.714512 
2616.483549  	91.708762 
2617.447974  	91.660942 
2618.412398  	91.669691 
2619.376822  	91.698930 
2620.341247  	91.689968 
2621.305671  	91.672343 
2622.270096  	91.665672 
2623.234520  	91.673614 
2624.198945  	91.677393 
2625.163369  	91.673620 
2626.127794  	91.660132 
2627.092218  	91.653566 
2628.056643  	91.638264 
2629.021067  	91.614258 
2629.985492  	91.638008 
2630.949916  	91.704879 
2631.914340  	91.677535 
2632.878765  	91.622975 
2633.843189  	91.637068 
2634.807614  	91.649510 
2635.772038  	91.651686 
2636.736463  	91.609354 
2637.700887  	91.586287 
2638.665312  	91.592145 
2639.629736  	91.592076 
2640.594161  	91.614795 
2641.558585  	91.652797 
2642.523009  	91.622100 
2643.487434  	91.595228 
2644.451858  	91.595085 
2645.416283  	91.574817 
2646.380707  	91.559075 
2647.345132  	91.566977 
2648.309556  	91.583755 
2649.273981  	91.571285 
2650.238405  	91.568087 
2651.202830  	91.580376 
2652.167254  	91.552430 
2653.131678  	91.547681 
2654.096103  	91.567592 
2655.060527  	91.575096 
2656.024952  	91.554918 
2656.989376  	91.522364 
2657.953801  	91.492069 
2658.918225  	91.530121 
2659.882650  	91.552039 
2660.847074  	91.554517 
2661.811499  	91.555447 
2662.775923  	91.533270 
2663.740347  	91.556564 
2664.704772  	91.579289 
2665.669196  	91.603658 
2666.633621  	91.608398 
2667.598045  	91.567379 
2668.562470  	91.548186 
2669.526894  	91.535909 
2670.491319  	91.519388 
2671.455743  	91.535105 
2672.420168  	91.555013 
2673.384592  	91.544547 
2674.349016  	91.537736 
2675.313441  	91.535751 
2676.277865  	91.546855 
2677.242290  	91.555451 
2678.206714  	91.518853 
2679.171139  	91.488601 
2680.135563  	91.491609 
2681.099988  	91.484768 
2682.064412  	91.507759 
2683.028837  	91.518140 
2683.993261  	91.483252 
2684.957686  	91.471761 
2685.922110  	91.464176 
2686.886534  	91.445517 
2687.850959  	91.448735 
2688.815383  	91.465005 
2689.779808  	91.444514 
2690.744232  	91.433976 
2691.708657  	91.443430 
2692.673081  	91.434486 
2693.637506  	91.417610 
2694.601930  	91.420633 
2695.566355  	91.442323 
2696.530779  	91.418847 
2697.495203  	91.413030 
2698.459628  	91.442831 
2699.424052  	91.454894 
2700.388477  	91.414568 
2701.352901  	91.377600 
2702.317326  	91.384224 
2703.281750  	91.402662 
2704.246175  	91.408749 
2705.210599  	91.390952 
2706.175024  	91.373138 
2707.139448  	91.371705 
2708.103872  	91.356821 
2709.068297  	91.356139 
2710.032721  	91.355151 
2710.997146  	91.326472 
2711.961570  	91.304244 
2712.925995  	91.317448 
2713.890419  	91.309656 
2714.854844  	91.286034 
2715.819268  	91.281807 
2716.783693  	91.289770 
2717.748117  	91.294757 
2718.712541  	91.281363 
2719.676966  	91.257096 
2720.641390  	91.238117 
2721.605815  	91.211506 
2722.570239  	91.216354 
2723.534664  	91.237845 
2724.499088  	91.217059 
2725.463513  	91.175368 
2726.427937  	91.143008 
2727.392362  	91.121501 
2728.356786  	91.108524 
2729.321210  	91.078542 
2730.285635  	91.054728 
2731.250059  	91.020953 
2732.214484  	91.010538 
2733.178908  	91.010084 
2734.143333  	90.992270 
2735.107757  	90.973708 
2736.072182  	90.977024 
2737.036606  	90.944166 
2738.001031  	90.885760 
2738.965455  	90.867742 
2739.929879  	90.888246 
2740.894304  	90.910094 
2741.858728  	90.878794 
2742.823153  	90.818856 
2743.787577  	90.809542 
2744.752002  	90.818339 
2745.716426  	90.803263 
2746.680851  	90.764651 
2747.645275  	90.742712 
2748.609700  	90.742826 
2749.574124  	90.744243 
2750.538549  	90.733200 
2751.502973  	90.703717 
2752.467397  	90.710376 
2753.431822  	90.742065 
2754.396246  	90.726459 
2755.360671  	90.713237 
2756.325095  	90.737951 
2757.289520  	90.725156 
2758.253944  	90.704215 
2759.218369  	90.691176 
2760.182793  	90.663436 
2761.147218  	90.641688 
2762.111642  	90.626732 
2763.076066  	90.642377 
2764.040491  	90.661200 
2765.004915  	90.633550 
2765.969340  	90.603366 
2766.933764  	90.615072 
2767.898189  	90.603720 
2768.862613  	90.575744 
2769.827038  	90.558735 
2770.791462  	90.544658 
2771.755887  	90.501957 
2772.720311  	90.481498 
2773.684735  	90.491842 
2774.649160  	90.500394 
2775.613584  	90.497317 
2776.578009  	90.482871 
2777.542433  	90.456207 
2778.506858  	90.435512 
2779.471282  	90.430709 
2780.435707  	90.407363 
2781.400131  	90.369794 
2782.364556  	90.359315 
2783.328980  	90.335251 
2784.293404  	90.309682 
2785.257829  	90.325588 
2786.222253  	90.318828 
2787.186678  	90.288916 
2788.151102  	90.247804 
2789.115527  	90.258289 
2790.079951  	90.242293 
2791.044376  	90.177947 
2792.008800  	90.148878 
2792.973225  	90.113606 
2793.937649  	90.069716 
2794.902073  	90.051001 
2795.866498  	90.025435 
2796.830922  	89.980684 
2797.795347  	89.962571 
2798.759771  	89.940277 
2799.724196  	89.871467 
2800.688620  	89.819206 
2801.653045  	89.796433 
2802.617469  	89.783467 
2803.581894  	89.771744 
2804.546318  	89.744318 
2805.510743  	89.694118 
2806.475167  	89.632887 
2807.439591  	89.581854 
2808.404016  	89.529796 
2809.368440  	89.525231 
2810.332865  	89.518308 
2811.297289  	89.430993 
2812.261714  	89.380930 
2813.226138  	89.360650 
2814.190563  	89.272179 
2815.154987  	89.228455 
2816.119412  	89.177846 
2817.083836  	89.078266 
2818.048260  	89.013514 
2819.012685  	88.982022 
2819.977109  	88.935383 
2820.941534  	88.876125 
2821.905958  	88.815545 
2822.870383  	88.729007 
2823.834807  	88.687994 
2824.799232  	88.627989 
2825.763656  	88.569196 
2826.728081  	88.504610 
2827.692505  	88.422575 
2828.656929  	88.377441 
2829.621354  	88.346377 
2830.585778  	88.292850 
2831.550203  	88.213314 
2832.514627  	88.104471 
2833.479052  	87.979218 
2834.443476  	87.843173 
2835.407901  	87.740681 
2836.372325  	87.664957 
2837.336750  	87.492925 
2838.301174  	87.254890 
2839.265598  	86.997973 
2840.230023  	86.714489 
2841.194447  	86.417650 
2842.158872  	86.073347 
2843.123296  	85.633659 
2844.087721  	85.140348 
2845.052145  	84.578668 
2846.016570  	83.887605 
2846.980994  	83.099281 
2847.945419  	82.291204 
2848.909843  	81.464306 
2849.874267  	80.722130 
2850.838692  	80.176011 
2851.803116  	79.789004 
2852.767541  	79.455411 
2853.731965  	79.145817 
2854.696390  	78.807638 
2855.660814  	78.529514 
2856.625239  	78.322234 
2857.589663  	78.147302 
2858.554088  	78.054557 
2859.518512  	78.033727 
2860.482936  	78.081606 
2861.447361  	78.204284 
2862.411785  	78.387403 
2863.376210  	78.622367 
2864.340634  	78.881735 
2865.305059  	79.107863 
2866.269483  	79.335318 
2867.233908  	79.519121 
2868.198332  	79.682477 
2869.162757  	79.831116 
2870.127181  	79.932125 
2871.091606  	80.014250 
2872.056030  	80.156891 
2873.020454  	80.341019 
2873.984879  	80.528324 
2874.949303  	80.712225 
2875.913728  	80.945880 
2876.878152  	81.259893 
2877.842577  	81.577124 
2878.807001  	81.897609 
2879.771426  	82.284567 
2880.735850  	82.632240 
2881.700275  	82.935947 
2882.664699  	83.238343 
2883.629123  	83.503058 
2884.593548  	83.720885 
2885.557972  	83.874459 
2886.522397  	83.958547 
2887.486821  	84.008955 
2888.451246  	84.058648 
2889.415670  	84.076668 
2890.380095  	83.989196 
2891.344519  	83.882102 
2892.308944  	83.760634 
2893.273368  	83.560635 
2894.237792  	83.381754 
2895.202217  	83.155924 
2896.166641  	82.922218 
2897.131066  	82.653290 
2898.095490  	82.391048 
2899.059915  	82.139029 
2900.024339  	81.807987 
2900.988764  	81.463564 
2901.953188  	81.172572 
2902.917613  	80.833061 
2903.882037  	80.470999 
2904.846461  	80.141243 
2905.810886  	79.808898 
2906.775310  	79.509203 
2907.739735  	79.213931 
2908.704159  	78.900190 
2909.668584  	78.589471 
2910.633008  	78.288635 
2911.597433  	77.967529 
2912.561857  	77.613461 
2913.526282  	77.211394 
2914.490706  	76.730224 
2915.455130  	76.205081 
2916.419555  	75.708682 
2917.383979  	75.301627 
2918.348404  	74.935525 
2919.312828  	74.625872 
2920.277253  	74.358864 
2921.241677  	74.072915 
2922.206102  	73.811658 
2923.170526  	73.599213 
2924.134951  	73.387657 
2925.099375  	73.134326 
2926.063800  	72.882206 
2927.028224  	72.644168 
2927.992648  	72.390729 
2928.957073  	72.200849 
2929.921497  	71.998233 
2930.885922  	71.803779 
2931.850346  	71.694954 
2932.814771  	71.703880 
2933.779195  	71.760483 
2934.743620  	71.905886 
2935.708044  	72.153913 
2936.672469  	72.486602 
2937.636893  	72.925645 
2938.601317  	73.430154 
2939.565742  	73.969805 
2940.530166  	74.506920 
2941.494591  	75.012150 
2942.459015  	75.499517 
2943.423440  	75.960669 
2944.387864  	76.410776 
2945.352289  	76.916307 
2946.316713  	77.501627 
2947.281138  	78.133510 
2948.245562  	78.807543 
2949.209986  	79.474765 
2950.174411  	80.140916 
2951.138835  	80.845208 
2952.103260  	81.520369 
2953.067684  	82.136989 
2954.032109  	82.732694 
2954.996533  	83.292474 
2955.960958  	83.804313 
2956.925382  	84.251155 
2957.889807  	84.678747 
2958.854231  	85.079774 
2959.818655  	85.431618 
2960.783080  	85.769946 
2961.747504  	86.074052 
2962.711929  	86.314813 
2963.676353  	86.510563 
2964.640778  	86.723907 
2965.605202  	86.956294 
2966.569627  	87.182694 
2967.534051  	87.472250 
2968.498476  	87.796866 
2969.462900  	88.051900 
2970.427324  	88.226035 
2971.391749  	88.425101 
2972.356173  	88.620324 
2973.320598  	88.856383 
2974.285022  	89.093787 
2975.249447  	89.225567 
2976.213871  	89.371070 
2977.178296  	89.515871 
2978.142720  	89.621471 
2979.107145  	89.767622 
2980.071569  	89.936479 
2981.035993  	90.036329 
2982.000418  	90.147222 
2982.964842  	90.292988 
2983.929267  	90.357116 
2984.893691  	90.432561 
2985.858116  	90.499492 
2986.822540  	90.544420 
2987.786965  	90.568856 
2988.751389  	90.600875 
2989.715814  	90.654782 
2990.680238  	90.717253 
2991.644663  	90.765648 
2992.609087  	90.818263 
2993.573511  	90.845204 
2994.537936  	90.849774 
2995.502360  	90.894843 
2996.466785  	90.919094 
2997.431209  	90.921075 
2998.395634  	90.970287 
2999.360058  	90.962706 
3000.324483  	90.948224 
3001.288907  	90.923662 
3002.253332  	90.915253 
3003.217756  	90.907030 
3004.182180  	90.898184 
3005.146605  	90.896594 
3006.111029  	90.926091 
3007.075454  	90.954144 
3008.039878  	90.941071 
3009.004303  	90.941281 
3009.968727  	90.899518 
3010.933152  	90.843961 
3011.897576  	90.794273 
3012.862001  	90.735800 
3013.826425  	90.835776 
3014.790849  	90.882326 
3015.755274  	90.792531 
3016.719698  	90.760020 
3017.684123  	90.755039 
3018.648547  	90.702004 
3019.612972  	90.664483 
3020.577396  	90.644541 
3021.541821  	90.584847 
3022.506245  	90.507688 
3023.470670  	90.479409 
3024.435094  	90.493202 
3025.399518  	90.452456 
3026.363943  	90.401954 
3027.328367  	90.419771 
3028.292792  	90.386535 
3029.257216  	90.313585 
3030.221641  	90.205203 
3031.186065  	90.043032 
3032.150490  	89.947354 
3033.114914  	90.031011 
3034.079339  	90.041060 
3035.043763  	89.945964 
3036.008187  	89.906225 
3036.972612  	89.866255 
3037.937036  	89.753122 
3038.901461  	89.659950 
3039.865885  	89.605500 
3040.830310  	89.582188 
3041.794734  	89.503841 
3042.759159  	89.394482 
3043.723583  	89.328716 
3044.688008  	89.251723 
3045.652432  	89.163980 
3046.616857  	89.028337 
3047.581281  	88.891689 
3048.545705  	88.730821 
3049.510130  	88.606113 
3050.474554  	88.584177 
3051.438979  	88.523829 
3052.403403  	88.378602 
3053.367828  	88.268637 
3054.332252  	88.189547 
3055.296677  	88.072284 
3056.261101  	87.873023 
3057.225526  	87.776761 
3058.189950  	87.824241 
3059.154374  	87.816050 
3060.118799  	87.767263 
3061.083223  	87.739525 
3062.047648  	87.744680 
3063.012072  	87.660680 
3063.976497  	87.545539 
3064.940921  	87.501727 
3065.905346  	87.589200 
3066.869770  	87.565227 
3067.834195  	87.585589 
3068.798619  	87.618972 
3069.763043  	87.603498 
3070.727468  	87.639467 
3071.691892  	87.644051 
3072.656317  	87.588921 
3073.620741  	87.554892 
3074.585166  	87.590425 
3075.549590  	87.645069 
3076.514015  	87.621835 
3077.478439  	87.574843 
3078.442864  	87.606747 
3079.407288  	87.608867 
3080.371712  	87.588024 
3081.336137  	87.642062 
3082.300561  	87.660387 
3083.264986  	87.696691 
3084.229410  	87.756288 
3085.193835  	87.755084 
3086.158259  	87.770507 
3087.122684  	87.808099 
3088.087108  	87.805344 
3089.051533  	87.823810 
3090.015957  	87.866026 
3090.980381  	87.972073 
3091.944806  	88.031176 
3092.909230  	88.035568 
3093.873655  	88.029977 
3094.838079  	88.031458 
3095.802504  	88.068417 
3096.766928  	88.199406 
3097.731353  	88.289612 
3098.695777  	88.367274 
3099.660202  	88.405196 
3100.624626  	88.421796 
3101.589050  	88.415536 
3102.553475  	88.476234 
3103.517899  	88.538693 
3104.482324  	88.652243 
3105.446748  	88.744153 
3106.411173  	88.776278 
3107.375597  	88.805412 
3108.340022  	88.888611 
3109.304446  	88.971125 
3110.268871  	88.976058 
3111.233295  	88.989403 
3112.197720  	89.018041 
3113.162144  	89.047010 
3114.126568  	89.091637 
3115.090993  	89.094146 
3116.055417  	89.137814 
3117.019842  	89.195059 
3117.984266  	89.178327 
3118.948691  	89.128332 
3119.913115  	89.266882 
3120.877540  	89.388118 
3121.841964  	89.305334 
3122.806389  	89.235076 
3123.770813  	89.320743 
3124.735237  	89.369967 
3125.699662  	89.345969 
3126.664086  	89.305762 
3127.628511  	89.360231 
3128.592935  	89.402124 
3129.557360  	89.391217 
3130.521784  	89.381474 
3131.486209  	89.360016 
3132.450633  	89.317662 
3133.415058  	89.270861 
3134.379482  	89.351370 
3135.343906  	89.402724 
3136.308331  	89.335398 
3137.272755  	89.262486 
3138.237180  	89.278906 
3139.201604  	89.340636 
3140.166029  	89.338485 
3141.130453  	89.331140 
3142.094878  	89.223405 
3143.059302  	89.143028 
3144.023727  	89.176666 
3144.988151  	89.215199 
3145.952575  	89.140707 
3146.917000  	89.062070 
3147.881424  	89.072469 
3148.845849  	89.120101 
3149.810273  	89.089086 
3150.774698  	89.046240 
3151.739122  	88.951022 
3152.703547  	88.856158 
3153.667971  	88.828172 
3154.632396  	88.852456 
3155.596820  	88.789925 
3156.561244  	88.692531 
3157.525669  	88.695527 
3158.490093  	88.663653 
3159.454518  	88.618425 
3160.418942  	88.580588 
3161.383367  	88.525963 
3162.347791  	88.450836 
3163.312216  	88.323593 
3164.276640  	88.299565 
3165.241065  	88.298741 
3166.205489  	88.228093 
3167.169914  	88.138539 
3168.134338  	88.064651 
3169.098762  	88.037723 
3170.063187  	87.918689 
3171.027611  	87.799987 
3171.992036  	87.767277 
3172.956460  	87.717727 
3173.920885  	87.645073 
3174.885309  	87.553074 
3175.849734  	87.470132 
3176.814158  	87.409794 
3177.778583  	87.271802 
3178.743007  	87.162566 
3179.707431  	87.162260 
3180.671856  	87.160497 
3181.636280  	87.145731 
3182.600705  	87.067342 
3183.565129  	86.985520 
3184.529554  	86.874112 
3185.493978  	86.770951 
3186.458403  	86.723284 
3187.422827  	86.673952 
3188.387252  	86.596288 
3189.351676  	86.612384 
3190.316100  	86.600245 
3191.280525  	86.521955 
3192.244949  	86.457429 
3193.209374  	86.466928 
3194.173798  	86.409405 
3195.138223  	86.304941 
3196.102647  	86.131797 
3197.067072  	86.020869 
3198.031496  	86.004618 
3198.995921  	86.094857 
3199.960345  	86.097303 
3200.924769  	86.073769 
3201.889194  	86.025118 
3202.853618  	85.981962 
3203.818043  	85.925567 
3204.782467  	85.847837 
3205.746892  	85.725578 
3206.711316  	85.669455 
3207.675741  	85.679818 
3208.640165  	85.619809 
3209.604590  	85.532185 
3210.569014  	85.563974 
3211.533438  	85.559138 
3212.497863  	85.480935 
3213.462287  	85.386591 
3214.426712  	85.264522 
3215.391136  	85.244732 
3216.355561  	85.228967 
3217.319985  	85.138877 
3218.284410  	85.042795 
3219.248834  	84.938418 
3220.213259  	84.955609 
3221.177683  	84.939736 
3222.142107  	84.826993 
3223.106532  	84.742081 
3224.070956  	84.668746 
3225.035381  	84.539558 
3225.999805  	84.454851 
3226.964230  	84.331661 
3227.928654  	84.201522 
3228.893079  	84.140154 
3229.857503  	84.066322 
3230.821928  	83.873676 
3231.786352  	83.736906 
3232.750777  	83.649257 
3233.715201  	83.581812 
3234.679625  	83.425174 
3235.644050  	83.219973 
3236.608474  	83.069033 
3237.572899  	82.984439 
3238.537323  	82.825220 
3239.501748  	82.581331 
3240.466172  	82.351965 
3241.430597  	82.251118 
3242.395021  	82.124964 
3243.359446  	81.927614 
3244.323870  	81.713155 
3245.288294  	81.477038 
3246.252719  	81.324695 
3247.217143  	81.241012 
3248.181568  	81.034685 
3249.145992  	80.758591 
3250.110417  	80.563322 
3251.074841  	80.451654 
3252.039266  	80.283966 
3253.003690  	80.051915 
3253.968115  	79.748612 
3254.932539  	79.476853 
3255.896963  	79.244996 
3256.861388  	78.997297 
3257.825812  	78.777005 
3258.790237  	78.516583 
3259.754661  	78.252355 
3260.719086  	78.016636 
3261.683510  	77.793429 
3262.647935  	77.587567 
3263.612359  	77.353538 
3264.576784  	77.127695 
3265.541208  	76.861158 
3266.505632  	76.548439 
3267.470057  	76.243698 
3268.434481  	76.000769 
3269.398906  	75.763101 
3270.363330  	75.493660 
3271.327755  	75.244981 
3272.292179  	75.000117 
3273.256604  	74.640289 
3274.221028  	74.339947 
3275.185453  	74.117240 
3276.149877  	73.788429 
3277.114301  	73.404117 
3278.078726  	73.078246 
3279.043150  	72.719749 
3280.007575  	72.352924 
3280.971999  	72.011486 
3281.936424  	71.668964 
3282.900848  	71.277278 
3283.865273  	70.910917 
3284.829697  	70.537948 
3285.794122  	70.179006 
3286.758546  	69.836705 
3287.722971  	69.496085 
3288.687395  	69.166279 
3289.651819  	68.913883 
3290.616244  	68.580401 
3291.580668  	68.268998 
3292.545093  	68.038252 
3293.509517  	67.904625 
3294.473942  	67.838359 
3295.438366  	67.745978 
3296.402791  	67.660858 
3297.367215  	67.681709 
3298.331640  	67.736837 
3299.296064  	67.884864 
3300.260488  	68.063905 
3301.224913  	68.302967 
3302.189337  	68.645528 
3303.153762  	68.960331 
3304.118186  	69.285653 
3305.082611  	69.726689 
3306.047035  	70.252252 
3307.011460  	70.815164 
3307.975884  	71.281500 
3308.940309  	71.800608 
3309.904733  	72.494016 
3310.869157  	73.091061 
3311.833582  	73.710324 
3312.798006  	74.412183 
3313.762431  	75.034307 
3314.726855  	75.699576 
3315.691280  	76.314700 
3316.655704  	76.873981 
3317.620129  	77.358952 
3318.584553  	77.899218 
3319.548978  	78.434102 
3320.513402  	79.007550 
3321.477826  	79.499754 
3322.442251  	79.894727 
3323.406675  	80.332892 
3324.371100  	80.741069 
3325.335524  	81.091500 
3326.299949  	81.447582 
3327.264373  	81.709338 
3328.228798  	82.016887 
3329.193222  	82.325329 
3330.157647  	82.612111 
3331.122071  	82.939485 
3332.086495  	83.300693 
3333.050920  	83.537183 
3334.015344  	83.705342 
3334.979769  	83.873343 
3335.944193  	84.130844 
3336.908618  	84.280303 
3337.873042  	84.457428 
3338.837467  	84.759325 
3339.801891  	84.996140 
3340.766316  	85.206383 
3341.730740  	85.320535 
3342.695164  	85.424044 
3343.659589  	85.629789 
3344.624013  	85.885407 
3345.588438  	86.049407 
3346.552862  	86.133899 
3347.517287  	86.223656 
3348.481711  	86.326072 
3349.446136  	86.514915 
3350.410560  	86.630423 
3351.374985  	86.779202 
3352.339409  	86.953454 
3353.303834  	86.996917 
3354.268258  	86.972488 
3355.232682  	86.997682 
3356.197107  	87.026825 
3357.161531  	87.199627 
3358.125956  	87.349166 
3359.090380  	87.463512 
3360.054805  	87.417926 
3361.019229  	87.405138 
3361.983654  	87.460203 
3362.948078  	87.626605 
3363.912503  	87.717142 
3364.876927  	87.701133 
3365.841351  	87.794533 
3366.805776  	87.934462 
3367.770200  	87.867512 
3368.734625  	87.832230 
3369.699049  	87.949562 
3370.663474  	88.070667 
3371.627898  	88.151704 
3372.592323  	88.167556 
3373.556747  	88.161354 
3374.521172  	88.234221 
3375.485596  	88.321530 
3376.450020  	88.352350 
3377.414445  	88.366418 
3378.378869  	88.460586 
3379.343294  	88.527071 
3380.307718  	88.606316 
3381.272143  	88.702229 
3382.236567  	88.646917 
3383.200992  	88.567024 
3384.165416  	88.559812 
3385.129841  	88.517650 
3386.094265  	88.600668 
3387.058689  	88.702811 
3388.023114  	88.809586 
3388.987538  	88.902390 
3389.951963  	88.873859 
3390.916387  	88.766922 
3391.880812  	88.687968 
3392.845236  	88.509743 
3393.809661  	88.601479 
3394.774085  	88.873286 
3395.738510  	88.938436 
3396.702934  	88.905886 
3397.667358  	88.853251 
3398.631783  	89.016058 
3399.596207  	89.134267 
3400.560632  	88.990489 
3401.525056  	88.927186 
3402.489481  	89.076809 
3403.453905  	89.121676 
3404.418330  	89.115463 
3405.382754  	89.107318 
3406.347179  	89.110744 
3407.311603  	89.135579 
3408.276028  	89.155603 
3409.240452  	89.143764 
3410.204876  	89.117671 
3411.169301  	89.239573 
3412.133725  	89.311706 
3413.098150  	89.297961 
3414.062574  	89.254542 
3415.026999  	89.288989 
3415.991423  	89.289803 
3416.955848  	89.348606 
3417.920272  	89.371895 
3418.884697  	89.400042 
3419.849121  	89.213426 
3420.813545  	88.920216 
3421.777970  	88.931376 
3422.742394  	89.109299 
3423.706819  	89.280023 
3424.671243  	89.427224 
3425.635668  	89.474153 
3426.600092  	89.446174 
3427.564517  	89.385669 
3428.528941  	89.429832 
3429.493366  	89.483559 
3430.457790  	89.442668 
3431.422214  	89.447194 
3432.386639  	89.524774 
3433.351063  	89.607957 
3434.315488  	89.652366 
3435.279912  	89.606894 
3436.244337  	89.544900 
3437.208761  	89.519369 
3438.173186  	89.580966 
3439.137610  	89.617449 
3440.102035  	89.661806 
3441.066459  	89.669313 
3442.030883  	89.548776 
3442.995308  	89.333764 
3443.959732  	89.481134 
3444.924157  	89.606036 
3445.888581  	89.578741 
3446.853006  	89.171518 
3447.817430  	88.906346 
3448.781855  	89.371642 
3449.746279  	89.659756 
3450.710704  	89.732579 
3451.675128  	89.772010 
3452.639552  	89.841546 
3453.603977  	89.879691 
3454.568401  	89.877443 
3455.532826  	89.857014 
3456.497250  	89.858022 
3457.461675  	89.891156 
3458.426099  	89.872061 
3459.390524  	89.880465 
3460.354948  	89.878543 
3461.319373  	89.771374 
3462.283797  	89.711410 
3463.248221  	89.719810 
3464.212646  	89.834931 
3465.177070  	89.924203 
3466.141495  	89.904459 
3467.105919  	89.697635 
3468.070344  	89.804411 
3469.034768  	90.027948 
3469.999193  	89.993807 
3470.963617  	89.919525 
3471.928042  	89.966064 
3472.892466  	90.028093 
3473.856891  	90.041960 
3474.821315  	89.928471 
3475.785739  	89.925391 
3476.750164  	90.037430 
3477.714588  	90.105890 
3478.679013  	90.161468 
3479.643437  	90.085085 
3480.607862  	89.820922 
3481.572286  	89.637953 
3482.536711  	89.485112 
3483.501135  	89.776355 
3484.465560  	90.081026 
3485.429984  	90.063641 
3486.394408  	90.093554 
3487.358833  	90.031963 
3488.323257  	89.768172 
3489.287682  	89.847161 
3490.252106  	90.115873 
3491.216531  	90.138066 
3492.180955  	90.229070 
3493.145380  	90.384144 
3494.109804  	90.451175 
3495.074229  	90.279870 
3496.038653  	89.974609 
3497.003077  	89.831653 
3497.967502  	90.091562 
3498.931926  	90.299605 
3499.896351  	90.269254 
3500.860775  	90.176272 
3501.825200  	89.816086 
3502.789624  	89.281971 
3503.754049  	89.225486 
3504.718473  	89.675454 
3505.682898  	90.095314 
3506.647322  	90.392121 
3507.611746  	90.499694 
3508.576171  	90.261395 
3509.540595  	89.659799 
3510.505020  	89.830316 
3511.469444  	90.295069 
3512.433869  	90.422501 
3513.398293  	90.581161 
3514.362718  	90.685998 
3515.327142  	90.805649 
3516.291567  	90.855954 
3517.255991  	90.725469 
3518.220415  	90.643492 
3519.184840  	90.680297 
3520.149264  	90.739276 
3521.113689  	90.909736 
3522.078113  	90.736609 
3523.042538  	89.962827 
3524.006962  	89.544917 
3524.971387  	89.937833 
3525.935811  	90.148465 
3526.900236  	90.138285 
3527.864660  	89.984055 
3528.829085  	90.102140 
3529.793509  	90.370484 
3530.757933  	90.703285 
3531.722358  	90.748098 
3532.686782  	91.010728 
3533.651207  	91.183490 
3534.615631  	91.182573 
3535.580056  	90.914092 
3536.544480  	90.317010 
3537.508905  	90.500621 
3538.473329  	91.100044 
3539.437754  	91.195085 
3540.402178  	91.327806 
3541.366602  	91.351749 
3542.331027  	91.271188 
3543.295451  	90.943940 
3544.259876  	90.609512 
3545.224300  	89.834569 
3546.188725  	89.620086 
3547.153149  	89.646660 
3548.117574  	90.213008 
3549.081998  	91.115680 
3550.046423  	91.415069 
3551.010847  	91.331805 
3551.975271  	90.695067 
3552.939696  	90.381052 
3553.904120  	90.802503 
3554.868545  	91.255664 
3555.832969  	91.655495 
3556.797394  	91.611150 
3557.761818  	91.640251 
3558.726243  	91.767688 
3559.690667  	91.411246 
3560.655092  	90.886715 
3561.619516  	91.285266 
3562.583940  	91.303457 
3563.548365  	91.196524 
3564.512789  	91.125147 
3565.477214  	90.324768 
3566.441638  	88.138070 
3567.406063  	87.906356 
3568.370487  	88.341955 
3569.334912  	89.978691 
3570.299336  	91.211359 
3571.263761  	91.403972 
3572.228185  	91.838611 
3573.192609  	91.992972 
3574.157034  	91.853092 
3575.121458  	91.764000 
3576.085883  	91.917740 
3577.050307  	91.877909 
3578.014732  	91.913489 
3578.979156  	92.003211 
3579.943581  	91.572742 
3580.908005  	91.569113 
3581.872430  	92.047450 
3582.836854  	92.106799 
3583.801278  	91.933658 
3584.765703  	91.927132 
3585.730127  	91.554848 
3586.694552  	89.956656 
3587.658976  	88.948839 
3588.623401  	89.284773 
3589.587825  	90.252273 
3590.552250  	91.661479 
3591.516674  	92.169748 
3592.481099  	92.089012 
3593.445523  	91.362988 
3594.409948  	91.365323 
3595.374372  	90.983738 
3596.338796  	90.867964 
3597.303221  	91.794299 
3598.267645  	91.877520 
3599.232070  	91.547427 
3600.196494  	91.640244 
3601.160919  	91.379174 
3602.125343  	91.663472 
3603.089768  	91.952571 
3604.054192  	92.308732 
3605.018617  	92.555260 
3605.983041  	92.379613 
3606.947465  	91.294846 
3607.911890  	90.708887 
3608.876314  	90.993167 
3609.840739  	90.685562 
3610.805163  	91.699620 
3611.769588  	91.820369 
3612.734012  	90.568463 
3613.698437  	90.577945 
3614.662861  	90.836696 
3615.627286  	90.970669 
3616.591710  	91.979373 
3617.556134  	91.449902 
3618.520559  	90.495892 
3619.484983  	90.443271 
3620.449408  	90.444241 
3621.413832  	91.202455 
3622.378257  	91.975889 
3623.342681  	92.489482 
3624.307106  	92.669401 
3625.271530  	92.598275 
3626.235955  	92.108136 
3627.200379  	91.901742 
3628.164803  	91.065824 
3629.129228  	88.393609 
3630.093652  	88.992148 
3631.058077  	91.298855 
3632.022501  	92.272888 
3632.986926  	92.376001 
3633.951350  	91.685580 
3634.915775  	92.013036 
3635.880199  	92.736712 
3636.844624  	92.876747 
3637.809048  	92.695141 
3638.773472  	92.631884 
3639.737897  	92.920507 
3640.702321  	92.948125 
3641.666746  	92.600217 
3642.631170  	92.113530 
3643.595595  	92.377634 
3644.560019  	92.843104 
3645.524444  	92.541544 
3646.488868  	91.395620 
3647.453293  	89.564416 
3648.417717  	89.696669 
3649.382142  	89.506271 
3650.346566  	88.600438 
3651.310990  	88.809182 
3652.275415  	90.901903 
3653.239839  	92.373467 
3654.204264  	92.826962 
3655.168688  	92.771458 
3656.133113  	91.853515 
3657.097537  	91.409030 
3658.061962  	92.598599 
3659.026386  	92.945510 
3659.990811  	92.804371 
3660.955235  	92.935854 
3661.919659  	93.201603 
3662.884084  	93.252976 
3663.848508  	93.252245 
3664.812933  	93.183965 
3665.777357  	93.160116 
3666.741782  	93.224987 
3667.706206  	93.180189 
3668.670631  	92.191283 
3669.635055  	90.846029 
3670.599480  	90.190143 
3671.563904  	90.715352 
3672.528328  	92.364977 
3673.492753  	92.716060 
3674.457177  	91.547760 
3675.421602  	88.544646 
3676.386026  	88.870284 
3677.350451  	90.930016 
3678.314875  	91.843741 
3679.279300  	91.970574 
3680.243724  	91.995263 
3681.208149  	92.855507 
3682.172573  	93.275728 
3683.136997  	93.270864 
3684.101422  	93.099534 
3685.065846  	92.999854 
3686.030271  	93.159965 
3686.994695  	93.057988 
3687.959120  	92.277364 
3688.923544  	91.124065 
3689.887969  	91.572620 
3690.852393  	91.167860 
3691.816818  	90.903146 
3692.781242  	92.411193 
3693.745666  	92.936707 
3694.710091  	93.112871 
3695.674515  	93.227911 
3696.638940  	93.078052 
3697.603364  	93.218539 
3698.567789  	93.489307 
3699.532213  	93.376972 
3700.496638  	93.316428 
3701.461062  	92.536121 
3702.425487  	91.838754 
3703.389911  	92.803221 
3704.354335  	93.280415 
3705.318760  	93.161525 
3706.283184  	93.176302 
3707.247609  	93.329334 
3708.212033  	93.305841 
3709.176458  	92.628150 
3710.140882  	91.873396 
3711.105307  	91.611768 
3712.069731  	90.538310 
3713.034156  	90.573925 
3713.998580  	92.195220 
3714.963005  	92.378966 
3715.927429  	92.664313 
3716.891853  	93.308823 
3717.856278  	93.381755 
3718.820702  	92.711557 
3719.785127  	92.405708 
3720.749551  	93.022061 
3721.713976  	92.612640 
3722.678400  	91.152736 
3723.642825  	91.800982 
3724.607249  	92.297662 
3725.571674  	91.558313 
3726.536098  	91.222098 
3727.500522  	91.481748 
3728.464947  	92.576129 
3729.429371  	93.237349 
3730.393796  	93.173787 
3731.358220  	92.774580 
3732.322645  	91.987248 
3733.287069  	91.974003 
3734.251494  	91.421677 
3735.215918  	88.230053 
3736.180343  	88.304066 
3737.144767  	89.997262 
3738.109191  	91.068831 
3739.073616  	91.611076 
3740.038040  	92.263605 
3741.002465  	91.966508 
3741.966889  	92.023848 
3742.931314  	92.609008 
3743.895738  	91.734580 
3744.860163  	88.297025 
3745.824587  	90.276113 
3746.789012  	91.577605 
3747.753436  	91.643639 
3748.717860  	91.550432 
3749.682285  	91.027076 
3750.646709  	90.712632 
3751.611134  	90.478540 
3752.575558  	89.334041 
3753.539983  	90.915480 
3754.504407  	92.116273 
3755.468832  	92.715602 
3756.433256  	92.451629 
3757.397681  	92.378470 
3758.362105  	92.613346 
3759.326529  	91.696481 
3760.290954  	91.224694 
3761.255378  	92.665622 
3762.219803  	93.107335 
3763.184227  	93.179001 
3764.148652  	93.238656 
3765.113076  	92.834335 
3766.077501  	91.875143 
3767.041925  	92.540926 
3768.006350  	93.210518 
3768.970774  	92.947452 
3769.935199  	91.908867 
3770.899623  	91.932383 
3771.864047  	92.834217 
3772.828472  	93.227294 
3773.792896  	93.353598 
3774.757321  	93.471865 
3775.721745  	93.578090 
3776.686170  	93.663202 
3777.650594  	93.576818 
3778.615019  	93.120342 
3779.579443  	92.211519 
3780.543868  	92.286358 
3781.508292  	93.167339 
3782.472716  	93.321948 
3783.437141  	93.354749 
3784.401565  	92.967717 
3785.365990  	92.433864 
3786.330414  	92.757290 
3787.294839  	93.177144 
3788.259263  	93.387207 
3789.223688  	93.451537 
3790.188112  	93.471268 
3791.152537  	93.522829 
3792.116961  	93.499023 
3793.081385  	93.548905 
3794.045810  	93.625977 
3795.010234  	93.483630 
3795.974659  	92.884024 
3796.939083  	91.934564 
3797.903508  	92.165798 
3798.867932  	92.830331 
3799.832357  	92.993241 
3800.796781  	92.094410 
3801.761206  	90.538678 
3802.725630  	90.870311 
3803.690054  	91.984942 
3804.654479  	93.018322 
3805.618903  	93.195047 
3806.583328  	92.525816 
3807.547752  	91.738109 
3808.512177  	92.686477 
3809.476601  	93.150686 
3810.441026  	93.241063 
3811.405450  	93.402732 
3812.369875  	93.491549 
3813.334299  	93.537257 
3814.298723  	93.438319 
3815.263148  	92.835819 
3816.227572  	91.318878 
3817.191997  	91.586873 
3818.156421  	92.664032 
3819.120846  	92.685076 
3820.085270  	92.036424 
3821.049695  	90.451165 
3822.014119  	90.133808 
3822.978544  	91.831671 
3823.942968  	92.546066 
3824.907392  	92.832967 
3825.871817  	92.817651 
3826.836241  	92.214961 
3827.800666  	92.240015 
3828.765090  	92.922374 
3829.729515  	93.300579 
3830.693939  	93.213257 
3831.658364  	92.449345 
3832.622788  	92.339331 
3833.587213  	92.986730 
3834.551637  	92.617938 
3835.516062  	91.961137 
3836.480486  	92.546210 
3837.444910  	92.206267 
3838.409335  	90.864132 
3839.373759  	91.268748 
3840.338184  	90.869701 
3841.302608  	90.955450 
3842.267033  	92.324403 
3843.231457  	92.434421 
3844.195882  	91.628502 
3845.160306  	92.426029 
3846.124731  	93.079309 
3847.089155  	93.239394 
3848.053579  	93.296014 
3849.018004  	93.095783 
3849.982428  	92.591656 
3850.946853  	92.596945 
3851.911277  	91.869409 
3852.875702  	90.090428 
3853.840126  	89.315545 
3854.804551  	89.545679 
3855.768975  	91.660332 
3856.733400  	91.937682 
3857.697824  	91.515772 
3858.662248  	92.613219 
3859.626673  	93.324511 
3860.591097  	93.292252 
3861.555522  	92.661921 
3862.519946  	92.055363 
3863.484371  	92.393251 
3864.448795  	91.659242 
3865.413220  	90.527337 
3866.377644  	91.864022 
3867.342069  	92.961546 
3868.306493  	92.997894 
3869.270917  	91.773723 
3870.235342  	89.711625 
3871.199766  	90.835821 
3872.164191  	92.182088 
3873.128615  	92.571401 
3874.093040  	91.374444 
3875.057464  	91.236755 
3876.021889  	92.875318 
3876.986313  	93.338667 
3877.950738  	93.395847 
3878.915162  	93.328551 
3879.879586  	92.352621 
3880.844011  	90.392161 
3881.808435  	91.551510 
3882.772860  	92.673617 
3883.737284  	92.441328 
3884.701709  	92.389802 
3885.666133  	91.597621 
3886.630558  	91.084952 
3887.594982  	92.673286 
3888.559407  	93.300673 
3889.523831  	93.347068 
3890.488256  	92.920425 
3891.452680  	91.624442 
3892.417104  	91.409002 
3893.381529  	92.411700 
3894.345953  	92.398892 
3895.310378  	92.736178 
3896.274802  	93.325471 
3897.239227  	93.352975 
3898.203651  	92.633012 
3899.168076  	91.539052 
3900.132500  	91.369148 
3901.096925  	92.137878 
3902.061349  	90.874646 
3903.025773  	90.783174 
3903.990198  	91.350473 
3904.954622  	90.784245 
3905.919047  	91.135183 
3906.883471  	92.039749 
3907.847896  	93.112692 
3908.812320  	93.460487 
3909.776745  	93.506721 
3910.741169  	93.528764 
3911.705594  	93.494041 
3912.670018  	93.458392 
3913.634442  	93.463898 
3914.598867  	93.506850 
3915.563291  	93.357134 
3916.527716  	92.446644 
3917.492140  	91.585736 
3918.456565  	92.410960 
3919.420989  	92.792994 
3920.385414  	92.131795 
3921.349838  	92.638402 
3922.314263  	93.390194 
3923.278687  	93.077026 
3924.243111  	92.213374 
3925.207536  	91.694414 
3926.171960  	92.438348 
3927.136385  	93.292514 
3928.100809  	93.340909 
3929.065234  	93.085261 
3930.029658  	92.745233 
3930.994083  	92.536084 
3931.958507  	92.147581 
3932.922932  	91.689297 
3933.887356  	92.504664 
3934.851780  	92.999947 
3935.816205  	93.319202 
3936.780629  	93.475745 
3937.745054  	93.415211 
3938.709478  	93.240935 
3939.673903  	93.379385 
3940.638327  	93.474893 
3941.602752  	93.285860 
3942.567176  	92.341837 
3943.531601  	91.818055 
3944.496025  	92.706157 
3945.460449  	93.217373 
3946.424874  	93.333632 
3947.389298  	92.737003 
3948.353723  	92.304881 
3949.318147  	92.607701 
3950.282572  	92.337546 
3951.246996  	92.724689 
3952.211421  	93.367570 
3953.175845  	93.289501 
3954.140270  	93.360176 
3955.104694  	93.480745 
3956.069119  	93.395486 
3957.033543  	93.199519 
3957.997967  	93.195995 
3958.962392  	93.290562 
3959.926816  	93.316647 
3960.891241  	93.283074 
3961.855665  	92.840712 
3962.820090  	92.775544 
3963.784514  	93.316860 
3964.748939  	93.422470 
3965.713363  	93.459227 
3966.677788  	93.488943 
3967.642212  	93.487758 
3968.606636  	93.328081 
3969.571061  	93.135313 
3970.535485  	93.297406 
3971.499910  	93.371382 
3972.464334  	93.145156 
3973.428759  	93.246925 
3974.393183  	93.361569 
3975.357608  	93.190317 
3976.322032  	92.995198 
3977.286457  	93.199119 
3978.250881  	93.496851 
3979.215305  	93.512992 
3980.179730  	93.447607 
3981.144154  	93.408751 
3982.108579  	93.322053 
3983.073003  	93.325360 
3984.037428  	93.464110 
3985.001852  	93.474535 
3985.966277  	93.456213 
3986.930701  	93.513719 
3987.895126  	93.542194 
3988.859550  	93.506618 
3989.823974  	93.381628 
3990.788399  	93.166773 
3991.752823  	93.270498 
3992.717248  	93.427705 
3993.681672  	93.413458 
3994.646097  	93.305429 
3995.610521  	93.199785 
3996.574946  	93.355870 
3997.539370  	93.480331 
3998.503795  	93.504891 
3999.468219  	93.479780 
4000.432643  	93.476306 
4001.397068  	93.452724 
4002.361492  	93.419235 
4003.325917  	93.402396 
4004.290341  	93.428010 
4005.254766  	93.462808 
4006.219190  	93.475480 
4007.183615  	93.439017 
4008.148039  	93.331017 
4009.112464  	93.202551 
4010.076888  	93.316504 
4011.041313  	93.420108 
4012.005737  	93.486289 
4012.970161  	93.460447 
4013.934586  	93.435931 
4014.899010  	93.422965 
4015.863435  	93.416215 
4016.827859  	93.448768 
4017.792284  	93.497299 
4018.756708  	93.512373 
4019.721133  	93.433470 
4020.685557  	93.378735 
4021.649982  	93.410895 
4022.614406  	93.473912 
4023.578830  	93.480163 
4024.543255  	93.427871 
4025.507679  	93.330055 
4026.472104  	93.330596 
4027.436528  	93.431129 
4028.400953  	93.433965 
4029.365377  	93.442167 
4030.329802  	93.475985 
4031.294226  	93.486650 
4032.258651  	93.469780 
4033.223075  	93.475566 
4034.187499  	93.495412 
4035.151924  	93.507468 
4036.116348  	93.498352 
4037.080773  	93.513888 
4038.045197  	93.498696 
4039.009622  	93.487531 
4039.974046  	93.483212 
4040.938471  	93.528509 
4041.902895  	93.530332 
4042.867320  	93.521740 
4043.831744  	93.436282 
4044.796168  	93.375014 
4045.760593  	93.357516 
4046.725017  	93.453893 
4047.689442  	93.503970 
4048.653866  	93.504869 
4049.618291  	93.504040 
4050.582715  	93.503757 
4051.547140  	93.472757 
4052.511564  	93.447543 
4053.475989  	93.490056 
4054.440413  	93.496599 
4055.404837  	93.464058 
4056.369262  	93.493294 
4057.333686  	93.540890 
4058.298111  	93.486452 
4059.262535  	93.472738 
4060.226960  	93.488520 
4061.191384  	93.461548 
4062.155809  	93.500370 
4063.120233  	93.515698 
4064.084658  	93.490898 
4065.049082  	93.489107 
4066.013506  	93.459248 
4066.977931  	93.434058 
4067.942355  	93.512860 
4068.906780  	93.555201 
4069.871204  	93.531716 
4070.835629  	93.501053 
4071.800053  	93.494946 
4072.764478  	93.474433 
4073.728902  	93.443948 
4074.693327  	93.469483 
4075.657751  	93.513982 
4076.622176  	93.467651 
4077.586600  	93.459729 
4078.551024  	93.472273 
4079.515449  	93.442492 
4080.479873  	93.494351 
4081.444298  	93.554774 
4082.408722  	93.522063 
4083.373147  	93.496425 
4084.337571  	93.502391 
4085.301996  	93.519546 
4086.266420  	93.482839 
4087.230845  	93.479932 
4088.195269  	93.453203 
4089.159693  	93.474577 
4090.124118  	93.512593 
4091.088542  	93.545310 
4092.052967  	93.567403 
4093.017391  	93.519420 
4093.981816  	93.505739 
4094.946240  	93.537619 
4095.910665  	93.581901 
4096.875089  	93.635678 
4097.839514  	93.545207 
4098.803938  	93.447210 
4099.768362  	93.473916 
4100.732787  	93.488445 
4101.697211  	93.488258 
4102.661636  	93.488955 
4103.626060  	93.507891 
4104.590485  	93.483147 
4105.554909  	93.401743 
4106.519334  	93.401982 
4107.483758  	93.470886 
4108.448183  	93.544340 
4109.412607  	93.544022 
4110.377031  	93.480084 
4111.341456  	93.521312 
4112.305880  	93.567540 
4113.270305  	93.543090 
4114.234729  	93.511364 
4115.199154  	93.548610 
4116.163578  	93.510667 
4117.128003  	93.437203 
4118.092427  	93.449035 
4119.056852  	93.497054 
4120.021276  	93.483905 
4120.985700  	93.491366 
4121.950125  	93.537832 
4122.914549  	93.512345 
4123.878974  	93.485266 
4124.843398  	93.510894 
4125.807823  	93.519481 
4126.772247  	93.490333 
4127.736672  	93.489632 
4128.701096  	93.550684 
4129.665521  	93.547157 
4130.629945  	93.495899 
4131.594370  	93.507076 
4132.558794  	93.570654 
4133.523218  	93.542375 
4134.487643  	93.507214 
4135.452067  	93.485553 
4136.416492  	93.511677 
4137.380916  	93.554626 
4138.345341  	93.507770 
4139.309765  	93.440938 
4140.274190  	93.489768 
4141.238614  	93.511247 
4142.203039  	93.484510 
4143.167463  	93.505635 
4144.131887  	93.490507 
4145.096312  	93.525089 
4146.060736  	93.538015 
4147.025161  	93.527477 
4147.989585  	93.542578 
4148.954010  	93.511239 
4149.918434  	93.475954 
4150.882859  	93.505837 
4151.847283  	93.543664 
4152.811708  	93.512735 
4153.776132  	93.469603 
4154.740556  	93.510894 
4155.704981  	93.498640 
4156.669405  	93.454228 
4157.633830  	93.467979 
4158.598254  	93.444840 
4159.562679  	93.436743 
4160.527103  	93.447940 
4161.491528  	93.453927 
4162.455952  	93.501097 
4163.420377  	93.539255 
4164.384801  	93.529409 
4165.349225  	93.517973 
4166.313650  	93.503681 
4167.278074  	93.505266 
4168.242499  	93.565891 
4169.206923  	93.572664 
4170.171348  	93.539615 
4171.135772  	93.507405 
4172.100197  	93.498166 
4173.064621  	93.516207 
4174.029046  	93.516055 
4174.993470  	93.486408 
4175.957894  	93.502699 
4176.922319  	93.521482 
4177.886743  	93.511683 
4178.851168  	93.502446 
4179.815592  	93.443919 
4180.780017  	93.393117 
4181.744441  	93.459052 
4182.708866  	93.517723 
4183.673290  	93.518734 
4184.637715  	93.517612 
4185.602139  	93.531411 
4186.566563  	93.512988 
4187.530988  	93.501606 
4188.495412  	93.528958 
4189.459837  	93.566356 
4190.424261  	93.515680 
4191.388686  	93.486355 
4192.353110  	93.526761 
4193.317535  	93.511646 
4194.281959  	93.445455 
4195.246384  	93.466519 
4196.210808  	93.458414 
4197.175233  	93.432628 
4198.139657  	93.474936 
4199.104081  	93.507860 
4200.068506  	93.509871 
4201.032930  	93.488254 
4201.997355  	93.520741 
4202.961779  	93.562069 
4203.926204  	93.509007 
4204.890628  	93.456368 
4205.855053  	93.478347 
4206.819477  	93.496762 
4207.783902  	93.478971 
4208.748326  	93.507448 
4209.712750  	93.597768 
4210.677175  	93.570733 
4211.641599  	93.486837 
4212.606024  	93.475881 
4213.570448  	93.539109 
4214.534873  	93.533865 
4215.499297  	93.460665 
4216.463722  	93.489052 
4217.428146  	93.460886 
4218.392571  	93.418124 
4219.356995  	93.431928 
4220.321419  	93.482105 
4221.285844  	93.528629 
4222.250268  	93.537304 
4223.214693  	93.456622 
4224.179117  	93.430518 
4225.143542  	93.477921 
4226.107966  	93.535288 
4227.072391  	93.591651 
4228.036815  	93.507069 
4229.001240  	93.421757 
4229.965664  	93.402626 
4230.930088  	93.430361 
4231.894513  	93.502285 
4232.858937  	93.551012 
4233.823362  	93.564279 
4234.787786  	93.536634 
4235.752211  	93.499886 
4236.716635  	93.518486 
4237.681060  	93.534681 
4238.645484  	93.536255 
4239.609909  	93.520190 
4240.574333  	93.518667 
4241.538757  	93.565833 
4242.503182  	93.575369 
4243.467606  	93.557050 
4244.432031  	93.497501 
4245.396455  	93.460560 
4246.360880  	93.523168 
4247.325304  	93.527667 
4248.289729  	93.533509 
4249.254153  	93.591704 
4250.218578  	93.577527 
4251.183002  	93.547322 
4252.147427  	93.526689 
4253.111851  	93.527701 
4254.076275  	93.490040 
4255.040700  	93.450674 
4256.005124  	93.470302 
4256.969549  	93.551951 
4257.933973  	93.618105 
4258.898398  	93.616248 
4259.862822  	93.536464 
4260.827247  	93.484292 
4261.791671  	93.504283 
4262.756096  	93.570227 
4263.720520  	93.558984 
4264.684944  	93.500387 
4265.649369  	93.469440 
4266.613793  	93.499655 
4267.578218  	93.524034 
4268.542642  	93.541451 
4269.507067  	93.540694 
4270.471491  	93.548759 
4271.435916  	93.558491 
4272.400340  	93.524252 
4273.364765  	93.500551 
4274.329189  	93.539535 
4275.293613  	93.510983 
4276.258038  	93.525613 
4277.222462  	93.561920 
4278.186887  	93.488468 
4279.151311  	93.451804 
4280.115736  	93.469815 
4281.080160  	93.539270 
4282.044585  	93.498107 
4283.009009  	93.429184 
4283.973434  	93.466487 
4284.937858  	93.512035 
4285.902282  	93.461552 
4286.866707  	93.475268 
4287.831131  	93.547682 
4288.795556  	93.582340 
4289.759980  	93.561781 
4290.724405  	93.484127 
4291.688829  	93.482768 
4292.653254  	93.551366 
4293.617678  	93.582011 
4294.582103  	93.594637 
4295.546527  	93.596086 
4296.510951  	93.571927 
4297.475376  	93.562218 
4298.439800  	93.564336 
4299.404225  	93.544019 
4300.368649  	93.549571 
4301.333074  	93.546570 
4302.297498  	93.481558 
4303.261923  	93.473323 
4304.226347  	93.530813 
4305.190772  	93.613848 
4306.155196  	93.578859 
4307.119620  	93.560820 
4308.084045  	93.574931 
4309.048469  	93.555822 
4310.012894  	93.548725 
4310.977318  	93.568657 
4311.941743  	93.569808 
4312.906167  	93.502765 
4313.870592  	93.441772 
4314.835016  	93.517186 
4315.799441  	93.536743 
4316.763865  	93.506141 
4317.728290  	93.537109 
4318.692714  	93.642534 
4319.657138  	93.637897 
4320.621563  	93.558796 
4321.585987  	93.505232 
4322.550412  	93.479591 
4323.514836  	93.474415 
4324.479261  	93.495063 
4325.443685  	93.516442 
4326.408110  	93.523229 
4327.372534  	93.549439 
4328.336959  	93.536650 
4329.301383  	93.470979 
4330.265807  	93.497676 
4331.230232  	93.569308 
4332.194656  	93.517727 
4333.159081  	93.517029 
4334.123505  	93.566446 
4335.087930  	93.432747 
4336.052354  	93.374060 
4337.016779  	93.460357 
4337.981203  	93.528894 
4338.945628  	93.512322 
4339.910052  	93.485863 
4340.874476  	93.491942 
4341.838901  	93.502526 
4342.803325  	93.465575 
4343.767750  	93.460235 
4344.732174  	93.469516 
4345.696599  	93.435628 
4346.661023  	93.432840 
4347.625448  	93.404714 
4348.589872  	93.372989 
4349.554297  	93.458856 
4350.518721  	93.533575 
4351.483145  	93.522083 
4352.447570  	93.481108 
4353.411994  	93.469323 
4354.376419  	93.441319 
4355.340843  	93.453986 
4356.305268  	93.517930 
4357.269692  	93.526905 
4358.234117  	93.548502 
4359.198541  	93.509964 
4360.162966  	93.444947 
4361.127390  	93.415547 
4362.091814  	93.410109 
4363.056239  	93.372733 
4364.020663  	93.412106 
4364.985088  	93.473263 
4365.949512  	93.437076 
4366.913937  	93.378633 
4367.878361  	93.347052 
4368.842786  	93.400173 
4369.807210  	93.489252 
4370.771635  	93.473449 
4371.736059  	93.420444 
4372.700484  	93.434070 
4373.664908  	93.497611 
4374.629332  	93.485543 
4375.593757  	93.492870 
4376.558181  	93.579658 
4377.522606  	93.633731 
4378.487030  	93.521098 
4379.451455  	93.455444 
4380.415879  	93.442092 
4381.380304  	93.500625 
4382.344728  	93.572172 
4383.309153  	93.569128 
4384.273577  	93.540145 
4385.238001  	93.560360 
4386.202426  	93.554738 
4387.166850  	93.575974 
4388.131275  	93.557579 
4389.095699  	93.498700 
4390.060124  	93.543134 
4391.024548  	93.583053 
4391.988973  	93.616881 
4392.953397  	93.672265 
4393.917822  	93.646689 
4394.882246  	93.638877 
4395.846670  	93.612168 
4396.811095  	93.516288 
4397.775519  	93.565526 
4398.739944  	93.665657 
4399.704368  	93.686361 
4400.668793  	93.727691 
4401.633217  	93.608212 
4402.597642  	93.538031 
4403.562066  	93.666940 
4404.526491  	93.739431 
4405.490915  	93.727533 
4406.455339  	93.673041 
4407.419764  	93.588674 
4408.384188  	93.635286 
4409.348613  	93.710977 
4410.313037  	93.676400 
4411.277462  	93.638728 
4412.241886  	93.607989 
4413.206311  	93.606250 
4414.170735  	93.660106 
4415.135160  	93.672663 
4416.099584  	93.635664 
4417.064008  	93.616407 
4418.028433  	93.618563 
4418.992857  	93.613731 
4419.957282  	93.601902 
4420.921706  	93.625601 
4421.886131  	93.690678 
4422.850555  	93.690915 
4423.814980  	93.606318 
4424.779404  	93.559939 
4425.743829  	93.586090 
4426.708253  	93.634236 
4427.672677  	93.666072 
4428.637102  	93.679937 
4429.601526  	93.710490 
4430.565951  	93.677294 
4431.530375  	93.634942 
4432.494800  	93.568375 
4433.459224  	93.535520 
4434.423649  	93.605217 
4435.388073  	93.705898 
4436.352498  	93.801472 
4437.316922  	93.808016 
4438.281347  	93.747950 
4439.245771  	93.626071 
4440.210195  	93.581611 
4441.174620  	93.615205 
4442.139044  	93.637896 
4443.103469  	93.704751 
4444.067893  	93.698278 
4445.032318  	93.673082 
4445.996742  	93.683414 
4446.961167  	93.691661 
4447.925591  	93.640256 
4448.890016  	93.577653 
4449.854440  	93.518083 
4450.818864  	93.540762 
4451.783289  	93.613956 
4452.747713  	93.608445 
4453.712138  	93.654275 
4454.676562  	93.636482 
4455.640987  	93.576671 
4456.605411  	93.634446 
4457.569836  	93.680011 
4458.534260  	93.659591 
4459.498685  	93.653455 
4460.463109  	93.633769 
4461.427533  	93.628133 
4462.391958  	93.631220 
4463.356382  	93.625118 
4464.320807  	93.664702 
4465.285231  	93.635188 
4466.249656  	93.611327 
4467.214080  	93.651404 
4468.178505  	93.687225 
4469.142929  	93.688741 
4470.107354  	93.655994 
4471.071778  	93.626250 
4472.036202  	93.702497 
4473.000627  	93.750276 
4473.965051  	93.665253 
4474.929476  	93.636947 
4475.893900  	93.706693 
4476.858325  	93.690314 
4477.822749  	93.690691 
4478.787174  	93.701745 
4479.751598  	93.694921 
4480.716023  	93.639177 
4481.680447  	93.559962 
4482.644871  	93.598825 
4483.609296  	93.625527 
4484.573720  	93.668462 
4485.538145  	93.675138 
4486.502569  	93.607419 
4487.466994  	93.614417 
4488.431418  	93.681516 
4489.395843  	93.633965 
4490.360267  	93.628579 
4491.324692  	93.695307 
4492.289116  	93.715241 
4493.253541  	93.720028 
4494.217965  	93.708490 
4495.182389  	93.671400 
4496.146814  	93.676357 
4497.111238  	93.670505 
4498.075663  	93.671780 
4499.040087  	93.684196 
4500.004512  	93.643165 
4500.968936  	93.637657 
4501.933361  	93.645480 
4502.897785  	93.656679 
4503.862210  	93.695729 
4504.826634  	93.710995 
4505.791058  	93.697260 
4506.755483  	93.704370 
4507.719907  	93.681992 
4508.684332  	93.692798 
4509.648756  	93.636177 
4510.613181  	93.534795 
4511.577605  	93.594191 
4512.542030  	93.672487 
4513.506454  	93.665241 
4514.470879  	93.606277 
4515.435303  	93.567100 
4516.399727  	93.560037 
4517.364152  	93.520346 
4518.328576  	93.559715 
4519.293001  	93.667590 
4520.257425  	93.758002 
4521.221850  	93.718599 
4522.186274  	93.683219 
4523.150699  	93.683762 
4524.115123  	93.666007 
4525.079548  	93.645610 
4526.043972  	93.641774 
4527.008396  	93.656664 
4527.972821  	93.667572 
4528.937245  	93.683835 
4529.901670  	93.651555 
4530.866094  	93.637699 
4531.830519  	93.668532 
4532.794943  	93.642545 
4533.759368  	93.638863 
4534.723792  	93.643838 
4535.688217  	93.626337 
4536.652641  	93.666977 
4537.617065  	93.744978 
4538.581490  	93.772855 
4539.545914  	93.747330 
4540.510339  	93.735866 
4541.474763  	93.644830 
4542.439188  	93.598635 
4543.403612  	93.648311 
4544.368037  	93.581314 
4545.332461  	93.515728 
4546.296886  	93.612245 
4547.261310  	93.656300 
4548.225734  	93.624403 
4549.190159  	93.605166 
4550.154583  	93.639868 
4551.119008  	93.577147 
4552.083432  	93.563401 
4553.047857  	93.602128 
4554.012281  	93.584718 
4554.976706  	93.589597 
4555.941130  	93.641044 
4556.905555  	93.664213 
4557.869979  	93.673907 
4558.834404  	93.689415 
4559.798828  	93.682355 
4560.763252  	93.607150 
4561.727677  	93.594027 
4562.692101  	93.616815 
4563.656526  	93.626430 
4564.620950  	93.682920 
4565.585375  	93.659084 
4566.549799  	93.602211 
4567.514224  	93.619092 
4568.478648  	93.660309 
4569.443073  	93.667659 
4570.407497  	93.599985 
4571.371921  	93.577549 
4572.336346  	93.611043 
4573.300770  	93.652808 
4574.265195  	93.652984 
4575.229619  	93.633064 
4576.194044  	93.612363 
4577.158468  	93.614599 
4578.122893  	93.664762 
4579.087317  	93.662987 
4580.051742  	93.682127 
4581.016166  	93.703944 
4581.980590  	93.684633 
4582.945015  	93.670327 
4583.909439  	93.649299 
4584.873864  	93.651731 
4585.838288  	93.594307 
4586.802713  	93.630513 
4587.767137  	93.687537 
4588.731562  	93.711114 
4589.695986  	93.661016 
4590.660411  	93.609860 
4591.624835  	93.688384 
4592.589259  	93.815209 
4593.553684  	93.770954 
4594.518108  	93.597960 
4595.482533  	93.543744 
4596.446957  	93.632619 
4597.411382  	93.596530 
4598.375806  	93.610089 
4599.340231  	93.681032 
4600.304655  	93.644515 
4601.269080  	93.587189 
4602.233504  	93.583255 
4603.197928  	93.609651 
4604.162353  	93.603454 
4605.126777  	93.605833 
4606.091202  	93.656137 
4607.055626  	93.691949 
4608.020051  	93.701291 
4608.984475  	93.681316 
4609.948900  	93.651085 
4610.913324  	93.630369 
4611.877749  	93.633877 
4612.842173  	93.610636 
4613.806598  	93.692807 
4614.771022  	93.761442 
4615.735446  	93.719800 
4616.699871  	93.619560 
4617.664295  	93.573758 
4618.628720  	93.574173 
4619.593144  	93.515737 
4620.557569  	93.592342 
4621.521993  	93.604433 
4622.486418  	93.581382 
4623.450842  	93.600492 
4624.415267  	93.602067 
4625.379691  	93.663382 
4626.344115  	93.689355 
4627.308540  	93.639325 
4628.272964  	93.606561 
4629.237389  	93.577994 
4630.201813  	93.567152 
4631.166238  	93.682335 
4632.130662  	93.692587 
4633.095087  	93.578492 
4634.059511  	93.593177 
4635.023936  	93.727374 
4635.988360  	93.765337 
4636.952784  	93.699639 
4637.917209  	93.753388 
4638.881633  	93.758000 
4639.846058  	93.695131 
4640.810482  	93.718149 
4641.774907  	93.701022 
4642.739331  	93.572334 
4643.703756  	93.535052 
4644.668180  	93.575629 
4645.632605  	93.585687 
4646.597029  	93.621952 
4647.561453  	93.618644 
4648.525878  	93.656160 
4649.490302  	93.724035 
4650.454727  	93.736076 
4651.419151  	93.722901 
4652.383576  	93.660312 
4653.348000  	93.652622 
4654.312425  	93.708222 
4655.276849  	93.770122 
4656.241274  	93.722871 
4657.205698  	93.634594 
4658.170122  	93.630366 
4659.134547  	93.629639 
4660.098971  	93.591454 
4661.063396  	93.649771 
4662.027820  	93.721784 
4662.992245  	93.685350 
4663.956669  	93.660448 
4664.921094  	93.690238 
4665.885518  	93.701514 
4666.849943  	93.692927 
4667.814367  	93.643230 
4668.778791  	93.665263 
4669.743216  	93.661389 
4670.707640  	93.664105 
4671.672065  	93.681961 
4672.636489  	93.692312 
4673.600914  	93.701470 
4674.565338  	93.719365 
4675.529763  	93.677025 
4676.494187  	93.630061 
4677.458612  	93.663594 
4678.423036  	93.713422 
4679.387461  	93.758940 
4680.351885  	93.726578 
4681.316309  	93.633994 
4682.280734  	93.592723 
4683.245158  	93.563234 
4684.209583  	93.603374 
4685.174007  	93.646240 
4686.138432  	93.670078 
4687.102856  	93.693245 
4688.067281  	93.629616 
4689.031705  	93.493556 
4689.996130  	93.557738 
4690.960554  	93.660038 
4691.924978  	93.615201 
4692.889403  	93.606096 
4693.853827  	93.630415 
4694.818252  	93.625038 
4695.782676  	93.670692 
4696.747101  	93.622376 
4697.711525  	93.642531 
4698.675950  	93.719630 
4699.640374  	93.667987 