##TITLE=No Description
##DATA TYPE=INFRARED SPECTRUM
##XUNITS=1/CM
##YUNITS=%T
400.236149  	91.270977 
401.200574  	81.352349 
402.164998  	73.907034 
403.129423  	79.501236 
404.093847  	100.237222 
405.058272  	90.732262 
406.022696  	75.786705 
406.987120  	67.485330 
407.951545  	80.263113 
408.915969  	87.951864 
409.880394  	82.045163 
410.844818  	86.165357 
411.809243  	98.042746 
412.773667  	95.244882 
413.738092  	89.202142 
414.702516  	80.352225 
415.666941  	79.057676 
416.631365  	83.638762 
417.595789  	86.956604 
418.560214  	88.620400 
419.524638  	83.467688 
420.489063  	84.279501 
421.453487  	84.787203 
422.417912  	85.151184 
423.382336  	83.524069 
424.346761  	83.046951 
425.311185  	83.008716 
426.275610  	83.339937 
427.240034  	82.729836 
428.204458  	83.960056 
429.168883  	85.086615 
430.133307  	85.437173 
431.097732  	83.128681 
432.062156  	80.726406 
433.026581  	79.999317 
433.991005  	80.355545 
434.955430  	81.540955 
435.919854  	82.664334 
436.884279  	81.867464 
437.848703  	80.429530 
438.813127  	81.100872 
439.777552  	81.230879 
440.741976  	81.472713 
441.706401  	81.736384 
442.670825  	80.593307 
443.635250  	79.594894 
444.599674  	80.520863 
445.564099  	81.213006 
446.528523  	80.656989 
447.492948  	80.566100 
448.457372  	80.983018 
449.421796  	79.637495 
450.386221  	78.552043 
451.350645  	78.536751 
452.315070  	78.381511 
453.279494  	78.008298 
454.243919  	78.547985 
455.208343  	78.519667 
456.172768  	77.986512 
457.137192  	76.940465 
458.101617  	76.922224 
459.066041  	78.057630 
460.030466  	78.431238 
460.994890  	78.556515 
461.959314  	77.970507 
462.923739  	77.116667 
463.888163  	76.961098 
464.852588  	77.632534 
465.817012  	77.834035 
466.781437  	77.864623 
467.745861  	77.473373 
468.710286  	76.778777 
469.674710  	75.812283 
470.639135  	75.525101 
471.603559  	75.904746 
472.567983  	76.700292 
473.532408  	76.659974 
474.496832  	75.887067 
475.461257  	75.476030 
476.425681  	75.248821 
477.390106  	76.163540 
478.354530  	76.750567 
479.318955  	75.571168 
480.283379  	74.856202 
481.247804  	75.425321 
482.212228  	75.128584 
483.176652  	75.210897 
484.141077  	75.494464 
485.105501  	75.134079 
486.069926  	74.896788 
487.034350  	75.382495 
487.998775  	75.203368 
488.963199  	75.095508 
489.927624  	75.320648 
490.892048  	74.579213 
491.856473  	73.958207 
492.820897  	74.799042 
493.785321  	75.315181 
494.749746  	74.632220 
495.714170  	74.336186 
496.678595  	74.162427 
497.643019  	74.338191 
498.607444  	74.285125 
499.571868  	73.619722 
500.536293  	73.297675 
501.500717  	72.948129 
502.465142  	72.552712 
503.429566  	72.802992 
504.393990  	72.895654 
505.358415  	73.178012 
506.322839  	72.792849 
507.287264  	72.481781 
508.251688  	72.962426 
509.216113  	73.455765 
510.180537  	72.835677 
511.144962  	72.570844 
512.109386  	72.583347 
513.073811  	72.609607 
514.038235  	72.524706 
515.002660  	72.052351 
515.967084  	71.464558 
516.931508  	70.679065 
517.895933  	70.823042 
518.860357  	71.002475 
519.824782  	70.728634 
520.789206  	71.067515 
521.753631  	71.579843 
522.718055  	71.423306 
523.682480  	71.089600 
524.646904  	70.670542 
525.611329  	70.103034 
526.575753  	69.947460 
527.540177  	70.215989 
528.504602  	70.295823 
529.469026  	69.984575 
530.433451  	69.575901 
531.397875  	69.438134 
532.362300  	69.316813 
533.326724  	69.379811 
534.291149  	69.348520 
535.255573  	69.132715 
536.219998  	69.217736 
537.184422  	70.167620 
538.148846  	70.557390 
539.113271  	70.761251 
540.077695  	70.944020 
541.042120  	71.410216 
542.006544  	71.702521 
542.970969  	71.716460 
543.935393  	71.759747 
544.899818  	71.525622 
545.864242  	71.311734 
546.828667  	71.208915 
547.793091  	70.816792 
548.757515  	70.631398 
549.721940  	70.933612 
550.686364  	71.025842 
551.650789  	71.115658 
552.615213  	70.672346 
553.579638  	70.324657 
554.544062  	70.152981 
555.508487  	69.987417 
556.472911  	69.618347 
557.437336  	69.195128 
558.401760  	68.902427 
559.366184  	68.903185 
560.330609  	68.463160 
561.295033  	68.001124 
562.259458  	67.790004 
563.223882  	67.269689 
564.188307  	66.562979 
565.152731  	66.385714 
566.117156  	65.883812 
567.081580  	65.254398 
568.046005  	64.727921 
569.010429  	64.012236 
569.974853  	63.288841 
570.939278  	62.816146 
571.903702  	62.208500 
572.868127  	61.766447 
573.832551  	61.358522 
574.796976  	60.906114 
575.761400  	60.171596 
576.725825  	60.090306 
577.690249  	60.290255 
578.654674  	60.563623 
579.619098  	60.923918 
580.583523  	61.344117 
581.547947  	62.398903 
582.512371  	63.509240 
583.476796  	64.298892 
584.441220  	65.141989 
585.405645  	65.973643 
586.370069  	67.061602 
587.334494  	67.786266 
588.298918  	68.381444 
589.263343  	69.026545 
590.227767  	69.554733 
591.192192  	69.645847 
592.156616  	69.887285 
593.121040  	70.485066 
594.085465  	70.989095 
595.049889  	71.261906 
596.014314  	71.409763 
596.978738  	71.659614 
597.943163  	71.956780 
598.907587  	72.009454 
599.872012  	71.935032 
600.836436  	72.156891 
601.800861  	72.531536 
602.765285  	72.623889 
603.729709  	72.672216 
604.694134  	72.807112 
605.658558  	72.919673 
606.622983  	72.970188 
607.587407  	73.019428 
608.551832  	73.072367 
609.516256  	73.233026 
610.480681  	73.193619 
611.445105  	73.107849 
612.409530  	73.274940 
613.373954  	73.433931 
614.338378  	73.200127 
615.302803  	73.002765 
616.267227  	72.969897 
617.231652  	73.358452 
618.196076  	73.440840 
619.160501  	73.324380 
620.124925  	73.037082 
621.089350  	73.145178 
622.053774  	73.250061 
623.018199  	73.543165 
623.982623  	73.494509 
624.947047  	73.312522 
625.911472  	73.084177 
626.875896  	73.078059 
627.840321  	73.120240 
628.804745  	73.261648 
629.769170  	73.211562 
630.733594  	73.042846 
631.698019  	73.061675 
632.662443  	73.074506 
633.626868  	72.911321 
634.591292  	72.798802 
635.555717  	72.589559 
636.520141  	72.664975 
637.484565  	72.755124 
638.448990  	72.895371 
639.413414  	72.788171 
640.377839  	72.677917 
641.342263  	72.485930 
642.306688  	72.109238 
643.271112  	72.098551 
644.235537  	72.121476 
645.199961  	71.990499 
646.164386  	71.929476 
647.128810  	71.700339 
648.093234  	71.377169 
649.057659  	71.084750 
650.022083  	71.133633 
650.986508  	70.961431 
651.950932  	70.668031 
652.915357  	70.361486 
653.879781  	70.108582 
654.844206  	70.036388 
655.808630  	69.823742 
656.773055  	69.429456 
657.737479  	69.318630 
658.701903  	68.891787 
659.666328  	68.511225 
660.630752  	68.303068 
661.595177  	68.131389 
662.559601  	67.811671 
663.524026  	67.534493 
664.488450  	67.323776 
665.452875  	67.071238 
666.417299  	66.817948 
667.381724  	66.631801 
668.346148  	65.722915 
669.310572  	65.429508 
670.274997  	65.398685 
671.239421  	65.332396 
672.203846  	65.181086 
673.168270  	64.866700 
674.132695  	64.416991 
675.097119  	64.136939 
676.061544  	63.935503 
677.025968  	63.741914 
677.990393  	63.632250 
678.954817  	63.596297 
679.919241  	63.475927 
680.883666  	63.379930 
681.848090  	63.287182 
682.812515  	63.207841 
683.776939  	63.121136 
684.741364  	63.082900 
685.705788  	63.085365 
686.670213  	63.331957 
687.634637  	63.537989 
688.599062  	63.790146 
689.563486  	64.085468 
690.527910  	64.528659 
691.492335  	64.935610 
692.456759  	65.389102 
693.421184  	65.821878 
694.385608  	66.362486 
695.350033  	66.879261 
696.314457  	67.349137 
697.278882  	67.807151 
698.243306  	68.230383 
699.207731  	68.650828 
700.172155  	69.165375 
701.136580  	69.459639 
702.101004  	69.751346 
703.065428  	70.055976 
704.029853  	70.340180 
704.994277  	70.719367 
705.958702  	71.089088 
706.923126  	71.298427 
707.887551  	71.590284 
708.851975  	71.943357 
709.816400  	71.975507 
710.780824  	72.016798 
711.745249  	72.203855 
712.709673  	72.384531 
713.674097  	72.447145 
714.638522  	72.545176 
715.602946  	72.692324 
716.567371  	72.743284 
717.531795  	72.828504 
718.496220  	72.844111 
719.460644  	72.749951 
720.425069  	72.800921 
721.389493  	72.958202 
722.353918  	72.970959 
723.318342  	72.992950 
724.282766  	72.970881 
725.247191  	72.910496 
726.211615  	72.846644 
727.176040  	72.815007 
728.140464  	72.675294 
729.104889  	72.606663 
730.069313  	72.786902 
731.033738  	73.328530 
731.998162  	73.983852 
732.962587  	74.762619 
733.927011  	75.480802 
734.891435  	76.146580 
735.855860  	76.811130 
736.820284  	77.549891 
737.784709  	78.277015 
738.749133  	78.875898 
739.713558  	79.392563 
740.677982  	79.871826 
741.642407  	80.181552 
742.606831  	80.427512 
743.571256  	80.637290 
744.535680  	80.832511 
745.500104  	81.094604 
746.464529  	81.189303 
747.428953  	81.177060 
748.393378  	81.362464 
749.357802  	81.394864 
750.322227  	81.444640 
751.286651  	81.562684 
752.251076  	81.696688 
753.215500  	81.892485 
754.179925  	82.014084 
755.144349  	82.071440 
756.108774  	82.192300 
757.073198  	82.305707 
758.037622  	82.447365 
759.002047  	82.533324 
759.966471  	82.558353 
760.930896  	82.606258 
761.895320  	82.794106 
762.859745  	83.031507 
763.824169  	83.217780 
764.788594  	83.306270 
765.753018  	83.434922 
766.717443  	83.519325 
767.681867  	83.598439 
768.646291  	83.633882 
769.610716  	83.788013 
770.575140  	83.974982 
771.539565  	84.097898 
772.503989  	84.158404 
773.468414  	84.256896 
774.432838  	84.394436 
775.397263  	84.555211 
776.361687  	84.606726 
777.326112  	84.760830 
778.290536  	84.853555 
779.254960  	84.932579 
780.219385  	85.029797 
781.183809  	85.335167 
782.148234  	85.378271 
783.112658  	85.477512 
784.077083  	85.421745 
785.041507  	85.395537 
786.005932  	85.667979 
786.970356  	85.658585 
787.934781  	85.534591 
788.899205  	85.596137 
789.863629  	85.762060 
790.828054  	85.843189 
791.792478  	85.794132 
792.756903  	85.743881 
793.721327  	85.830702 
794.685752  	85.788344 
795.650176  	85.786053 
796.614601  	85.883398 
797.579025  	86.043354 
798.543450  	86.066745 
799.507874  	86.133680 
800.472298  	86.372807 
801.436723  	86.562793 
802.401147  	86.664005 
803.365572  	86.779931 
804.329996  	86.972878 
805.294421  	87.099815 
806.258845  	87.103952 
807.223270  	87.237551 
808.187694  	87.374661 
809.152119  	87.425294 
810.116543  	87.446051 
811.080967  	87.491949 
812.045392  	87.572927 
813.009816  	87.622034 
813.974241  	87.687247 
814.938665  	87.828469 
815.903090  	87.980089 
816.867514  	88.047372 
817.831939  	88.150224 
818.796363  	88.263843 
819.760788  	88.373756 
820.725212  	88.472511 
821.689637  	88.456602 
822.654061  	88.489323 
823.618485  	88.593107 
824.582910  	88.668166 
825.547334  	88.664891 
826.511759  	88.761813 
827.476183  	88.898374 
828.440608  	88.943403 
829.405032  	88.848164 
830.369457  	88.900902 
831.333881  	89.081156 
832.298306  	89.152907 
833.262730  	89.127083 
834.227154  	89.158060 
835.191579  	89.181182 
836.156003  	89.195294 
837.120428  	89.224574 
838.084852  	89.187725 
839.049277  	89.229078 
840.013701  	89.353540 
840.978126  	89.345062 
841.942550  	89.467570 
842.906975  	89.551995 
843.871399  	89.531767 
844.835823  	89.501558 
845.800248  	89.593649 
846.764672  	89.646501 
847.729097  	89.687952 
848.693521  	89.612168 
849.657946  	89.602391 
850.622370  	89.634705 
851.586795  	89.641943 
852.551219  	89.638298 
853.515644  	89.720681 
854.480068  	89.793145 
855.444492  	89.791750 
856.408917  	89.810271 
857.373341  	89.873019 
858.337766  	89.910941 
859.302190  	89.927353 
860.266615  	89.914889 
861.231039  	89.924324 
862.195464  	89.902437 
863.159888  	89.889564 
864.124313  	89.947985 
865.088737  	89.950489 
866.053161  	89.938467 
867.017586  	89.945110 
867.982010  	89.959871 
868.946435  	90.023513 
869.910859  	90.062914 
870.875284  	90.017906 
871.839708  	89.999660 
872.804133  	90.023026 
873.768557  	90.002609 
874.732982  	89.943463 
875.697406  	89.938005 
876.661831  	89.868574 
877.626255  	89.834732 
878.590679  	89.884455 
879.555104  	89.915472 
880.519528  	89.890699 
881.483953  	89.819038 
882.448377  	89.791117 
883.412802  	89.834376 
884.377226  	89.817151 
885.341651  	89.774639 
886.306075  	89.794335 
887.270500  	89.813072 
888.234924  	89.803181 
889.199348  	89.719034 
890.163773  	89.668175 
891.128197  	89.693545 
892.092622  	89.638092 
893.057046  	89.486118 
894.021471  	89.436000 
894.985895  	89.430355 
895.950320  	89.302396 
896.914744  	89.165165 
897.879169  	89.052480 
898.843593  	88.894760 
899.808017  	88.681139 
900.772442  	88.394467 
901.736866  	88.057917 
902.701291  	87.730075 
903.665715  	87.388467 
904.630140  	87.080183 
905.594564  	86.917617 
906.558989  	86.969302 
907.523413  	87.199235 
908.487838  	87.452920 
909.452262  	87.758543 
910.416686  	88.036351 
911.381111  	88.201059 
912.345535  	88.223262 
913.309960  	88.204973 
914.274384  	88.160011 
915.238809  	88.051405 
916.203233  	87.915786 
917.167658  	87.817806 
918.132082  	87.657329 
919.096507  	87.510591 
920.060931  	87.404823 
921.025355  	87.223447 
921.989780  	86.994216 
922.954204  	86.739952 
923.918629  	86.449401 
924.883053  	86.185995 
925.847478  	85.839160 
926.811902  	85.386762 
927.776327  	84.896268 
928.740751  	84.329110 
929.705176  	83.676082 
930.669600  	82.930812 
931.634024  	82.158267 
932.598449  	81.469107 
933.562873  	80.940085 
934.527298  	80.700313 
935.491722  	80.890542 
936.456147  	81.544298 
937.420571  	82.479931 
938.384996  	83.461431 
939.349420  	84.413831 
940.313845  	85.294058 
941.278269  	86.027674 
942.242694  	86.611315 
943.207118  	87.079227 
944.171542  	87.469881 
945.135967  	87.781408 
946.100391  	88.010952 
947.064816  	88.160798 
948.029240  	88.293358 
948.993665  	88.407964 
949.958089  	88.541400 
950.922514  	88.684662 
951.886938  	88.833956 
952.851363  	88.896003 
953.815787  	88.866317 
954.780211  	88.926440 
955.744636  	89.083955 
956.709060  	89.155600 
957.673485  	89.202766 
958.637909  	89.228624 
959.602334  	89.238899 
960.566758  	89.286523 
961.531183  	89.309995 
962.495607  	89.325675 
963.460032  	89.368464 
964.424456  	89.414169 
965.388880  	89.394808 
966.353305  	89.415930 
967.317729  	89.537154 
968.282154  	89.559302 
969.246578  	89.512517 
970.211003  	89.517850 
971.175427  	89.512499 
972.139852  	89.448898 
973.104276  	89.427909 
974.068701  	89.466089 
975.033125  	89.438963 
975.997549  	89.372404 
976.961974  	89.327095 
977.926398  	89.324904 
978.890823  	89.317998 
979.855247  	89.263661 
980.819672  	89.187269 
981.784096  	89.153068 
982.748521  	89.099742 
983.712945  	88.992324 
984.677370  	88.865188 
985.641794  	88.742235 
986.606218  	88.654985 
987.570643  	88.581943 
988.535067  	88.543059 
989.499492  	88.587436 
990.463916  	88.603624 
991.428341  	88.585535 
992.392765  	88.537611 
993.357190  	88.462211 
994.321614  	88.395029 
995.286039  	88.318771 
996.250463  	88.259358 
997.214888  	88.251534 
998.179312  	88.221672 
999.143736  	88.147596 
1000.108161  	88.089702 
1001.072585  	88.068838 
1002.037010  	88.062955 
1003.001434  	87.979024 
1003.965859  	87.891171 
1004.930283  	87.822629 
1005.894708  	87.701841 
1006.859132  	87.609464 
1007.823557  	87.536418 
1008.787981  	87.472209 
1009.752405  	87.392425 
1010.716830  	87.263774 
1011.681254  	87.159484 
1012.645679  	87.137723 
1013.610103  	87.099253 
1014.574528  	87.037158 
1015.538952  	87.001756 
1016.503377  	87.023315 
1017.467801  	87.033612 
1018.432226  	87.015846 
1019.396650  	87.010322 
1020.361074  	87.008573 
1021.325499  	87.012545 
1022.289923  	86.974662 
1023.254348  	86.915704 
1024.218772  	86.836213 
1025.183197  	86.748791 
1026.147621  	86.678968 
1027.112046  	86.611002 
1028.076470  	86.544581 
1029.040895  	86.480058 
1030.005319  	86.422196 
1030.969743  	86.403791 
1031.934168  	86.374799 
1032.898592  	86.288117 
1033.863017  	86.174888 
1034.827441  	86.090118 
1035.791866  	86.011806 
1036.756290  	85.933916 
1037.720715  	85.866051 
1038.685139  	85.797177 
1039.649564  	85.782010 
1040.613988  	85.773859 
1041.578412  	85.752469 
1042.542837  	85.756033 
1043.507261  	85.863228 
1044.471686  	85.945847 
1045.436110  	85.973538 
1046.400535  	86.069922 
1047.364959  	86.168624 
1048.329384  	86.219013 
1049.293808  	86.250980 
1050.258233  	86.325200 
1051.222657  	86.382589 
1052.187081  	86.392593 
1053.151506  	86.367390 
1054.115930  	86.369962 
1055.080355  	86.381707 
1056.044779  	86.335529 
1057.009204  	86.268709 
1057.973628  	86.226280 
1058.938053  	86.202990 
1059.902477  	86.108226 
1060.866902  	85.949770 
1061.831326  	85.913959 
1062.795751  	85.955731 
1063.760175  	85.886680 
1064.724599  	85.801456 
1065.689024  	85.843218 
1066.653448  	85.962167 
1067.617873  	86.067432 
1068.582297  	86.172913 
1069.546722  	86.349057 
1070.511146  	86.570212 
1071.475571  	86.720306 
1072.439995  	86.800231 
1073.404420  	86.875438 
1074.368844  	86.925080 
1075.333268  	86.929404 
1076.297693  	86.935096 
1077.262117  	86.904460 
1078.226542  	86.906731 
1079.190966  	86.906853 
1080.155391  	86.882344 
1081.119815  	86.863273 
1082.084240  	86.835859 
1083.048664  	86.791727 
1084.013089  	86.759308 
1084.977513  	86.716031 
1085.941937  	86.602406 
1086.906362  	86.468550 
1087.870786  	86.390477 
1088.835211  	86.322166 
1089.799635  	86.218358 
1090.764060  	86.113396 
1091.728484  	86.107051 
1092.692909  	86.105130 
1093.657333  	86.031134 
1094.621758  	85.921422 
1095.586182  	85.895295 
1096.550606  	85.897835 
1097.515031  	85.885493 
1098.479455  	85.879556 
1099.443880  	85.896722 
1100.408304  	85.947890 
1101.372729  	85.958613 
1102.337153  	85.958683 
1103.301578  	85.986784 
1104.266002  	86.022372 
1105.230427  	86.040649 
1106.194851  	86.006967 
1107.159275  	86.006035 
1108.123700  	86.044037 
1109.088124  	86.070841 
1110.052549  	86.057987 
1111.016973  	86.065509 
1111.981398  	86.071628 
1112.945822  	86.055066 
1113.910247  	86.074649 
1114.874671  	86.076953 
1115.839096  	86.039365 
1116.803520  	86.009323 
1117.767945  	85.979371 
1118.732369  	85.963188 
1119.696793  	85.922346 
1120.661218  	85.844515 
1121.625642  	85.721780 
1122.590067  	85.639313 
1123.554491  	85.581367 
1124.518916  	85.460417 
1125.483340  	85.364471 
1126.447765  	85.281321 
1127.412189  	85.143173 
1128.376614  	85.000445 
1129.341038  	84.871296 
1130.305462  	84.706930 
1131.269887  	84.440119 
1132.234311  	84.096887 
1133.198736  	83.705536 
1134.163160  	83.250381 
1135.127585  	82.717272 
1136.092009  	82.186148 
1137.056434  	81.724045 
1138.020858  	81.396956 
1138.985283  	81.232097 
1139.949707  	81.201297 
1140.914131  	81.279704 
1141.878556  	81.386631 
1142.842980  	81.434787 
1143.807405  	81.451011 
1144.771829  	81.465336 
1145.736254  	81.452743 
1146.700678  	81.468009 
1147.665103  	81.511460 
1148.629527  	81.598197 
1149.593952  	81.740958 
1150.558376  	81.919703 
1151.522800  	82.125507 
1152.487225  	82.354946 
1153.451649  	82.608762 
1154.416074  	82.845781 
1155.380498  	83.004863 
1156.344923  	83.171276 
1157.309347  	83.325831 
1158.273772  	83.412428 
1159.238196  	83.416058 
1160.202621  	83.444460 
1161.167045  	83.442505 
1162.131469  	83.359270 
1163.095894  	83.225341 
1164.060318  	83.066037 
1165.024743  	82.893873 
1165.989167  	82.698854 
1166.953592  	82.505011 
1167.918016  	82.269188 
1168.882441  	81.970901 
1169.846865  	81.587169 
1170.811290  	81.150707 
1171.775714  	80.697268 
1172.740138  	80.182709 
1173.704563  	79.562490 
1174.668987  	78.908968 
1175.633412  	78.355442 
1176.597836  	77.841859 
1177.562261  	77.366584 
1178.526685  	77.030853 
1179.491110  	76.883853 
1180.455534  	76.901895 
1181.419959  	77.081932 
1182.384383  	77.290061 
1183.348808  	77.513554 
1184.313232  	77.749252 
1185.277656  	77.905202 
1186.242081  	77.975207 
1187.206505  	77.952963 
1188.170930  	77.832144 
1189.135354  	77.541877 
1190.099779  	77.088127 
1191.064203  	76.564731 
1192.028628  	75.899452 
1192.993052  	75.047448 
1193.957477  	74.169884 
1194.921901  	73.359106 
1195.886325  	72.685602 
1196.850750  	72.267429 
1197.815174  	72.289999 
1198.779599  	72.788018 
1199.744023  	73.675448 
1200.708448  	74.757834 
1201.672872  	75.914178 
1202.637297  	77.036053 
1203.601721  	78.035949 
1204.566146  	78.856461 
1205.530570  	79.540202 
1206.494994  	80.141502 
1207.459419  	80.616745 
1208.423843  	80.941953 
1209.388268  	81.168096 
1210.352692  	81.323301 
1211.317117  	81.365969 
1212.281541  	81.375458 
1213.245966  	81.416484 
1214.210390  	81.435130 
1215.174815  	81.410957 
1216.139239  	81.352499 
1217.103663  	81.274685 
1218.068088  	81.164998 
1219.032512  	80.955819 
1219.996937  	80.672589 
1220.961361  	80.326380 
1221.925786  	79.903933 
1222.890210  	79.458036 
1223.854635  	79.111709 
1224.819059  	78.993333 
1225.783484  	79.165186 
1226.747908  	79.431499 
1227.712332  	79.606503 
1228.676757  	79.657929 
1229.641181  	79.580564 
1230.605606  	79.421697 
1231.570030  	79.214111 
1232.534455  	79.017031 
1233.498879  	78.835321 
1234.463304  	78.645380 
1235.427728  	78.461989 
1236.392153  	78.330837 
1237.356577  	78.210629 
1238.321002  	78.085702 
1239.285426  	77.981387 
1240.249850  	77.889471 
1241.214275  	77.771634 
1242.178699  	77.620942 
1243.143124  	77.459704 
1244.107548  	77.321275 
1245.071973  	77.252779 
1246.036397  	77.122079 
1247.000822  	76.931067 
1247.965246  	76.780067 
1248.929671  	76.638112 
1249.894095  	76.474792 
1250.858519  	76.345233 
1251.822944  	76.190245 
1252.787368  	75.986168 
1253.751793  	75.800233 
1254.716217  	75.606648 
1255.680642  	75.383321 
1256.645066  	75.169853 
1257.609491  	74.907192 
1258.573915  	74.610254 
1259.538340  	74.263273 
1260.502764  	73.904352 
1261.467188  	73.678552 
1262.431613  	73.424641 
1263.396037  	73.132187 
1264.360462  	72.839996 
1265.324886  	72.543472 
1266.289311  	72.253209 
1267.253735  	72.022989 
1268.218160  	71.763133 
1269.182584  	71.463580 
1270.147009  	71.199429 
1271.111433  	71.021680 
1272.075857  	70.847995 
1273.040282  	70.832489 
1274.004706  	70.878277 
1274.969131  	70.998460 
1275.933555  	71.211224 
1276.897980  	71.567019 
1277.862404  	72.080307 
1278.826829  	72.698257 
1279.791253  	73.356503 
1280.755678  	74.068486 
1281.720102  	74.800544 
1282.684526  	75.490393 
1283.648951  	76.095133 
1284.613375  	76.639189 
1285.577800  	77.170202 
1286.542224  	77.605855 
1287.506649  	77.850199 
1288.471073  	78.149521 
1289.435498  	78.565648 
1290.399922  	78.842434 
1291.364347  	79.067334 
1292.328771  	79.276219 
1293.293195  	79.436344 
1294.257620  	79.573733 
1295.222044  	79.629608 
1296.186469  	79.597746 
1297.150893  	79.642452 
1298.115318  	79.786000 
1299.079742  	79.772042 
1300.044167  	79.741358 
1301.008591  	79.743184 
1301.973016  	79.770891 
1302.937440  	79.813694 
1303.901865  	79.892949 
1304.866289  	79.990481 
1305.830713  	80.092399 
1306.795138  	80.206512 
1307.759562  	80.298061 
1308.723987  	80.448708 
1309.688411  	80.688485 
1310.652836  	80.817581 
1311.617260  	80.811895 
1312.581685  	80.574109 
1313.546109  	80.685975 
1314.510534  	80.910345 
1315.474958  	81.129430 
1316.439382  	81.065545 
1317.403807  	80.947948 
1318.368231  	80.921662 
1319.332656  	80.796626 
1320.297080  	81.037335 
1321.261505  	81.182402 
1322.225929  	81.261132 
1323.190354  	81.170348 
1324.154778  	81.102163 
1325.119203  	81.043402 
1326.083627  	80.954514 
1327.048051  	80.854365 
1328.012476  	80.798145 
1328.976900  	80.725442 
1329.941325  	80.669465 
1330.905749  	80.696137 
1331.870174  	80.752898 
1332.834598  	80.727555 
1333.799023  	80.673050 
1334.763447  	80.589497 
1335.727872  	80.262148 
1336.692296  	79.731755 
1337.656720  	79.581251 
1338.621145  	78.903478 
1339.585569  	78.183899 
1340.549994  	78.320979 
1341.514418  	79.262524 
1342.478843  	79.653448 
1343.443267  	79.571849 
1344.407692  	79.452031 
1345.372116  	79.318402 
1346.336541  	79.151953 
1347.300965  	78.980724 
1348.265389  	78.761584 
1349.229814  	78.454910 
1350.194238  	78.301604 
1351.158663  	78.166286 
1352.123087  	77.931767 
1353.087512  	77.726755 
1354.051936  	77.386781 
1355.016361  	76.942558 
1355.980785  	76.909366 
1356.945210  	76.775269 
1357.909634  	76.459386 
1358.874059  	76.275434 
1359.838483  	76.076241 
1360.802907  	75.343292 
1361.767332  	74.752610 
1362.731756  	73.857394 
1363.696181  	73.780864 
1364.660605  	74.672278 
1365.625030  	74.726817 
1366.589454  	74.525785 
1367.553879  	74.105227 
1368.518303  	73.509820 
1369.482728  	73.454153 
1370.447152  	73.741772 
1371.411576  	73.785752 
1372.376001  	73.767753 
1373.340425  	73.368759 
1374.304850  	73.249797 
1375.269274  	74.059839 
1376.233699  	75.159080 
1377.198123  	75.656751 
1378.162548  	75.841162 
1379.126972  	76.283829 
1380.091397  	76.751778 
1381.055821  	77.219015 
1382.020245  	77.492384 
1382.984670  	77.726773 
1383.949094  	77.933991 
1384.913519  	78.114792 
1385.877943  	77.911765 
1386.842368  	77.183829 
1387.806792  	77.264361 
1388.771217  	78.445254 
1389.735641  	79.004684 
1390.700066  	79.203488 
1391.664490  	79.471374 
1392.628914  	79.756532 
1393.593339  	79.413952 
1394.557763  	78.546000 
1395.522188  	78.654310 
1396.486612  	79.462052 
1397.451037  	79.576503 
1398.415461  	79.085013 
1399.379886  	79.047870 
1400.344310  	79.877143 
1401.308735  	80.236035 
1402.273159  	80.115092 
1403.237583  	79.847433 
1404.202008  	79.096199 
1405.166432  	78.176090 
1406.130857  	78.393143 
1407.095281  	78.335961 
1408.059706  	77.719803 
1409.024130  	76.884000 
1409.988555  	75.739272 
1410.952979  	74.467742 
1411.917404  	73.003307 
1412.881828  	71.715802 
1413.846252  	70.300016 
1414.810677  	68.890037 
1415.775101  	67.726370 
1416.739526  	67.251978 
1417.703950  	67.697844 
1418.668375  	68.255412 
1419.632799  	69.805651 
1420.597224  	72.773036 
1421.561648  	73.911616 
1422.526073  	74.554161 
1423.490497  	74.250298 
1424.454922  	74.592004 
1425.419346  	75.853398 
1426.383770  	76.365724 
1427.348195  	76.434287 
1428.312619  	76.221713 
1429.277044  	75.727913 
1430.241468  	75.342383 
1431.205893  	75.619464 
1432.170317  	75.418489 
1433.134742  	75.029623 
1434.099166  	75.022375 
1435.063591  	74.676511 
1436.028015  	73.363305 
1436.992439  	72.721800 
1437.956864  	74.142653 
1438.921288  	74.694390 
1439.885713  	74.851115 
1440.850137  	74.945695 
1441.814562  	75.029842 
1442.778986  	75.118290 
1443.743411  	75.158704 
1444.707835  	75.184645 
1445.672260  	75.164143 
1446.636684  	74.964456 
1447.601108  	74.197060 
1448.565533  	74.143690 
1449.529957  	74.721159 
1450.494382  	74.621983 
1451.458806  	73.942458 
1452.423231  	73.303614 
1453.387655  	73.304260 
1454.352080  	72.596551 
1455.316504  	71.274648 
1456.280929  	70.057158 
1457.245353  	69.079444 
1458.209777  	68.811032 
1459.174202  	69.020312 
1460.138626  	69.474491 
1461.103051  	69.317694 
1462.067475  	68.567068 
1463.031900  	67.805542 
1463.996324  	66.838444 
1464.960749  	66.237434 
1465.925173  	67.571834 
1466.889598  	68.895369 
1467.854022  	70.046768 
1468.818446  	71.011949 
1469.782871  	71.354397 
1470.747295  	70.758124 
1471.711720  	68.908825 
1472.676144  	67.019882 
1473.640569  	66.760253 
1474.604993  	67.505098 
1475.569418  	67.461180 
1476.533842  	67.830845 
1477.498267  	69.869497 
1478.462691  	71.387747 
1479.427116  	72.710413 
1480.391540  	73.778138 
1481.355964  	74.613064 
1482.320389  	76.208348 
1483.284813  	77.373262 
1484.249238  	78.058146 
1485.213662  	78.242757 
1486.178087  	77.912087 
1487.142511  	77.408093 
1488.106936  	77.479036 
1489.071360  	76.507014 
1490.035785  	75.121378 
1491.000209  	76.036094 
1491.964633  	77.241944 
1492.929058  	77.497708 
1493.893482  	77.213067 
1494.857907  	76.570441 
1495.822331  	75.336380 
1496.786756  	74.645004 
1497.751180  	74.790887 
1498.715605  	74.051689 
1499.680029  	73.945534 
1500.644454  	73.897800 
1501.608878  	73.194798 
1502.573302  	72.844061 
1503.537727  	72.604081 
1504.502151  	71.658666 
1505.466576  	69.748967 
1506.431000  	66.251725 
1507.395425  	64.588810 
1508.359849  	65.467833 
1509.324274  	66.073333 
1510.288698  	66.250546 
1511.253123  	66.410508 
1512.217547  	65.529511 
1513.181971  	65.202239 
1514.146396  	64.716836 
1515.110820  	63.171312 
1516.075245  	61.560470 
1517.039669  	59.771679 
1518.004094  	60.023307 
1518.968518  	60.088448 
1519.932943  	58.625610 
1520.897367  	55.971575 
1521.861792  	55.251157 
1522.826216  	55.261687 
1523.790640  	55.132027 
1524.755065  	54.072999 
1525.719489  	52.875549 
1526.683914  	52.354799 
1527.648338  	51.415142 
1528.612763  	50.939679 
1529.577187  	50.983279 
1530.541612  	50.655828 
1531.506036  	49.872224 
1532.470461  	49.284025 
1533.434885  	48.653432 
1534.399309  	49.406225 
1535.363734  	50.245844 
1536.328158  	50.906976 
1537.292583  	51.366660 
1538.257007  	50.895214 
1539.221432  	49.667490 
1540.185856  	51.105733 
1541.150281  	52.567057 
1542.114705  	53.150154 
1543.079130  	54.436487 
1544.043554  	54.938271 
1545.007979  	55.338532 
1545.972403  	57.243362 
1546.936827  	58.776147 
1547.901252  	59.531052 
1548.865676  	59.732007 
1549.830101  	59.184016 
1550.794525  	60.571162 
1551.758950  	62.043053 
1552.723374  	62.539651 
1553.687799  	62.271141 
1554.652223  	62.485859 
1555.616648  	63.944926 
1556.581072  	64.246786 
1557.545496  	63.407117 
1558.509921  	61.332729 
1559.474345  	61.439968 
1560.438770  	65.037266 
1561.403194  	67.537224 
1562.367619  	68.555353 
1563.332043  	69.249336 
1564.296468  	69.429270 
1565.260892  	69.887045 
1566.225317  	71.030520 
1567.189741  	71.708182 
1568.154165  	71.869051 
1569.118590  	71.145465 
1570.083014  	71.981616 
1571.047439  	73.717996 
1572.011863  	74.446845 
1572.976288  	74.954621 
1573.940712  	75.422283 
1574.905137  	75.385531 
1575.869561  	74.737538 
1576.833986  	75.133297 
1577.798410  	76.327642 
1578.762834  	77.133938 
1579.727259  	77.657407 
1580.691683  	77.987706 
1581.656108  	78.229620 
1582.620532  	78.332130 
1583.584957  	78.468940 
1584.549381  	78.588464 
1585.513806  	78.686500 
1586.478230  	78.688675 
1587.442655  	78.677305 
1588.407079  	78.579085 
1589.371503  	78.355820 
1590.335928  	78.111661 
1591.300352  	77.970030 
1592.264777  	77.712374 
1593.229201  	77.434084 
1594.193626  	76.812326 
1595.158050  	76.370332 
1596.122475  	76.005883 
1597.086899  	75.604926 
1598.051324  	75.089042 
1599.015748  	74.453694 
1599.980173  	73.689700 
1600.944597  	72.809576 
1601.909021  	71.843520 
1602.873446  	70.797176 
1603.837870  	69.835478 
1604.802295  	69.086601 
1605.766719  	68.069041 
1606.731144  	66.911019 
1607.695568  	65.876827 
1608.659993  	65.056742 
1609.624417  	63.911952 
1610.588842  	63.209357 
1611.553266  	62.293985 
1612.517690  	61.201459 
1613.482115  	60.002025 
1614.446539  	58.814539 
1615.410964  	57.297264 
1616.375388  	55.470384 
1617.339813  	53.962314 
1618.304237  	53.691920 
1619.268662  	52.905678 
1620.233086  	52.051674 
1621.197511  	51.128902 
1622.161935  	50.132441 
1623.126359  	48.702093 
1624.090784  	48.214210 
1625.055208  	48.102533 
1626.019633  	47.675864 
1626.984057  	46.845783 
1627.948482  	46.059781 
1628.912906  	45.821730 
1629.877331  	45.641493 
1630.841755  	45.360368 
1631.806180  	45.361259 
1632.770604  	45.492666 
1633.735028  	45.651701 
1634.699453  	45.185855 
1635.663877  	45.605154 
1636.628302  	47.442743 
1637.592726  	48.419662 
1638.557151  	50.168127 
1639.521575  	51.523232 
1640.486000  	52.712236 
1641.450424  	54.047627 
1642.414849  	55.289129 
1643.379273  	56.746628 
1644.343697  	57.888359 
1645.308122  	58.291902 
1646.272546  	58.780303 
1647.236971  	60.005154 
1648.201395  	61.628140 
1649.165820  	64.078764 
1650.130244  	65.506120 
1651.094669  	66.259529 
1652.059093  	66.002891 
1653.023518  	64.510678 
1653.987942  	66.498997 
1654.952366  	69.687927 
1655.916791  	71.725625 
1656.881215  	72.901133 
1657.845640  	74.087456 
1658.810064  	75.231268 
1659.774489  	76.191166 
1660.738913  	76.893378 
1661.703338  	77.237204 
1662.667762  	77.567638 
1663.632187  	79.165773 
1664.596611  	80.508995 
1665.561036  	81.469127 
1666.525460  	82.374781 
1667.489884  	82.732784 
1668.454309  	82.166842 
1669.418733  	82.303694 
1670.383158  	83.990586 
1671.347582  	84.347971 
1672.312007  	85.345809 
1673.276431  	86.437826 
1674.240856  	86.515763 
1675.205280  	85.822547 
1676.169705  	86.960499 
1677.134129  	88.189480 
1678.098553  	88.703905 
1679.062978  	88.689604 
1680.027402  	87.815359 
1680.991827  	88.380805 
1681.956251  	89.486463 
1682.920676  	88.813313 
1683.885100  	85.779473 
1684.849525  	86.133144 
1685.813949  	89.792088 
1686.778374  	90.827096 
1687.742798  	90.634776 
1688.707222  	90.391391 
1689.671647  	90.823916 
1690.636071  	91.160693 
1691.600496  	91.900545 
1692.564920  	92.126792 
1693.529345  	92.075533 
1694.493769  	91.620673 
1695.458194  	90.362433 
1696.422618  	89.409425 
1697.387043  	90.471208 
1698.351467  	90.964087 
1699.315891  	90.582440 
1700.280316  	88.151276 
1701.244740  	89.905408 
1702.209165  	91.246150 
1703.173589  	91.604794 
1704.138014  	91.172581 
1705.102438  	90.987923 
1706.066863  	90.963368 
1707.031287  	91.008449 
1707.995712  	91.861159 
1708.960136  	92.239253 
1709.924560  	91.809692 
1710.888985  	91.785261 
1711.853409  	92.193189 
1712.817834  	91.905947 
1713.782258  	91.029007 
1714.746683  	89.988921 
1715.711107  	90.079292 
1716.675532  	90.195054 
1717.639956  	88.781390 
1718.604381  	88.552603 
1719.568805  	90.639213 
1720.533230  	91.524070 
1721.497654  	91.624901 
1722.462078  	91.482136 
1723.426503  	91.044340 
1724.390927  	91.155101 
1725.355352  	91.497515 
1726.319776  	91.492878 
1727.284201  	91.445134 
1728.248625  	91.336961 
1729.213050  	90.622821 
1730.177474  	89.441927 
1731.141899  	90.258091 
1732.106323  	90.504286 
1733.070747  	89.284527 
1734.035172  	87.165486 
1734.999596  	88.782196 
1735.964021  	90.696772 
1736.928445  	91.198865 
1737.892870  	91.228400 
1738.857294  	91.066531 
1739.821719  	90.471172 
1740.786143  	91.285654 
1741.750568  	91.874066 
1742.714992  	91.189404 
1743.679416  	90.331567 
1744.643841  	91.205081 
1745.608265  	91.788573 
1746.572690  	91.583935 
1747.537114  	91.097238 
1748.501539  	90.733931 
1749.465963  	90.947193 
1750.430388  	91.264397 
1751.394812  	90.506151 
1752.359237  	91.722258 
1753.323661  	92.785215 
1754.288085  	93.234182 
1755.252510  	93.233963 
1756.216934  	92.571216 
1757.181359  	91.938070 
1758.145783  	92.569189 
1759.110208  	92.969213 
1760.074632  	93.208450 
1761.039057  	92.617264 
1762.003481  	91.720540 
1762.967906  	92.631888 
1763.932330  	93.318974 
1764.896754  	93.480916 
1765.861179  	93.558753 
1766.825603  	93.343730 
1767.790028  	92.377049 
1768.754452  	92.173106 
1769.718877  	93.148043 
1770.683301  	92.806084 
1771.647726  	91.738868 
1772.612150  	91.299334 
1773.576575  	92.434191 
1774.540999  	93.018312 
1775.505423  	92.673666 
1776.469848  	92.955705 
1777.434272  	93.604381 
1778.398697  	93.415401 
1779.363121  	93.126429 
1780.327546  	92.671224 
1781.291970  	92.623698 
1782.256395  	93.293951 
1783.220819  	93.623245 
1784.185244  	93.255424 
1785.149668  	92.728715 
1786.114093  	93.293650 
1787.078517  	93.679651 
1788.042941  	93.649117 
1789.007366  	93.584805 
1789.971790  	93.262527 
1790.936215  	92.396116 
1791.900639  	91.912396 
1792.865064  	91.860794 
1793.829488  	92.816850 
1794.793913  	93.211581 
1795.758337  	92.569904 
1796.722762  	92.652275 
1797.687186  	93.418098 
1798.651610  	93.432725 
1799.616035  	92.836465 
1800.580459  	92.815885 
1801.544884  	92.584338 
1802.509308  	92.456268 
1803.473733  	93.227934 
1804.438157  	93.684306 
1805.402582  	93.646723 
1806.367006  	93.634132 
1807.331431  	93.384692 
1808.295855  	93.288238 
1809.260279  	93.555414 
1810.224704  	93.124943 
1811.189128  	92.709829 
1812.153553  	93.025151 
1813.117977  	93.405696 
1814.082402  	93.785500 
1815.046826  	93.822114 
1816.011251  	93.854743 
1816.975675  	93.566554 
1817.940100  	93.396302 
1818.904524  	93.685604 
1819.868948  	93.803667 
1820.833373  	93.690882 
1821.797797  	93.620059 
1822.762222  	93.430508 
1823.726646  	93.456493 
1824.691071  	92.845157 
1825.655495  	92.212833 
1826.619920  	93.183560 
1827.584344  	93.556073 
1828.548769  	93.118625 
1829.513193  	92.061226 
1830.477617  	92.117315 
1831.442042  	93.258373 
1832.406466  	93.553180 
1833.370891  	93.403258 
1834.335315  	93.592595 
1835.299740  	93.796293 
1836.264164  	93.560071 
1837.228589  	93.064144 
1838.193013  	93.285408 
1839.157438  	93.667445 
1840.121862  	93.684199 
1841.086287  	93.609734 
1842.050711  	93.260069 
1843.015135  	92.934293 
1843.979560  	92.104172 
1844.943984  	92.043940 
1845.908409  	92.873151 
1846.872833  	93.135196 
1847.837258  	92.728347 
1848.801682  	92.987489 
1849.766107  	93.541837 
1850.730531  	93.779039 
1851.694956  	93.753992 
1852.659380  	93.708623 
1853.623804  	93.768091 
1854.588229  	93.768093 
1855.552653  	93.702951 
1856.517078  	93.655863 
1857.481502  	93.603895 
1858.445927  	93.469872 
1859.410351  	93.383275 
1860.374776  	93.500818 
1861.339200  	93.488268 
1862.303625  	93.551721 
1863.268049  	93.568962 
1864.232473  	93.582680 
1865.196898  	93.594211 
1866.161322  	93.288288 
1867.125747  	92.896275 
1868.090171  	92.412627 
1869.054596  	91.924353 
1870.019020  	92.325977 
1870.983445  	92.968205 
1871.947869  	93.428909 
1872.912294  	93.701975 
1873.876718  	93.773212 
1874.841142  	93.751434 
1875.805567  	93.674669 
1876.769991  	93.613752 
1877.734416  	93.617460 
1878.698840  	93.524175 
1879.663265  	93.467519 
1880.627689  	93.545627 
1881.592114  	93.585484 
1882.556538  	93.594606 
1883.520963  	93.643800 
1884.485387  	93.487833 
1885.449811  	93.405222 
1886.414236  	93.587248 
1887.378660  	93.662030 
1888.343085  	93.426900 
1889.307509  	92.627045 
1890.271934  	92.595377 
1891.236358  	93.360133 
1892.200783  	93.555302 
1893.165207  	93.583274 
1894.129632  	93.399590 
1895.094056  	92.963971 
1896.058480  	93.122574 
1897.022905  	93.548465 
1897.987329  	93.498813 
1898.951754  	93.479853 
1899.916178  	93.595694 
1900.880603  	93.679865 
1901.845027  	93.523541 
1902.809452  	93.544325 
1903.773876  	93.556599 
1904.738301  	93.574047 
1905.702725  	93.498720 
1906.667150  	93.462630 
1907.631574  	93.243571 
1908.595998  	93.172974 
1909.560423  	93.051554 
1910.524847  	93.053352 
1911.489272  	93.464791 
1912.453696  	93.599323 
1913.418121  	93.617219 
1914.382545  	93.634451 
1915.346970  	93.614300 
1916.311394  	93.581406 
1917.275819  	93.114780 
1918.240243  	92.419049 
1919.204667  	93.051116 
1920.169092  	93.467000 
1921.133516  	93.419167 
1922.097941  	92.912006 
1923.062365  	92.289138 
1924.026790  	93.102454 
1924.991214  	93.697688 
1925.955639  	93.570918 
1926.920063  	93.528084 
1927.884488  	93.677699 
1928.848912  	93.740142 
1929.813336  	93.724891 
1930.777761  	93.725121 
1931.742185  	93.648465 
1932.706610  	93.647756 
1933.671034  	93.819688 
1934.635459  	93.761779 
1935.599883  	93.825946 
1936.564308  	93.802442 
1937.528732  	93.699598 
1938.493157  	93.794576 
1939.457581  	93.934426 
1940.422005  	93.812829 
1941.386430  	93.445827 
1942.350854  	92.483591 
1943.315279  	92.610568 
1944.279703  	93.394710 
1945.244128  	93.521077 
1946.208552  	93.540807 
1947.172977  	93.581062 
1948.137401  	93.649895 
1949.101826  	93.591570 
1950.066250  	93.679530 
1951.030674  	93.777450 
1951.995099  	93.682371 
1952.959523  	93.626953 
1953.923948  	93.533706 
1954.888372  	93.662427 
1955.852797  	93.700839 
1956.817221  	93.713885 
1957.781646  	93.807295 
1958.746070  	93.904439 
1959.710495  	94.044613 
1960.674919  	93.829817 
1961.639344  	93.529190 
1962.603768  	93.433029 
1963.568192  	93.401274 
1964.532617  	93.785152 
1965.497041  	94.074182 
1966.461466  	93.778479 
1967.425890  	93.349266 
1968.390315  	93.754635 
1969.354739  	93.838207 
1970.319164  	93.596261 
1971.283588  	93.778968 
1972.248013  	94.038220 
1973.212437  	94.181292 
1974.176861  	94.252167 
1975.141286  	94.062774 
1976.105710  	93.896037 
1977.070135  	94.313148 
1978.034559  	94.618083 
1978.998984  	93.727280 
1979.963408  	93.200245 
1980.927833  	93.372938 
1981.892257  	93.730720 
1982.856682  	93.637457 
1983.821106  	93.617329 
1984.785530  	93.628742 
1985.749955  	93.437049 
1986.714379  	93.554537 
1987.678804  	93.342617 
1988.643228  	93.023396 
1989.607653  	93.463452 
1990.572077  	93.491855 
1991.536502  	92.990189 
1992.500926  	92.692722 
1993.465351  	93.065333 
1994.429775  	93.318393 
1995.394199  	93.473614 
1996.358624  	93.387405 
1997.323048  	93.321734 
1998.287473  	93.387065 
1999.251897  	93.497877 
2000.216322  	93.752030 
2001.180746  	93.995855 
2002.145171  	94.040882 
2003.109595  	94.205783 
2004.074020  	94.158669 
2005.038444  	94.132960 
2006.002868  	94.059572 
2006.967293  	94.108515 
2007.931717  	93.563570 
2008.896142  	93.318030 
2009.860566  	93.625060 
2010.824991  	93.641326 
2011.789415  	93.625740 
2012.753840  	93.990597 
2013.718264  	93.789386 
2014.682689  	93.603531 
2015.647113  	93.650763 
2016.611537  	93.510775 
2017.575962  	93.626719 
2018.540386  	94.077741 
2019.504811  	94.009744 
2020.469235  	94.182423 
2021.433660  	94.328252 
2022.398084  	94.085881 
2023.362509  	93.919449 
2024.326933  	93.885948 
2025.291358  	93.762759 
2026.255782  	93.796628 
2027.220207  	93.695412 
2028.184631  	93.724434 
2029.149055  	94.104048 
2030.113480  	93.997462 
2031.077904  	93.975267 
2032.042329  	94.041651 
2033.006753  	93.877960 
2033.971178  	93.902787 
2034.935602  	93.808924 
2035.900027  	93.840659 
2036.864451  	93.721823 
2037.828876  	93.558182 
2038.793300  	93.557750 
2039.757724  	93.647166 
2040.722149  	93.368387 
2041.686573  	92.989417 
2042.650998  	92.932295 
2043.615422  	92.945431 
2044.579847  	93.282613 
2045.544271  	93.789608 
2046.508696  	93.763736 
2047.473120  	93.475443 
2048.437545  	93.370065 
2049.401969  	93.423764 
2050.366393  	93.160316 
2051.330818  	93.082233 
2052.295242  	93.478821 
2053.259667  	93.778332 
2054.224091  	93.494497 
2055.188516  	93.336470 
2056.152940  	93.371660 
2057.117365  	93.369209 
2058.081789  	93.268809 
2059.046214  	93.187688 
2060.010638  	93.255076 
2060.975062  	93.250489 
2061.939487  	93.092574 
2062.903911  	93.120770 
2063.868336  	93.236618 
2064.832760  	93.130853 
2065.797185  	93.149567 
2066.761609  	93.277260 
2067.726034  	93.356769 
2068.690458  	93.476417 
2069.654883  	93.538733 
2070.619307  	93.489795 
2071.583731  	93.398145 
2072.548156  	93.398545 
2073.512580  	93.368950 
2074.477005  	93.274419 
2075.441429  	93.250346 
2076.405854  	93.264228 
2077.370278  	93.228292 
2078.334703  	93.310327 
2079.299127  	93.335163 
2080.263552  	93.332263 
2081.227976  	93.334655 
2082.192401  	93.236909 
2083.156825  	93.088007 
2084.121249  	93.184748 
2085.085674  	93.300676 
2086.050098  	93.356457 
2087.014523  	93.314118 
2087.978947  	93.338652 
2088.943372  	93.314886 
2089.907796  	93.146525 
2090.872221  	93.188764 
2091.836645  	93.550270 
2092.801070  	93.613594 
2093.765494  	93.598463 
2094.729918  	93.564557 
2095.694343  	93.420016 
2096.658767  	93.302904 
2097.623192  	93.321346 
2098.587616  	93.307350 
2099.552041  	93.332928 
2100.516465  	93.394719 
2101.480890  	93.455358 
2102.445314  	93.304950 
2103.409739  	93.202481 
2104.374163  	93.263535 
2105.338587  	93.207427 
2106.303012  	93.169617 
2107.267436  	93.224572 
2108.231861  	93.208287 
2109.196285  	93.255085 
2110.160710  	93.442699 
2111.125134  	93.470248 
2112.089559  	93.315575 
2113.053983  	93.328952 
2114.018408  	93.349947 
2114.982832  	93.334511 
2115.947256  	93.249054 
2116.911681  	93.378754 
2117.876105  	93.511128 
2118.840530  	93.516483 
2119.804954  	93.529255 
2120.769379  	93.438544 
2121.733803  	93.403014 
2122.698228  	93.489102 
2123.662652  	93.534115 
2124.627077  	93.525065 
2125.591501  	93.657168 
2126.555925  	93.640675 
2127.520350  	93.560126 
2128.484774  	93.701509 
2129.449199  	93.861473 
2130.413623  	93.916374 
2131.378048  	93.779465 
2132.342472  	93.779584 
2133.306897  	93.905795 
2134.271321  	93.812425 
2135.235746  	93.591033 
2136.200170  	93.551824 
2137.164594  	93.790884 
2138.129019  	94.060246 
2139.093443  	94.015708 
2140.057868  	93.998933 
2141.022292  	93.873569 
2141.986717  	93.724174 
2142.951141  	93.597781 
2143.915566  	93.810455 
2144.879990  	93.810301 
2145.844415  	93.858501 
2146.808839  	93.980996 
2147.773264  	94.013097 
2148.737688  	94.069238 
2149.702112  	94.275620 
2150.666537  	94.119562 
2151.630961  	94.056597 
2152.595386  	94.240423 
2153.559810  	94.303578 
2154.524235  	94.324680 
2155.488659  	94.742329 
2156.453084  	95.100389 
2157.417508  	94.889109 
2158.381933  	94.167145 
2159.346357  	93.348541 
2160.310781  	92.950163 
2161.275206  	93.021418 
2162.239630  	93.244019 
2163.204055  	93.616968 
2164.168479  	93.422828 
2165.132904  	93.204008 
2166.097328  	93.130170 
2167.061753  	93.551606 
2168.026177  	93.397127 
2168.990602  	92.979460 
2169.955026  	93.213126 
2170.919450  	93.726353 
2171.883875  	93.655594 
2172.848299  	93.626344 
2173.812724  	93.630171 
2174.777148  	93.803314 
2175.741573  	93.518340 
2176.705997  	93.168277 
2177.670422  	93.360043 
2178.634846  	93.654183 
2179.599271  	93.421691 
2180.563695  	93.418371 
2181.528119  	93.615221 
2182.492544  	93.466644 
2183.456968  	92.999891 
2184.421393  	92.990118 
2185.385817  	93.612492 
2186.350242  	93.797303 
2187.314666  	93.314676 
2188.279091  	93.397422 
2189.243515  	93.391507 
2190.207940  	93.148762 
2191.172364  	93.290712 
2192.136788  	93.423827 
2193.101213  	93.341951 
2194.065637  	93.304527 
2195.030062  	93.039593 
2195.994486  	92.881622 
2196.958911  	93.038061 
2197.923335  	93.396515 
2198.887760  	93.365090 
2199.852184  	93.352090 
2200.816609  	93.384423 
2201.781033  	93.429970 
2202.745458  	93.464892 
2203.709882  	93.507235 
2204.674306  	93.395380 
2205.638731  	93.340482 
2206.603155  	93.306228 
2207.567580  	93.431366 
2208.532004  	93.300856 
2209.496429  	93.307621 
2210.460853  	93.356336 
2211.425278  	93.410799 
2212.389702  	93.340650 
2213.354127  	93.106502 
2214.318551  	92.927476 
2215.282975  	93.095836 
2216.247400  	93.237070 
2217.211824  	93.287138 
2218.176249  	93.381722 
2219.140673  	93.347008 
2220.105098  	93.078987 
2221.069522  	93.139005 
2222.033947  	93.185557 
2222.998371  	93.150866 
2223.962796  	93.157691 
2224.927220  	93.333693 
2225.891644  	93.295229 
2226.856069  	93.196869 
2227.820493  	93.122608 
2228.784918  	93.229646 
2229.749342  	93.227242 
2230.713767  	93.196211 
2231.678191  	93.066622 
2232.642616  	93.086818 
2233.607040  	93.268454 
2234.571465  	93.254907 
2235.535889  	93.081242 
2236.500313  	93.123619 
2237.464738  	93.174489 
2238.429162  	93.324748 
2239.393587  	93.351440 
2240.358011  	93.378029 
2241.322436  	93.425848 
2242.286860  	93.349492 
2243.251285  	93.251517 
2244.215709  	93.291516 
2245.180134  	93.191029 
2246.144558  	93.023063 
2247.108982  	93.076580 
2248.073407  	93.291293 
2249.037831  	93.306851 
2250.002256  	93.205696 
2250.966680  	93.188320 
2251.931105  	93.261927 
2252.895529  	93.226285 
2253.859954  	93.280717 
2254.824378  	93.270279 
2255.788803  	93.207910 
2256.753227  	93.208945 
2257.717651  	93.301655 
2258.682076  	93.201403 
2259.646500  	93.175764 
2260.610925  	93.069033 
2261.575349  	93.069321 
2262.539774  	93.201880 
2263.504198  	93.275440 
2264.468623  	93.170176 
2265.433047  	93.250812 
2266.397472  	93.210257 
2267.361896  	93.161062 
2268.326321  	93.160969 
2269.290745  	93.158395 
2270.255169  	93.165398 
2271.219594  	93.191853 
2272.184018  	93.138000 
2273.148443  	93.059254 
2274.112867  	93.048946 
2275.077292  	93.074159 
2276.041716  	93.105517 
2277.006141  	93.248613 
2277.970565  	93.224441 
2278.934990  	93.090197 
2279.899414  	92.995065 
2280.863838  	93.042959 
2281.828263  	93.043201 
2282.792687  	92.971802 
2283.757112  	92.905969 
2284.721536  	92.898425 
2285.685961  	92.858036 
2286.650385  	92.904897 
2287.614810  	92.921143 
2288.579234  	92.879891 
2289.543659  	92.786599 
2290.508083  	92.933973 
2291.472507  	92.957050 
2292.436932  	92.909695 
2293.401356  	92.831665 
2294.365781  	92.748072 
2295.330205  	92.813268 
2296.294630  	92.788040 
2297.259054  	92.772669 
2298.223479  	92.735100 
2299.187903  	92.741484 
2300.152328  	92.735060 
2301.116752  	92.661228 
2302.081176  	92.652472 
2303.045601  	92.541327 
2304.010025  	92.655072 
2304.974450  	92.514638 
2305.938874  	92.547967 
2306.903299  	92.453423 
2307.867723  	92.494369 
2308.832148  	92.294672 
2309.796572  	92.305752 
2310.760997  	92.283667 
2311.725421  	92.313971 
2312.689845  	92.414884 
2313.654270  	92.453070 
2314.618694  	92.471220 
2315.583119  	92.544386 
2316.547543  	92.614030 
2317.511968  	92.626310 
2318.476392  	92.612877 
2319.440817  	92.484620 
2320.405241  	92.432275 
2321.369666  	92.515001 
2322.334090  	92.597960 
2323.298515  	92.562789 
2324.262939  	92.475991 
2325.227363  	92.737507 
2326.191788  	93.103378 
2327.156212  	93.353827 
2328.120637  	93.406870 
2329.085061  	93.398908 
2330.049486  	93.406814 
2331.013910  	93.453516 
2331.978335  	93.539310 
2332.942759  	93.675184 
2333.907184  	93.890367 
2334.871608  	93.999663 
2335.836032  	94.120792 
2336.800457  	94.221353 
2337.764881  	94.196133 
2338.729306  	94.139935 
2339.693730  	94.015475 
2340.658155  	94.075311 
2341.622579  	94.217573 
2342.587004  	94.121279 
2343.551428  	93.947423 
2344.515853  	93.724214 
2345.480277  	93.502557 
2346.444701  	93.364514 
2347.409126  	93.212954 
2348.373550  	93.004045 
2349.337975  	92.910082 
2350.302399  	93.077375 
2351.266824  	93.401231 
2352.231248  	93.749044 
2353.195673  	93.838591 
2354.160097  	93.864069 
2355.124522  	93.926594 
2356.088946  	94.020769 
2357.053370  	94.115974 
2358.017795  	94.250775 
2358.982219  	94.374780 
2359.946644  	94.686948 
2360.911068  	94.771261 
2361.875493  	94.528450 
2362.839917  	94.315519 
2363.804342  	94.282442 
2364.768766  	94.314602 
2365.733191  	94.363534 
2366.697615  	94.181628 
2367.662039  	93.982385 
2368.626464  	93.808607 
2369.590888  	93.703179 
2370.555313  	93.556637 
2371.519737  	93.382386 
2372.484162  	93.260907 
2373.448586  	93.193503 
2374.413011  	93.088612 
2375.377435  	92.918446 
2376.341860  	92.802114 
2377.306284  	92.729766 
2378.270708  	92.646600 
2379.235133  	92.569813 
2380.199557  	92.620579 
2381.163982  	92.727637 
2382.128406  	92.836995 
2383.092831  	92.911022 
2384.057255  	92.923227 
2385.021680  	93.015439 
2385.986104  	93.111078 
2386.950529  	93.133310 
2387.914953  	93.156175 
2388.879378  	93.225397 
2389.843802  	93.284823 
2390.808226  	93.287298 
2391.772651  	93.243500 
2392.737075  	93.254572 
2393.701500  	93.331652 
2394.665924  	93.382336 
2395.630349  	93.351929 
2396.594773  	93.289377 
2397.559198  	93.220034 
2398.523622  	93.255394 
2399.488047  	93.333562 
2400.452471  	93.339115 
2401.416895  	93.304219 
2402.381320  	93.274124 
2403.345744  	93.289234 
2404.310169  	93.352104 
2405.274593  	93.334609 
2406.239018  	93.255725 
2407.203442  	93.242471 
2408.167867  	93.279849 
2409.132291  	93.309652 
2410.096716  	93.263167 
2411.061140  	93.193504 
2412.025564  	93.186377 
2412.989989  	93.160774 
2413.954413  	93.142356 
2414.918838  	93.205802 
2415.883262  	93.265716 
2416.847687  	93.244081 
2417.812111  	93.247737 
2418.776536  	93.216341 
2419.740960  	93.200052 
2420.705385  	93.205168 
2421.669809  	93.185915 
2422.634233  	93.213560 
2423.598658  	93.164681 
2424.563082  	93.151172 
2425.527507  	93.248481 
2426.491931  	93.248784 
2427.456356  	93.152522 
2428.420780  	93.192521 
2429.385205  	93.218304 
2430.349629  	93.174819 
2431.314054  	93.158506 
2432.278478  	93.205189 
2433.242902  	93.252262 
2434.207327  	93.238459 
2435.171751  	93.246879 
2436.136176  	93.281359 
2437.100600  	93.306784 
2438.065025  	93.247453 
2439.029449  	93.245923 
2439.993874  	93.239246 
2440.958298  	93.237419 
2441.922723  	93.201262 
2442.887147  	93.208151 
2443.851572  	93.228024 
2444.815996  	93.231444 
2445.780420  	93.164727 
2446.744845  	93.139511 
2447.709269  	93.184517 
2448.673694  	93.176880 
2449.638118  	93.138155 
2450.602543  	93.142550 
2451.566967  	93.095265 
2452.531392  	93.107440 
2453.495816  	93.111553 
2454.460241  	93.095178 
2455.424665  	93.139704 
2456.389089  	93.153505 
2457.353514  	93.173764 
2458.317938  	93.167217 
2459.282363  	93.140770 
2460.246787  	93.127451 
2461.211212  	93.111107 
2462.175636  	93.136544 
2463.140061  	93.146198 
2464.104485  	93.169433 
2465.068910  	93.168107 
2466.033334  	93.098714 
2466.997758  	93.111218 
2467.962183  	93.176408 
2468.926607  	93.143769 
2469.891032  	93.093520 
2470.855456  	93.093362 
2471.819881  	93.115572 
2472.784305  	93.113542 
2473.748730  	93.124055 
2474.713154  	93.149142 
2475.677579  	93.141940 
2476.642003  	93.130482 
2477.606427  	93.141884 
2478.570852  	93.145625 
2479.535276  	93.129486 
2480.499701  	93.033094 
2481.464125  	93.031036 
2482.428550  	93.123665 
2483.392974  	93.185564 
2484.357399  	93.219577 
2485.321823  	93.167228 
2486.286248  	93.062715 
2487.250672  	93.058779 
2488.215096  	93.139258 
2489.179521  	93.118579 
2490.143945  	93.047519 
2491.108370  	93.009760 
2492.072794  	93.052414 
2493.037219  	93.100242 
2494.001643  	93.101888 
2494.966068  	93.149593 
2495.930492  	93.214396 
2496.894917  	93.181228 
2497.859341  	93.148007 
2498.823765  	93.163993 
2499.788190  	93.161742 
2500.752614  	93.151650 
2501.717039  	93.097590 
2502.681463  	93.066659 
2503.645888  	93.073645 
2504.610312  	93.052060 
2505.574737  	93.060275 
2506.539161  	93.089026 
2507.503586  	93.123428 
2508.468010  	93.146455 
2509.432435  	93.066510 
2510.396859  	93.047103 
2511.361283  	93.060929 
2512.325708  	93.021796 
2513.290132  	93.044466 
2514.254557  	93.110500 
2515.218981  	93.083440 
2516.183406  	93.049815 
2517.147830  	93.088231 
2518.112255  	93.045808 
2519.076679  	93.001157 
2520.041104  	93.022523 
2521.005528  	93.038602 
2521.969952  	92.986677 
2522.934377  	92.933286 
2523.898801  	93.000038 
2524.863226  	93.076370 
2525.827650  	93.036503 
2526.792075  	93.035938 
2527.756499  	93.020110 
2528.720924  	92.970167 
2529.685348  	92.966180 
2530.649773  	93.007704 
2531.614197  	93.054875 
2532.578621  	93.015173 
2533.543046  	92.982380 
2534.507470  	93.026758 
2535.471895  	93.031319 
2536.436319  	92.990760 
2537.400744  	93.044944 
2538.365168  	93.003927 
2539.329593  	92.942836 
2540.294017  	92.937617 
2541.258442  	92.951126 
2542.222866  	93.010328 
2543.187290  	93.060781 
2544.151715  	93.069423 
2545.116139  	93.077892 
2546.080564  	93.024898 
2547.044988  	92.906384 
2548.009413  	92.823435 
2548.973837  	92.880578 
2549.938262  	92.960036 
2550.902686  	92.983744 
2551.867111  	92.968528 
2552.831535  	92.938671 
2553.795959  	92.932858 
2554.760384  	92.914388 
2555.724808  	92.856999 
2556.689233  	92.801678 
2557.653657  	92.805462 
2558.618082  	92.857064 
2559.582506  	92.946402 
2560.546931  	92.934322 
2561.511355  	92.851682 
2562.475780  	92.829870 
2563.440204  	92.841361 
2564.404629  	92.870174 
2565.369053  	92.866215 
2566.333477  	92.839170 
2567.297902  	92.844955 
2568.262326  	92.823962 
2569.226751  	92.732609 
2570.191175  	92.717009 
2571.155600  	92.789303 
2572.120024  	92.836964 
2573.084449  	92.843745 
2574.048873  	92.792347 
2575.013298  	92.721922 
2575.977722  	92.728253 
2576.942146  	92.802350 
2577.906571  	92.794898 
2578.870995  	92.743499 
2579.835420  	92.735938 
2580.799844  	92.746594 
2581.764269  	92.725420 
2582.728693  	92.722015 
2583.693118  	92.697971 
2584.657542  	92.677563 
2585.621967  	92.707741 
2586.586391  	92.709656 
2587.550815  	92.720217 
2588.515240  	92.703303 
2589.479664  	92.671818 
2590.444089  	92.672169 
2591.408513  	92.697181 
2592.372938  	92.694520 
2593.337362  	92.670116 
2594.301787  	92.645966 
2595.266211  	92.620332 
2596.230636  	92.623590 
2597.195060  	92.644972 
2598.159484  	92.643759 
2599.123909  	92.679914 
2600.088333  	92.679200 
2601.052758  	92.648939 
2602.017182  	92.652001 
2602.981607  	92.657712 
2603.946031  	92.644136 
2604.910456  	92.687775 
2605.874880  	92.697912 
2606.839305  	92.662718 
2607.803729  	92.641111 
2608.768153  	92.626605 
2609.732578  	92.586460 
2610.697002  	92.567811 
2611.661427  	92.579449 
2612.625851  	92.630361 
2613.590276  	92.689787 
2614.554700  	92.661714 
2615.519125  	92.620071 
2616.483549  	92.624131 
2617.447974  	92.612296 
2618.412398  	92.654665 
2619.376822  	92.628887 
2620.341247  	92.592475 
2621.305671  	92.616832 
2622.270096  	92.603583 
2623.234520  	92.584506 
2624.198945  	92.585785 
2625.163369  	92.624524 
2626.127794  	92.637690 
2627.092218  	92.618395 
2628.056643  	92.611531 
2629.021067  	92.600372 
2629.985492  	92.617184 
2630.949916  	92.637162 
2631.914340  	92.617756 
2632.878765  	92.579470 
2633.843189  	92.601724 
2634.807614  	92.600736 
2635.772038  	92.603460 
2636.736463  	92.572091 
2637.700887  	92.557270 
2638.665312  	92.547440 
2639.629736  	92.546334 
2640.594161  	92.581481 
2641.558585  	92.582279 
2642.523009  	92.515474 
2643.487434  	92.517402 
2644.451858  	92.558629 
2645.416283  	92.543031 
2646.380707  	92.518387 
2647.345132  	92.494949 
2648.309556  	92.487263 
2649.273981  	92.513596 
2650.238405  	92.536689 
2651.202830  	92.549047 
2652.167254  	92.526529 
2653.131678  	92.522160 
2654.096103  	92.540705 
2655.060527  	92.539813 
2656.024952  	92.507199 
2656.989376  	92.493652 
2657.953801  	92.467899 
2658.918225  	92.442148 
2659.882650  	92.468784 
2660.847074  	92.504739 
2661.811499  	92.527030 
2662.775923  	92.530622 
2663.740347  	92.535262 
2664.704772  	92.539747 
2665.669196  	92.547323 
2666.633621  	92.549111 
2667.598045  	92.546307 
2668.562470  	92.554636 
2669.526894  	92.540302 
2670.491319  	92.504198 
2671.455743  	92.522222 
2672.420168  	92.525528 
2673.384592  	92.492771 
2674.349016  	92.497446 
2675.313441  	92.508708 
2676.277865  	92.517702 
2677.242290  	92.515295 
2678.206714  	92.500252 
2679.171139  	92.485442 
2680.135563  	92.498589 
2681.099988  	92.487672 
2682.064412  	92.488156 
2683.028837  	92.483990 
2683.993261  	92.450505 
2684.957686  	92.450374 
2685.922110  	92.457033 
2686.886534  	92.420378 
2687.850959  	92.396282 
2688.815383  	92.420735 
2689.779808  	92.421095 
2690.744232  	92.398835 
2691.708657  	92.380212 
2692.673081  	92.398379 
2693.637506  	92.436600 
2694.601930  	92.435344 
2695.566355  	92.421207 
2696.530779  	92.406889 
2697.495203  	92.406682 
2698.459628  	92.420894 
2699.424052  	92.431891 
2700.388477  	92.400451 
2701.352901  	92.350048 
2702.317326  	92.336425 
2703.281750  	92.368815 
2704.246175  	92.391202 
2705.210599  	92.361663 
2706.175024  	92.340983 
2707.139448  	92.328929 
2708.103872  	92.317781 
2709.068297  	92.359279 
2710.032721  	92.358439 
2710.997146  	92.326742 
2711.961570  	92.331795 
2712.925995  	92.339991 
2713.890419  	92.337055 
2714.854844  	92.315230 
2715.819268  	92.301429 
2716.783693  	92.287946 
2717.748117  	92.265593 
2718.712541  	92.264911 
2719.676966  	92.244059 
2720.641390  	92.220199 
2721.605815  	92.239705 
2722.570239  	92.243092 
2723.534664  	92.200907 
2724.499088  	92.152007 
2725.463513  	92.145770 
2726.427937  	92.161854 
2727.392362  	92.166528 
2728.356786  	92.144416 
2729.321210  	92.086334 
2730.285635  	92.060043 
2731.250059  	92.047520 
2732.214484  	92.041166 
2733.178908  	92.019130 
2734.143333  	91.993269 
2735.107757  	91.973409 
2736.072182  	91.977223 
2737.036606  	91.985216 
2738.001031  	91.949561 
2738.965455  	91.906731 
2739.929879  	91.898919 
2740.894304  	91.896701 
2741.858728  	91.891054 
2742.823153  	91.863836 
2743.787577  	91.843547 
2744.752002  	91.837069 
2745.716426  	91.817626 
2746.680851  	91.807254 
2747.645275  	91.821716 
2748.609700  	91.790052 
2749.574124  	91.755072 
2750.538549  	91.739819 
2751.502973  	91.718677 
2752.467397  	91.730209 
2753.431822  	91.724900 
2754.396246  	91.701286 
2755.360671  	91.712659 
2756.325095  	91.743499 
2757.289520  	91.718984 
2758.253944  	91.718777 
2759.218369  	91.719248 
2760.182793  	91.692345 
2761.147218  	91.673531 
2762.111642  	91.662510 
2763.076066  	91.691027 
2764.040491  	91.716351 
2765.004915  	91.677170 
2765.969340  	91.654920 
2766.933764  	91.649382 
2767.898189  	91.614683 
2768.862613  	91.588043 
2769.827038  	91.581077 
2770.791462  	91.582153 
2771.755887  	91.545798 
2772.720311  	91.516792 
2773.684735  	91.526635 
2774.649160  	91.515210 
2775.613584  	91.489859 
2776.578009  	91.500223 
2777.542433  	91.493012 
2778.506858  	91.484264 
2779.471282  	91.496146 
2780.435707  	91.474893 
2781.400131  	91.446756 
2782.364556  	91.425920 
2783.328980  	91.389586 
2784.293404  	91.383824 
2785.257829  	91.373185 
2786.222253  	91.371341 
2787.186678  	91.354634 
2788.151102  	91.331674 
2789.115527  	91.342942 
2790.079951  	91.305831 
2791.044376  	91.251829 
2792.008800  	91.217606 
2792.973225  	91.191603 
2793.937649  	91.190312 
2794.902073  	91.153637 
2795.866498  	91.112330 
2796.830922  	91.091848 
2797.795347  	91.065634 
2798.759771  	91.036231 
2799.724196  	90.980824 
2800.688620  	90.915497 
2801.653045  	90.886458 
2802.617469  	90.870011 
2803.581894  	90.870919 
2804.546318  	90.857215 
2805.510743  	90.811473 
2806.475167  	90.729816 
2807.439591  	90.664987 
2808.404016  	90.644366 
2809.368440  	90.625899 
2810.332865  	90.612609 
2811.297289  	90.544033 
2812.261714  	90.479039 
2813.226138  	90.464460 
2814.190563  	90.402612 
2815.154987  	90.349662 
2816.119412  	90.317152 
2817.083836  	90.253609 
2818.048260  	90.165522 
2819.012685  	90.123979 
2819.977109  	90.120479 
2820.941534  	90.073998 
2821.905958  	89.981400 
2822.870383  	89.880848 
2823.834807  	89.836039 
2824.799232  	89.781300 
2825.763656  	89.727458 
2826.728081  	89.669471 
2827.692505  	89.611289 
2828.656929  	89.576209 
2829.621354  	89.539882 
2830.585778  	89.508161 
2831.550203  	89.428921 
2832.514627  	89.322045 
2833.479052  	89.226125 
2834.443476  	89.146023 
2835.407901  	89.068810 
2836.372325  	88.936406 
2837.336750  	88.754828 
2838.301174  	88.533997 
2839.265598  	88.304327 
2840.230023  	88.080128 
2841.194447  	87.808414 
2842.158872  	87.448235 
2843.123296  	87.061249 
2844.087721  	86.624628 
2845.052145  	86.079698 
2846.016570  	85.481627 
2846.980994  	84.814575 
2847.945419  	84.107099 
2848.909843  	83.343666 
2849.874267  	82.599816 
2850.838692  	81.952746 
2851.803116  	81.398735 
2852.767541  	80.862184 
2853.731965  	80.356324 
2854.696390  	79.919166 
2855.660814  	79.550053 
2856.625239  	79.226468 
2857.589663  	78.951676 
2858.554088  	78.775240 
2859.518512  	78.702881 
2860.482936  	78.709091 
2861.447361  	78.806000 
2862.411785  	79.014809 
2863.376210  	79.245609 
2864.340634  	79.465611 
2865.305059  	79.703304 
2866.269483  	79.936896 
2867.233908  	80.125076 
2868.198332  	80.320570 
2869.162757  	80.486472 
2870.127181  	80.600734 
2871.091606  	80.704573 
2872.056030  	80.852512 
2873.020454  	81.040956 
2873.984879  	81.202259 
2874.949303  	81.385409 
2875.913728  	81.630064 
2876.878152  	81.955958 
2877.842577  	82.326003 
2878.807001  	82.724037 
2879.771426  	83.101873 
2880.735850  	83.443762 
2881.700275  	83.780340 
2882.664699  	84.114920 
2883.629123  	84.400801 
2884.593548  	84.677391 
2885.557972  	84.878817 
2886.522397  	84.996797 
2887.486821  	85.068974 
2888.451246  	85.111117 
2889.415670  	85.115375 
2890.380095  	85.058787 
2891.344519  	84.995318 
2892.308944  	84.903712 
2893.273368  	84.745033 
2894.237792  	84.547512 
2895.202217  	84.277319 
2896.166641  	84.078128 
2897.131066  	83.859496 
2898.095490  	83.587133 
2899.059915  	83.262988 
2900.024339  	82.929550 
2900.988764  	82.620197 
2901.953188  	82.306677 
2902.917613  	81.953272 
2903.882037  	81.597945 
2904.846461  	81.271190 
2905.810886  	80.949326 
2906.775310  	80.639938 
2907.739735  	80.332712 
2908.704159  	80.016604 
2909.668584  	79.727703 
2910.633008  	79.448741 
2911.597433  	79.180513 
2912.561857  	78.904073 
2913.526282  	78.579305 
2914.490706  	78.181642 
2915.455130  	77.758707 
2916.419555  	77.339002 
2917.383979  	76.954504 
2918.348404  	76.557255 
2919.312828  	76.178720 
2920.277253  	75.780722 
2921.241677  	75.376571 
2922.206102  	75.024780 
2923.170526  	74.698118 
2924.134951  	74.378518 
2925.099375  	74.046925 
2926.063800  	73.692469 
2927.028224  	73.379797 
2927.992648  	73.058637 
2928.957073  	72.730186 
2929.921497  	72.431986 
2930.885922  	72.181262 
2931.850346  	72.020216 
2932.814771  	71.961965 
2933.779195  	71.995260 
2934.743620  	72.109734 
2935.708044  	72.321650 
2936.672469  	72.652218 
2937.636893  	73.061615 
2938.601317  	73.528648 
2939.565742  	74.080071 
2940.530166  	74.638529 
2941.494591  	75.158344 
2942.459015  	75.669864 
2943.423440  	76.162462 
2944.387864  	76.639570 
2945.352289  	77.095867 
2946.316713  	77.652817 
2947.281138  	78.325855 
2948.245562  	79.051229 
2949.209986  	79.759888 
2950.174411  	80.460287 
2951.138835  	81.198200 
2952.103260  	81.919860 
2953.067684  	82.572845 
2954.032109  	83.155300 
2954.996533  	83.737775 
2955.960958  	84.247662 
2956.925382  	84.701168 
2957.889807  	85.159599 
2958.854231  	85.578849 
2959.818655  	85.980629 
2960.783080  	86.343694 
2961.747504  	86.639041 
2962.711929  	86.897526 
2963.676353  	87.130713 
2964.640778  	87.314988 
2965.605202  	87.524933 
2966.569627  	87.796978 
2967.534051  	88.098980 
2968.498476  	88.388855 
2969.462900  	88.625986 
2970.427324  	88.848146 
2971.391749  	89.068479 
2972.356173  	89.314343 
2973.320598  	89.583444 
2974.285022  	89.780918 
2975.249447  	89.862951 
2976.213871  	90.028157 
2977.178296  	90.210805 
2978.142720  	90.352096 
2979.107145  	90.501159 
2980.071569  	90.620997 
2981.035993  	90.710200 
2982.000418  	90.868956 
2982.964842  	91.001654 
2983.929267  	91.085801 
2984.893691  	91.173467 
2985.858116  	91.219644 
2986.822540  	91.271356 
2987.786965  	91.328434 
2988.751389  	91.365706 
2989.715814  	91.417033 
2990.680238  	91.502305 
2991.644663  	91.551757 
2992.609087  	91.550231 
2993.573511  	91.559320 
2994.537936  	91.593688 
2995.502360  	91.658869 
2996.466785  	91.695166 
2997.431209  	91.710705 
2998.395634  	91.742176 
2999.360058  	91.740489 
3000.324483  	91.728852 
3001.288907  	91.727667 
3002.253332  	91.711604 
3003.217756  	91.697581 
3004.182180  	91.650392 
3005.146605  	91.623833 
3006.111029  	91.693565 
3007.075454  	91.731542 
3008.039878  	91.704739 
3009.004303  	91.736867 
3009.968727  	91.741239 
3010.933152  	91.668033 
3011.897576  	91.605209 
3012.862001  	91.521153 
3013.826425  	91.582512 
3014.790849  	91.643534 
3015.755274  	91.611573 
3016.719698  	91.574818 
3017.684123  	91.575057 
3018.648547  	91.542328 
3019.612972  	91.518377 
3020.577396  	91.506559 
3021.541821  	91.440538 
3022.506245  	91.368100 
3023.470670  	91.331027 
3024.435094  	91.321796 
3025.399518  	91.256117 
3026.363943  	91.188127 
3027.328367  	91.185788 
3028.292792  	91.155867 
3029.257216  	91.151692 
3030.221641  	91.057861 
3031.186065  	90.860869 
3032.150490  	90.759403 
3033.114914  	90.849864 
3034.079339  	90.808040 
3035.043763  	90.736859 
3036.008187  	90.706283 
3036.972612  	90.626009 
3037.937036  	90.513127 
3038.901461  	90.466639 
3039.865885  	90.431116 
3040.830310  	90.378659 
3041.794734  	90.292649 
3042.759159  	90.203846 
3043.723583  	90.116735 
3044.688008  	90.025123 
3045.652432  	89.952496 
3046.616857  	89.836810 
3047.581281  	89.668451 
3048.545705  	89.474861 
3049.510130  	89.341734 
3050.474554  	89.298458 
3051.438979  	89.233801 
3052.403403  	89.119198 
3053.367828  	88.981662 
3054.332252  	88.855582 
3055.296677  	88.727692 
3056.261101  	88.567833 
3057.225526  	88.513080 
3058.189950  	88.537878 
3059.154374  	88.485259 
3060.118799  	88.435740 
3061.083223  	88.406637 
3062.047648  	88.397319 
3063.012072  	88.323000 
3063.976497  	88.176192 
3064.940921  	88.157916 
3065.905346  	88.255791 
3066.869770  	88.226893 
3067.834195  	88.209007 
3068.798619  	88.256173 
3069.763043  	88.268471 
3070.727468  	88.251594 
3071.691892  	88.280986 
3072.656317  	88.262222 
3073.620741  	88.252925 
3074.585166  	88.311651 
3075.549590  	88.322866 
3076.514015  	88.275335 
3077.478439  	88.257045 
3078.442864  	88.303004 
3079.407288  	88.288449 
3080.371712  	88.271044 
3081.336137  	88.263502 
3082.300561  	88.241629 
3083.264986  	88.348459 
3084.229410  	88.434482 
3085.193835  	88.445395 
3086.158259  	88.459096 
3087.122684  	88.455999 
3088.087108  	88.480513 
3089.051533  	88.578792 
3090.015957  	88.671199 
3090.980381  	88.694282 
3091.944806  	88.694687 
3092.909230  	88.762207 
3093.873655  	88.793812 
3094.838079  	88.776181 
3095.802504  	88.792986 
3096.766928  	88.913033 
3097.731353  	89.020955 
3098.695777  	89.113023 
3099.660202  	89.168694 
3100.624626  	89.188739 
3101.589050  	89.169782 
3102.553475  	89.235032 
3103.517899  	89.315873 
3104.482324  	89.415179 
3105.446748  	89.472986 
3106.411173  	89.497571 
3107.375597  	89.546621 
3108.340022  	89.661879 
3109.304446  	89.749049 
3110.268871  	89.782530 
3111.233295  	89.814351 
3112.197720  	89.830580 
3113.162144  	89.816115 
3114.126568  	89.903505 
3115.090993  	89.984371 
3116.055417  	89.999530 
3117.019842  	90.082038 
3117.984266  	90.082166 
3118.948691  	89.993044 
3119.913115  	90.079758 
3120.877540  	90.160294 
3121.841964  	90.136314 
3122.806389  	90.130543 
3123.770813  	90.198672 
3124.735237  	90.205076 
3125.699662  	90.194964 
3126.664086  	90.220307 
3127.628511  	90.346034 
3128.592935  	90.386252 
3129.557360  	90.335118 
3130.521784  	90.327264 
3131.486209  	90.344810 
3132.450633  	90.284933 
3133.415058  	90.238955 
3134.379482  	90.326638 
3135.343906  	90.388209 
3136.308331  	90.339222 
3137.272755  	90.300005 
3138.237180  	90.301972 
3139.201604  	90.298300 
3140.166029  	90.276676 
3141.130453  	90.294980 
3142.094878  	90.218913 
3143.059302  	90.140170 
3144.023727  	90.169216 
3144.988151  	90.167269 
3145.952575  	90.089962 
3146.917000  	90.065216 
3147.881424  	90.123876 
3148.845849  	90.170421 
3149.810273  	90.108552 
3150.774698  	90.056640 
3151.739122  	90.018905 
3152.703547  	90.021162 
3153.667971  	89.963039 
3154.632396  	89.924731 
3155.596820  	89.859254 
3156.561244  	89.768641 
3157.525669  	89.756879 
3158.490093  	89.719403 
3159.454518  	89.668980 
3160.418942  	89.626305 
3161.383367  	89.537055 
3162.347791  	89.432914 
3163.312216  	89.359052 
3164.276640  	89.335704 
3165.241065  	89.323179 
3166.205489  	89.273929 
3167.169914  	89.205846 
3168.134338  	89.122609 
3169.098762  	89.059885 
3170.063187  	88.937657 
3171.027611  	88.824699 
3171.992036  	88.806830 
3172.956460  	88.753063 
3173.920885  	88.656830 
3174.885309  	88.557081 
3175.849734  	88.479575 
3176.814158  	88.435880 
3177.778583  	88.333982 
3178.743007  	88.258973 
3179.707431  	88.204159 
3180.671856  	88.158917 
3181.636280  	88.197007 
3182.600705  	88.139888 
3183.565129  	88.000988 
3184.529554  	87.897262 
3185.493978  	87.821886 
3186.458403  	87.770455 
3187.422827  	87.711548 
3188.387252  	87.641698 
3189.351676  	87.635944 
3190.316100  	87.605084 
3191.280525  	87.581796 
3192.244949  	87.548499 
3193.209374  	87.511006 
3194.173798  	87.378291 
3195.138223  	87.295503 
3196.102647  	87.214470 
3197.067072  	87.106110 
3198.031496  	87.033761 
3198.995921  	87.095701 
3199.960345  	87.098007 
3200.924769  	87.046134 
3201.889194  	87.028711 
3202.853618  	86.989481 
3203.818043  	86.914699 
3204.782467  	86.868661 
3205.746892  	86.827037 
3206.711316  	86.764327 
3207.675741  	86.717351 
3208.640165  	86.675620 
3209.604590  	86.603383 
3210.569014  	86.571753 
3211.533438  	86.619828 
3212.497863  	86.595855 
3213.462287  	86.473415 
3214.426712  	86.346380 
3215.391136  	86.270092 
3216.355561  	86.238934 
3217.319985  	86.237881 
3218.284410  	86.193943 
3219.248834  	86.112798 
3220.213259  	86.065192 
3221.177683  	85.992801 
3222.142107  	85.904968 
3223.106532  	85.826906 
3224.070956  	85.749568 
3225.035381  	85.633699 
3225.999805  	85.478001 
3226.964230  	85.307432 
3227.928654  	85.225251 
3228.893079  	85.200776 
3229.857503  	85.043032 
3230.821928  	84.874223 
3231.786352  	84.791008 
3232.750777  	84.654314 
3233.715201  	84.548426 
3234.679625  	84.383779 
3235.644050  	84.164320 
3236.608474  	83.987884 
3237.572899  	83.899228 
3238.537323  	83.785314 
3239.501748  	83.597191 
3240.466172  	83.401712 
3241.430597  	83.258688 
3242.395021  	83.077315 
3243.359446  	82.900702 
3244.323870  	82.690330 
3245.288294  	82.482119 
3246.252719  	82.334513 
3247.217143  	82.181019 
3248.181568  	81.974278 
3249.145992  	81.724804 
3250.110417  	81.498508 
3251.074841  	81.263938 
3252.039266  	81.033560 
3253.003690  	80.862532 
3253.968115  	80.546714 
3254.932539  	80.287126 
3255.896963  	80.085892 
3256.861388  	79.808812 
3257.825812  	79.551662 
3258.790237  	79.308013 
3259.754661  	79.033918 
3260.719086  	78.761706 
3261.683510  	78.573766 
3262.647935  	78.312855 
3263.612359  	78.083720 
3264.576784  	77.837819 
3265.541208  	77.460795 
3266.505632  	77.138121 
3267.470057  	76.924345 
3268.434481  	76.693093 
3269.398906  	76.404529 
3270.363330  	76.149735 
3271.327755  	75.896337 
3272.292179  	75.587587 
3273.256604  	75.176960 
3274.221028  	74.867817 
3275.185453  	74.604719 
3276.149877  	74.235989 
3277.114301  	73.895372 
3278.078726  	73.555040 
3279.043150  	73.135332 
3280.007575  	72.824226 
3280.971999  	72.474456 
3281.936424  	72.082679 
3282.900848  	71.686808 
3283.865273  	71.332537 
3284.829697  	70.964816 
3285.794122  	70.590237 
3286.758546  	70.213931 
3287.722971  	69.859650 
3288.687395  	69.546995 
3289.651819  	69.327613 
3290.616244  	69.050907 
3291.580668  	68.757654 
3292.545093  	68.532199 
3293.509517  	68.430800 
3294.473942  	68.337075 
3295.438366  	68.259508 
3296.402791  	68.192603 
3297.367215  	68.198250 
3298.331640  	68.279825 
3299.296064  	68.464530 
3300.260488  	68.658073 
3301.224913  	68.925237 
3302.189337  	69.307537 
3303.153762  	69.648052 
3304.118186  	70.008760 
3305.082611  	70.487491 
3306.047035  	70.956811 
3307.011460  	71.471585 
3307.975884  	71.962614 
3308.940309  	72.518934 
3309.904733  	73.223852 
3310.869157  	73.839808 
3311.833582  	74.413762 
3312.798006  	75.081584 
3313.762431  	75.709220 
3314.726855  	76.342405 
3315.691280  	76.937531 
3316.655704  	77.525830 
3317.620129  	78.090267 
3318.584553  	78.645595 
3319.548978  	79.152238 
3320.513402  	79.681986 
3321.477826  	80.184366 
3322.442251  	80.621991 
3323.406675  	81.086914 
3324.371100  	81.540184 
3325.335524  	81.896219 
3326.299949  	82.249771 
3327.264373  	82.560642 
3328.228798  	82.928319 
3329.193222  	83.246480 
3330.157647  	83.509232 
3331.122071  	83.817355 
3332.086495  	84.187223 
3333.050920  	84.397900 
3334.015344  	84.557955 
3334.979769  	84.726953 
3335.944193  	85.003109 
3336.908618  	85.193227 
3337.873042  	85.381692 
3338.837467  	85.658747 
3339.801891  	85.918546 
3340.766316  	86.111851 
3341.730740  	86.243806 
3342.695164  	86.379518 
3343.659589  	86.557310 
3344.624013  	86.804674 
3345.588438  	86.992136 
3346.552862  	87.095301 
3347.517287  	87.206084 
3348.481711  	87.315704 
3349.446136  	87.439876 
3350.410560  	87.548681 
3351.374985  	87.685483 
3352.339409  	87.844755 
3353.303834  	87.921296 
3354.268258  	87.977026 
3355.232682  	88.065705 
3356.197107  	88.065792 
3357.161531  	88.154042 
3358.125956  	88.314110 
3359.090380  	88.416409 
3360.054805  	88.388817 
3361.019229  	88.387967 
3361.983654  	88.476617 
3362.948078  	88.662794 
3363.912503  	88.755669 
3364.876927  	88.751609 
3365.841351  	88.812730 
3366.805776  	88.916727 
3367.770200  	88.869965 
3368.734625  	88.915645 
3369.699049  	89.065930 
3370.663474  	89.203949 
3371.627898  	89.279433 
3372.592323  	89.277833 
3373.556747  	89.244698 
3374.521172  	89.315773 
3375.485596  	89.389453 
3376.450020  	89.427192 
3377.414445  	89.455496 
3378.378869  	89.499207 
3379.343294  	89.572728 
3380.307718  	89.608725 
3381.272143  	89.663869 
3382.236567  	89.650871 
3383.200992  	89.644628 
3384.165416  	89.610786 
3385.129841  	89.583165 
3386.094265  	89.668577 
3387.058689  	89.781133 
3388.023114  	89.854482 
3388.987538  	89.855172 
3389.951963  	89.826958 
3390.916387  	89.768785 
3391.880812  	89.730563 
3392.845236  	89.605913 
3393.809661  	89.711799 
3394.774085  	89.951020 
3395.738510  	90.014297 
3396.702934  	89.911611 
3397.667358  	89.771625 
3398.631783  	89.929302 
3399.596207  	90.095046 
3400.560632  	89.988080 
3401.525056  	89.948939 
3402.489481  	90.035631 
3403.453905  	90.049054 
3404.418330  	90.092397 
3405.382754  	90.142398 
3406.347179  	90.156928 
3407.311603  	90.167513 
3408.276028  	90.139159 
3409.240452  	90.129085 
3410.204876  	90.130510 
3411.169301  	90.147948 
3412.133725  	90.175597 
3413.098150  	90.261059 
3414.062574  	90.280905 
3415.026999  	90.301552 
3415.991423  	90.223687 
3416.955848  	90.245605 
3417.920272  	90.307884 
3418.884697  	90.311107 
3419.849121  	90.077745 
3420.813545  	89.852025 
3421.777970  	89.976403 
3422.742394  	90.132947 
3423.706819  	90.211612 
3424.671243  	90.314518 
3425.635668  	90.398268 
3426.600092  	90.398016 
3427.564517  	90.363291 
3428.528941  	90.345945 
3429.493366  	90.383119 
3430.457790  	90.368951 
3431.422214  	90.330210 
3432.386639  	90.367520 
3433.351063  	90.432938 
3434.315488  	90.468111 
3435.279912  	90.420060 
3436.244337  	90.415629 
3437.208761  	90.466585 
3438.173186  	90.496091 
3439.137610  	90.480850 
3440.102035  	90.516874 
3441.066459  	90.557268 
3442.030883  	90.454899 
3442.995308  	90.244726 
3443.959732  	90.402288 
3444.924157  	90.497597 
3445.888581  	90.433459 
3446.853006  	90.041132 
3447.817430  	89.838253 
3448.781855  	90.355761 
3449.746279  	90.643554 
3450.710704  	90.689175 
3451.675128  	90.681389 
3452.639552  	90.718396 
3453.603977  	90.768493 
3454.568401  	90.729828 
3455.532826  	90.675496 
3456.497250  	90.712911 
3457.461675  	90.721094 
3458.426099  	90.661385 
3459.390524  	90.668193 
3460.354948  	90.723992 
3461.319373  	90.605510 
3462.283797  	90.537319 
3463.248221  	90.579796 
3464.212646  	90.781251 
3465.177070  	90.848804 
3466.141495  	90.726214 
3467.105919  	90.509743 
3468.070344  	90.597297 
3469.034768  	90.816583 
3469.999193  	90.818801 
3470.963617  	90.802796 
3471.928042  	90.837686 
3472.892466  	90.822328 
3473.856891  	90.788530 
3474.821315  	90.735125 
3475.785739  	90.813467 
3476.750164  	90.879446 
3477.714588  	90.878881 
3478.679013  	90.921075 
3479.643437  	90.840241 
3480.607862  	90.526293 
3481.572286  	90.406686 
3482.536711  	90.393885 
3483.501135  	90.720662 
3484.465560  	90.959168 
3485.429984  	90.873969 
3486.394408  	90.858686 
3487.358833  	90.808246 
3488.323257  	90.522252 
3489.287682  	90.567352 
3490.252106  	90.879337 
3491.216531  	90.948033 
3492.180955  	91.023933 
3493.145380  	91.085635 
3494.109804  	91.124174 
3495.074229  	90.986041 
3496.038653  	90.730843 
3497.003077  	90.699459 
3497.967502  	90.985812 
3498.931926  	91.088677 
3499.896351  	90.969046 
3500.860775  	90.889246 
3501.825200  	90.605991 
3502.789624  	90.207219 
3503.754049  	90.166609 
3504.718473  	90.520679 
3505.682898  	90.764802 
3506.647322  	91.026945 
3507.611746  	91.260156 
3508.576171  	91.064015 
3509.540595  	90.465693 
3510.505020  	90.583246 
3511.469444  	91.023345 
3512.433869  	91.153440 
3513.398293  	91.209894 
3514.362718  	91.421760 
3515.327142  	91.591916 
3516.291567  	91.529553 
3517.255991  	91.389580 
3518.220415  	91.411531 
3519.184840  	91.403249 
3520.149264  	91.378551 
3521.113689  	91.491958 
3522.078113  	91.318712 
3523.042538  	90.598125 
3524.006962  	90.294145 
3524.971387  	90.717867 
3525.935811  	90.932660 
3526.900236  	90.884491 
3527.864660  	90.815954 
3528.829085  	90.953289 
3529.793509  	91.100350 
3530.757933  	91.356706 
3531.722358  	91.433489 
3532.686782  	91.735610 
3533.651207  	91.958066 
3534.615631  	91.999051 
3535.580056  	91.747041 
3536.544480  	91.190819 
3537.508905  	91.399254 
3538.473329  	91.954321 
3539.437754  	91.996874 
3540.402178  	91.999242 
3541.366602  	92.021116 
3542.331027  	92.099076 
3543.295451  	91.908395 
3544.259876  	91.500270 
3545.224300  	90.639470 
3546.188725  	90.415059 
3547.153149  	90.469302 
3548.117574  	91.044429 
3549.081998  	91.903522 
3550.046423  	92.101129 
3551.010847  	92.020072 
3551.975271  	91.541401 
3552.939696  	91.335653 
3553.904120  	91.684754 
3554.868545  	92.059083 
3555.832969  	92.359715 
3556.797394  	92.312185 
3557.761818  	92.424738 
3558.726243  	92.573101 
3559.690667  	92.089194 
3560.655092  	91.606164 
3561.619516  	92.055490 
3562.583940  	92.054074 
3563.548365  	91.944680 
3564.512789  	91.931018 
3565.477214  	91.162513 
3566.441638  	89.124008 
3567.406063  	88.978042 
3568.370487  	89.379853 
3569.334912  	90.868392 
3570.299336  	91.997491 
3571.263761  	92.247112 
3572.228185  	92.647788 
3573.192609  	92.744001 
3574.157034  	92.572931 
3575.121458  	92.468515 
3576.085883  	92.571159 
3577.050307  	92.446212 
3578.014732  	92.453259 
3578.979156  	92.610958 
3579.943581  	92.292170 
3580.908005  	92.245278 
3581.872430  	92.620981 
3582.836854  	92.709397 
3583.801278  	92.606014 
3584.765703  	92.672449 
3585.730127  	92.314043 
3586.694552  	90.799136 
3587.658976  	89.934537 
3588.623401  	90.232284 
3589.587825  	91.240278 
3590.552250  	92.523280 
3591.516674  	92.896998 
3592.481099  	92.810665 
3593.445523  	92.184244 
3594.409948  	92.202995 
3595.374372  	91.733402 
3596.338796  	91.653106 
3597.303221  	92.482969 
3598.267645  	92.530430 
3599.232070  	92.260151 
3600.196494  	92.308241 
3601.160919  	92.087068 
3602.125343  	92.378990 
3603.089768  	92.634304 
3604.054192  	92.966329 
3605.018617  	93.200457 
3605.983041  	93.086726 
3606.947465  	92.031788 
3607.911890  	91.518154 
3608.876314  	91.794174 
3609.840739  	91.527042 
3610.805163  	92.469200 
3611.769588  	92.487578 
3612.734012  	91.319287 
3613.698437  	91.430939 
3614.662861  	91.642637 
3615.627286  	91.782922 
3616.591710  	92.684778 
3617.556134  	92.176921 
3618.520559  	91.348094 
3619.484983  	91.238499 
3620.449408  	91.317365 
3621.413832  	92.011677 
3622.378257  	92.716498 
3623.342681  	93.189370 
3624.307106  	93.364421 
3625.271530  	93.299692 
3626.235955  	92.835513 
3627.200379  	92.661939 
3628.164803  	91.797197 
3629.129228  	89.063982 
3630.093652  	89.643038 
3631.058077  	91.956566 
3632.022501  	92.908202 
3632.986926  	93.024638 
3633.951350  	92.351238 
3634.915775  	92.679472 
3635.880199  	93.389729 
3636.844624  	93.535634 
3637.809048  	93.348076 
3638.773472  	93.247139 
3639.737897  	93.474870 
3640.702321  	93.524754 
3641.666746  	93.257531 
3642.631170  	92.858408 
3643.595595  	93.052949 
3644.560019  	93.424094 
3645.524444  	93.189848 
3646.488868  	92.172620 
3647.453293  	90.474007 
3648.417717  	90.636068 
3649.382142  	90.383226 
3650.346566  	89.580426 
3651.310990  	89.818053 
3652.275415  	91.804475 
3653.239839  	93.099644 
3654.204264  	93.463635 
3655.168688  	93.346427 
3656.133113  	92.453380 
3657.097537  	92.162177 
3658.061962  	93.241029 
3659.026386  	93.493250 
3659.990811  	93.417240 
3660.955235  	93.571919 
3661.919659  	93.798446 
3662.884084  	93.798574 
3663.848508  	93.798276 
3664.812933  	93.729409 
3665.777357  	93.743173 
3666.741782  	93.775314 
3667.706206  	93.696198 
3668.670631  	92.806828 
3669.635055  	91.680855 
3670.599480  	90.945049 
3671.563904  	91.446877 
3672.528328  	92.945639 
3673.492753  	93.239149 
3674.457177  	92.159473 
3675.421602  	89.590334 
3676.386026  	90.032259 
3677.350451  	91.758111 
3678.314875  	92.528372 
3679.279300  	92.577766 
3680.243724  	92.693606 
3681.208149  	93.485833 
3682.172573  	93.826743 
3683.136997  	93.867337 
3684.101422  	93.748400 
3685.065846  	93.611607 
3686.030271  	93.740948 
3686.994695  	93.656372 
3687.959120  	92.949700 
3688.923544  	91.989478 
3689.887969  	92.320710 
3690.852393  	91.704728 
3691.816818  	91.600737 
3692.781242  	93.136960 
3693.745666  	93.564479 
3694.710091  	93.681556 
3695.674515  	93.787100 
3696.638940  	93.686637 
3697.603364  	93.754892 
3698.567789  	93.920948 
3699.532213  	93.866840 
3700.496638  	93.853826 
3701.461062  	93.147831 
3702.425487  	92.553505 
3703.389911  	93.408779 
3704.354335  	93.793348 
3705.318760  	93.745545 
3706.283184  	93.776187 
3707.247609  	93.881668 
3708.212033  	93.818958 
3709.176458  	93.169727 
3710.140882  	92.602299 
3711.105307  	92.282133 
3712.069731  	91.194793 
3713.034156  	91.463067 
3713.998580  	92.859912 
3714.963005  	92.913614 
3715.927429  	93.235503 
3716.891853  	93.853775 
3717.856278  	93.924316 
3718.820702  	93.271363 
3719.785127  	93.046461 
3720.749551  	93.647987 
3721.713976  	93.208524 
3722.678400  	91.918740 
3723.642825  	92.550335 
3724.607249  	92.877966 
3725.571674  	92.213767 
3726.536098  	91.963869 
3727.500522  	92.214589 
3728.464947  	93.150984 
3729.429371  	93.730247 
3730.393796  	93.704028 
3731.358220  	93.254810 
3732.322645  	92.447969 
3733.287069  	92.659932 
3734.251494  	92.027668 
3735.215918  	89.136995 
3736.180343  	89.423622 
3737.144767  	90.883704 
3738.109191  	91.811680 
3739.073616  	92.325600 
3740.038040  	92.896611 
3741.002465  	92.551983 
3741.966889  	92.675827 
3742.931314  	93.258745 
3743.895738  	92.414019 
3744.860163  	89.316352 
3745.824587  	91.160848 
3746.789012  	92.245139 
3747.753436  	92.359687 
3748.717860  	92.252770 
3749.682285  	91.684596 
3750.646709  	91.478110 
3751.611134  	91.099936 
3752.575558  	90.006098 
3753.539983  	91.694127 
3754.504407  	92.788970 
3755.468832  	93.358983 
3756.433256  	93.130009 
3757.397681  	93.114037 
3758.362105  	93.303299 
3759.326529  	92.304686 
3760.290954  	91.846927 
3761.255378  	93.266340 
3762.219803  	93.656821 
3763.184227  	93.730378 
3764.148652  	93.814768 
3765.113076  	93.381416 
3766.077501  	92.468875 
3767.041925  	93.131605 
3768.006350  	93.737260 
3768.970774  	93.506211 
3769.935199  	92.523264 
3770.899623  	92.652740 
3771.864047  	93.449965 
3772.828472  	93.805718 
3773.792896  	93.939555 
3774.757321  	93.980847 
3775.721745  	94.091341 
3776.686170  	94.200332 
3777.650594  	94.072707 
3778.615019  	93.638289 
3779.579443  	92.797468 
3780.543868  	92.972051 
3781.508292  	93.771852 
3782.472716  	93.872081 
3783.437141  	93.927653 
3784.401565  	93.585081 
3785.365990  	93.115760 
3786.330414  	93.438398 
3787.294839  	93.787172 
3788.259263  	93.991073 
3789.223688  	94.038115 
3790.188112  	94.025991 
3791.152537  	94.085374 
3792.116961  	94.091434 
3793.081385  	94.113642 
3794.045810  	94.143392 
3795.010234  	94.040251 
3795.974659  	93.463894 
3796.939083  	92.613841 
3797.903508  	92.909351 
3798.867932  	93.454563 
3799.832357  	93.544542 
3800.796781  	92.630297 
3801.761206  	91.247009 
3802.725630  	91.681724 
3803.690054  	92.646312 
3804.654479  	93.563411 
3805.618903  	93.715622 
3806.583328  	93.025034 
3807.547752  	92.388714 
3808.512177  	93.347549 
3809.476601  	93.736135 
3810.441026  	93.824663 
3811.405450  	93.952227 
3812.369875  	94.018182 
3813.334299  	94.092765 
3814.298723  	94.001059 
3815.263148  	93.376674 
3816.227572  	91.967986 
3817.191997  	92.339978 
3818.156421  	93.270824 
3819.120846  	93.256818 
3820.085270  	92.624340 
3821.049695  	91.075395 
3822.014119  	90.855574 
3822.978544  	92.555657 
3823.942968  	93.173721 
3824.907392  	93.425868 
3825.871817  	93.391157 
3826.836241  	92.845048 
3827.800666  	92.909738 
3828.765090  	93.509351 
3829.729515  	93.816677 
3830.693939  	93.716162 
3831.658364  	92.947732 
3832.622788  	93.005304 
3833.587213  	93.647716 
3834.551637  	93.218460 
3835.516062  	92.633815 
3836.480486  	93.220295 
3837.444910  	92.764457 
3838.409335  	91.664570 
3839.373759  	92.127807 
3840.338184  	91.581951 
3841.302608  	91.679999 
3842.267033  	93.054797 
3843.231457  	93.091879 
3844.195882  	92.346153 
3845.160306  	93.173696 
3846.124731  	93.714522 
3847.089155  	93.821986 
3848.053579  	93.834220 
3849.018004  	93.623772 
3849.982428  	93.148752 
3850.946853  	93.126235 
3851.911277  	92.357463 
3852.875702  	90.853212 
3853.840126  	90.146610 
3854.804551  	90.632436 
3855.768975  	92.510868 
3856.733400  	92.625830 
3857.697824  	92.231926 
3858.662248  	93.241944 
3859.626673  	93.889572 
3860.591097  	93.854549 
3861.555522  	93.202678 
3862.519946  	92.684100 
3863.484371  	93.004511 
3864.448795  	92.262190 
3865.413220  	91.246656 
3866.377644  	92.592674 
3867.342069  	93.620634 
3868.306493  	93.589371 
3869.270917  	92.381014 
3870.235342  	90.516405 
3871.199766  	91.713616 
3872.164191  	92.937285 
3873.128615  	93.299052 
3874.093040  	92.124550 
3875.057464  	92.057509 
3876.021889  	93.548696 
3876.986313  	93.941156 
3877.950738  	94.038816 
3878.915162  	93.990821 
3879.879586  	93.020979 
3880.844011  	91.230995 
3881.808435  	92.293901 
3882.772860  	93.219349 
3883.737284  	93.048290 
3884.701709  	93.032205 
3885.666133  	92.207355 
3886.630558  	91.794058 
3887.594982  	93.263396 
3888.559407  	93.834893 
3889.523831  	93.945627 
3890.488256  	93.520543 
3891.452680  	92.311744 
3892.417104  	92.202549 
3893.381529  	93.069779 
3894.345953  	93.048471 
3895.310378  	93.411370 
3896.274802  	93.918374 
3897.239227  	93.955287 
3898.203651  	93.337731 
3899.168076  	92.335583 
3900.132500  	92.231022 
3901.096925  	92.847571 
3902.061349  	91.652622 
3903.025773  	91.675443 
3903.990198  	92.019121 
3904.954622  	91.591356 
3905.919047  	91.948130 
3906.883471  	92.779890 
3907.847896  	93.755130 
3908.812320  	94.022158 
3909.776745  	94.034017 
3910.741169  	94.055563 
3911.705594  	94.056033 
3912.670018  	94.035524 
3913.634442  	94.046066 
3914.598867  	94.082291 
3915.563291  	93.910053 
3916.527716  	93.032941 
3917.492140  	92.330655 
3918.456565  	93.181463 
3919.420989  	93.425170 
3920.385414  	92.778953 
3921.349838  	93.305710 
3922.314263  	93.966770 
3923.278687  	93.698722 
3924.243111  	92.903624 
3925.207536  	92.405855 
3926.171960  	93.123704 
3927.136385  	93.905830 
3928.100809  	93.960334 
3929.065234  	93.726108 
3930.029658  	93.408750 
3930.994083  	93.220158 
3931.958507  	92.765395 
3932.922932  	92.359298 
3933.887356  	93.113979 
3934.851780  	93.554258 
3935.816205  	93.892226 
3936.780629  	94.065204 
3937.745054  	94.015033 
3938.709478  	93.795841 
3939.673903  	93.919430 
3940.638327  	94.022218 
3941.602752  	93.869902 
3942.567176  	93.002192 
3943.531601  	92.584386 
3944.496025  	93.385522 
3945.460449  	93.788771 
3946.424874  	93.912686 
3947.389298  	93.368074 
3948.353723  	92.992301 
3949.318147  	93.261583 
3950.282572  	93.002054 
3951.246996  	93.386811 
3952.211421  	93.911930 
3953.175845  	93.798036 
3954.140270  	93.857795 
3955.104694  	93.972251 
3956.069119  	93.900235 
3957.033543  	93.754967 
3957.997967  	93.737571 
3958.962392  	93.863868 
3959.926816  	93.920258 
3960.891241  	93.866082 
3961.855665  	93.490014 
3962.820090  	93.498882 
3963.784514  	93.934037 
3964.748939  	93.960208 
3965.713363  	94.012884 
3966.677788  	94.075674 
3967.642212  	94.072172 
3968.606636  	93.906833 
3969.571061  	93.692154 
3970.535485  	93.829356 
3971.499910  	93.952316 
3972.464334  	93.780562 
3973.428759  	93.872380 
3974.393183  	93.942926 
3975.357608  	93.769541 
3976.322032  	93.637796 
3977.286457  	93.834404 
3978.250881  	94.044478 
3979.215305  	94.028873 
3980.179730  	93.981642 
3981.144154  	93.935627 
3982.108579  	93.874133 
3983.073003  	93.895469 
3984.037428  	94.029811 
3985.001852  	94.055846 
3985.966277  	94.036911 
3986.930701  	94.059190 
3987.895126  	94.077219 
3988.859550  	94.067229 
3989.823974  	93.946123 
3990.788399  	93.742571 
3991.752823  	93.823701 
3992.717248  	93.975347 
3993.681672  	93.961599 
3994.646097  	93.854672 
3995.610521  	93.763187 
3996.574946  	93.938528 
3997.539370  	94.078697 
3998.503795  	94.076960 
3999.468219  	94.061390 
4000.432643  	94.111531 
4001.397068  	94.103140 
4002.361492  	94.041473 
4003.325917  	94.004044 
4004.290341  	94.028078 
4005.254766  	94.046439 
4006.219190  	94.044587 
4007.183615  	94.015510 
4008.148039  	93.898891 
4009.112464  	93.765762 
4010.076888  	93.924347 
4011.041313  	94.044418 
4012.005737  	94.047366 
4012.970161  	94.005928 
4013.934586  	94.029331 
4014.899010  	94.049210 
4015.863435  	94.012271 
4016.827859  	94.009675 
4017.792284  	94.010453 
4018.756708  	94.025652 
4019.721133  	93.975203 
4020.685557  	93.947304 
4021.649982  	93.999975 
4022.614406  	94.054561 
4023.578830  	94.024810 
4024.543255  	93.970569 
4025.507679  	93.913982 
4026.472104  	93.964750 
4027.436528  	94.050192 
4028.400953  	94.047223 
4029.365377  	94.044790 
4030.329802  	94.063171 
4031.294226  	94.041942 
4032.258651  	94.027025 
4033.223075  	94.061623 
4034.187499  	94.083540 
4035.151924  	94.069787 
4036.116348  	94.036561 
4037.080773  	94.018795 
4038.045197  	94.029469 
4039.009622  	94.053569 
4039.974046  	94.065177 
4040.938471  	94.103822 
4041.902895  	94.084541 
4042.867320  	94.078935 
4043.831744  	94.019995 
4044.796168  	93.924843 
4045.760593  	93.947888 
4046.725017  	94.044815 
4047.689442  	94.078397 
4048.653866  	94.056363 
4049.618291  	94.053405 
4050.582715  	94.066374 
4051.547140  	94.059633 
4052.511564  	94.081054 
4053.475989  	94.079834 
4054.440413  	94.043395 
4055.404837  	94.033954 
4056.369262  	94.107100 
4057.333686  	94.147573 
4058.298111  	94.137161 
4059.262535  	94.141436 
4060.226960  	94.096122 
4061.191384  	94.073667 
4062.155809  	94.098239 
4063.120233  	94.132507 
4064.084658  	94.132166 
4065.049082  	94.123538 
4066.013506  	94.145168 
4066.977931  	94.114343 
4067.942355  	94.068588 
4068.906780  	94.053630 
4069.871204  	94.082767 
4070.835629  	94.126126 
4071.800053  	94.111807 
4072.764478  	94.067124 
4073.728902  	94.074709 
4074.693327  	94.109115 
4075.657751  	94.143197 
4076.622176  	94.122603 
4077.586600  	94.124915 
4078.551024  	94.134391 
4079.515449  	94.075704 
4080.479873  	94.092645 
4081.444298  	94.145090 
4082.408722  	94.108837 
4083.373147  	94.053447 
4084.337571  	94.106347 
4085.301996  	94.128412 
4086.266420  	94.085397 
4087.230845  	94.061630 
4088.195269  	94.077075 
4089.159693  	94.126723 
4090.124118  	94.185811 
4091.088542  	94.177597 
4092.052967  	94.139543 
4093.017391  	94.156108 
4093.981816  	94.194340 
4094.946240  	94.179001 
4095.910665  	94.166783 
4096.875089  	94.189766 
4097.839514  	94.153917 
4098.803938  	94.044422 
4099.768362  	94.084419 
4100.732787  	94.135981 
4101.697211  	94.106243 
4102.661636  	94.103794 
4103.626060  	94.120244 
4104.590485  	94.100793 
4105.554909  	94.060372 
4106.519334  	94.071214 
4107.483758  	94.082361 
4108.448183  	94.084073 
4109.412607  	94.099442 
4110.377031  	94.075948 
4111.341456  	94.088167 
4112.305880  	94.107336 
4113.270305  	94.106701 
4114.234729  	94.123509 
4115.199154  	94.142731 
4116.163578  	94.095595 
4117.128003  	94.079460 
4118.092427  	94.106506 
4119.056852  	94.091261 
4120.021276  	94.066900 
4120.985700  	94.079821 
4121.950125  	94.115393 
4122.914549  	94.099108 
4123.878974  	94.068152 
4124.843398  	94.076855 
4125.807823  	94.124080 
4126.772247  	94.097194 
4127.736672  	94.085100 
4128.701096  	94.114375 
4129.665521  	94.123613 
4130.629945  	94.103842 
4131.594370  	94.128864 
4132.558794  	94.152721 
4133.523218  	94.079911 
4134.487643  	94.069384 
4135.452067  	94.080543 
4136.416492  	94.090392 
4137.380916  	94.127874 
4138.345341  	94.091971 
4139.309765  	94.035030 
4140.274190  	94.064366 
4141.238614  	94.077013 
4142.203039  	94.068197 
4143.167463  	94.150015 
4144.131887  	94.167664 
4145.096312  	94.143145 
4146.060736  	94.168356 
4147.025161  	94.157819 
4147.989585  	94.079442 
4148.954010  	93.976897 
4149.918434  	94.004868 
4150.882859  	94.097995 
4151.847283  	94.109894 
4152.811708  	94.052559 
4153.776132  	94.105083 
4154.740556  	94.132195 
4155.704981  	94.039854 
4156.669405  	94.006654 
4157.633830  	94.037715 
4158.598254  	94.063855 
4159.562679  	94.077523 
4160.527103  	94.056960 
4161.491528  	94.053611 
4162.455952  	94.059742 
4163.420377  	94.136583 
4164.384801  	94.181860 
4165.349225  	94.103137 
4166.313650  	94.045643 
4167.278074  	94.016707 
4168.242499  	94.024280 
4169.206923  	94.050511 
4170.171348  	94.098950 
4171.135772  	94.136561 
4172.100197  	94.111004 
4173.064621  	94.083153 
4174.029046  	94.115835 
4174.993470  	94.135143 
4175.957894  	94.181491 
4176.922319  	94.194601 
4177.886743  	94.135120 
4178.851168  	94.086229 
4179.815592  	94.071872 
4180.780017  	94.041733 
4181.744441  	94.043370 
4182.708866  	94.070919 
4183.673290  	94.099774 
4184.637715  	94.124848 
4185.602139  	94.095452 
4186.566563  	93.998991 
4187.530988  	93.975793 
4188.495412  	94.048916 
4189.459837  	94.102715 
4190.424261  	94.106215 
4191.388686  	94.094755 
4192.353110  	94.079845 
4193.317535  	94.054465 
4194.281959  	94.046005 
4195.246384  	94.073087 
4196.210808  	94.068058 
4197.175233  	94.082551 
4198.139657  	94.098367 
4199.104081  	94.053042 
4200.068506  	93.990030 
4201.032930  	94.009316 
4201.997355  	94.090188 
4202.961779  	94.148181 
4203.926204  	94.087377 
4204.890628  	94.047532 
4205.855053  	94.067385 
4206.819477  	94.035981 
4207.783902  	94.054885 
4208.748326  	94.084401 
4209.712750  	94.088852 
4210.677175  	94.090397 
4211.641599  	94.044602 
4212.606024  	94.036072 
4213.570448  	94.102524 
4214.534873  	94.145944 
4215.499297  	94.110111 
4216.463722  	94.086635 
4217.428146  	94.041136 
4218.392571  	94.037944 
4219.356995  	94.052302 
4220.321419  	94.082661 
4221.285844  	94.103086 
4222.250268  	94.116951 
4223.214693  	94.056669 
4224.179117  	94.038032 
4225.143542  	94.073935 
4226.107966  	94.118028 
4227.072391  	94.147715 
4228.036815  	94.079148 
4229.001240  	94.021382 
4229.965664  	94.008833 
4230.930088  	94.009867 
4231.894513  	94.070437 
4232.858937  	94.122878 
4233.823362  	94.134907 
4234.787786  	94.145757 
4235.752211  	94.131326 
4236.716635  	94.161775 
4237.681060  	94.155792 
4238.645484  	94.105182 
4239.609909  	94.050816 
4240.574333  	94.057751 
4241.538757  	94.135748 
4242.503182  	94.190674 
4243.467606  	94.151222 
4244.432031  	94.082621 
4245.396455  	94.116454 
4246.360880  	94.144861 
4247.325304  	94.130076 
4248.289729  	94.149806 
4249.254153  	94.161520 
4250.218578  	94.156227 
4251.183002  	94.172188 
4252.147427  	94.167090 
4253.111851  	94.126944 
4254.076275  	94.061879 
4255.040700  	94.027937 
4256.005124  	94.052046 
4256.969549  	94.143728 
4257.933973  	94.189921 
4258.898398  	94.146226 
4259.862822  	94.087709 
4260.827247  	94.069360 
4261.791671  	94.105764 
4262.756096  	94.152309 
4263.720520  	94.116827 
4264.684944  	94.055325 
4265.649369  	94.070711 
4266.613793  	94.144608 
4267.578218  	94.101060 
4268.542642  	94.077042 
4269.507067  	94.119627 
4270.471491  	94.134817 
4271.435916  	94.145023 
4272.400340  	94.093956 
4273.364765  	94.024282 
4274.329189  	94.089302 
4275.293613  	94.162710 
4276.258038  	94.150753 
4277.222462  	94.121761 
4278.186887  	94.057020 
4279.151311  	94.002713 
4280.115736  	94.014871 
4281.080160  	94.066599 
4282.044585  	94.066565 
4283.009009  	94.074055 
4283.973434  	94.107255 
4284.937858  	94.094988 
4285.902282  	94.080732 
4286.866707  	94.144542 
4287.831131  	94.155383 
4288.795556  	94.187330 
4289.759980  	94.162432 
4290.724405  	94.069501 
4291.688829  	94.074739 
4292.653254  	94.149597 
4293.617678  	94.187096 
4294.582103  	94.205292 
4295.546527  	94.176132 
4296.510951  	94.207507 
4297.475376  	94.215114 
4298.439800  	94.174249 
4299.404225  	94.158226 
4300.368649  	94.182607 
4301.333074  	94.151404 
4302.297498  	94.062834 
4303.261923  	94.053271 
4304.226347  	94.093761 
4305.190772  	94.168722 
4306.155196  	94.159927 
4307.119620  	94.146024 
4308.084045  	94.144603 
4309.048469  	94.185646 
4310.012894  	94.177034 
4310.977318  	94.164170 
4311.941743  	94.168680 
4312.906167  	94.134153 
4313.870592  	94.115180 
4314.835016  	94.160090 
4315.799441  	94.140792 
4316.763865  	94.122150 
4317.728290  	94.176039 
4318.692714  	94.194316 
4319.657138  	94.188925 
4320.621563  	94.157726 
4321.585987  	94.066135 
4322.550412  	94.035516 
4323.514836  	94.048638 
4324.479261  	94.076146 
4325.443685  	94.099070 
4326.408110  	94.131808 
4327.372534  	94.191446 
4328.336959  	94.190643 
4329.301383  	94.097514 
4330.265807  	94.130584 
4331.230232  	94.183091 
4332.194656  	94.084937 
4333.159081  	94.078870 
4334.123505  	94.095096 
4335.087930  	94.068260 
4336.052354  	94.096147 
4337.016779  	94.130980 
4337.981203  	94.122256 
4338.945628  	94.079537 
4339.910052  	94.077592 
4340.874476  	94.085853 
4341.838901  	94.130753 
4342.803325  	94.091014 
4343.767750  	94.007835 
4344.732174  	94.007918 
4345.696599  	94.011769 
4346.661023  	94.006333 
4347.625448  	93.988638 
4348.589872  	93.982693 
4349.554297  	94.041277 
4350.518721  	94.075741 
4351.483145  	94.060792 
4352.447570  	94.044119 
4353.411994  	94.070615 
4354.376419  	94.045894 
4355.340843  	94.071537 
4356.305268  	94.106320 
4357.269692  	94.091420 
4358.234117  	94.116252 
4359.198541  	94.055030 
4360.162966  	94.006437 
4361.127390  	94.015753 
4362.091814  	94.038455 
4363.056239  	94.072341 
4364.020663  	94.083575 
4364.985088  	94.017443 
4365.949512  	94.014571 
4366.913937  	94.008597 
4367.878361  	93.968148 
4368.842786  	94.034347 
4369.807210  	94.106279 
4370.771635  	94.096802 
4371.736059  	94.050334 
4372.700484  	93.990926 
4373.664908  	94.010934 
4374.629332  	94.092265 
4375.593757  	94.127022 
4376.558181  	94.136490 
4377.522606  	94.141717 
4378.487030  	94.141817 
4379.451455  	94.108713 
4380.415879  	94.062029 
4381.380304  	94.051405 
4382.344728  	94.089557 
4383.309153  	94.159330 
4384.273577  	94.191583 
4385.238001  	94.199224 
4386.202426  	94.178193 
4387.166850  	94.158274 
4388.131275  	94.146079 
4389.095699  	94.089824 
4390.060124  	94.094915 
4391.024548  	94.210657 
4391.988973  	94.255672 
4392.953397  	94.226272 
4393.917822  	94.216277 
4394.882246  	94.168449 
4395.846670  	94.152033 
4396.811095  	94.166939 
4397.775519  	94.211668 
4398.739944  	94.284538 
4399.704368  	94.319830 
4400.668793  	94.319987 
4401.633217  	94.192560 
4402.597642  	94.133231 
4403.562066  	94.256529 
4404.526491  	94.324665 
4405.490915  	94.306044 
4406.455339  	94.239021 
4407.419764  	94.205427 
4408.384188  	94.208320 
4409.348613  	94.217631 
4410.313037  	94.238019 
4411.277462  	94.199721 
4412.241886  	94.190481 
4413.206311  	94.257158 
4414.170735  	94.300845 
4415.135160  	94.334674 
4416.099584  	94.345821 
4417.064008  	94.232851 
4418.028433  	94.134085 
4418.992857  	94.160659 
4419.957282  	94.186972 
4420.921706  	94.211900 
4421.886131  	94.226473 
4422.850555  	94.228544 
4423.814980  	94.193904 
4424.779404  	94.195886 
4425.743829  	94.207576 
4426.708253  	94.223610 
4427.672677  	94.234124 
4428.637102  	94.221821 
4429.601526  	94.197420 
4430.565951  	94.187688 
4431.530375  	94.199179 
4432.494800  	94.172910 
4433.459224  	94.199176 
4434.423649  	94.221290 
4435.388073  	94.255861 
4436.352498  	94.341260 
4437.316922  	94.346751 
4438.281347  	94.325957 
4439.245771  	94.271798 
4440.210195  	94.287365 
4441.174620  	94.340897 
4442.139044  	94.325583 
4443.103469  	94.360159 
4444.067893  	94.346527 
4445.032318  	94.359113 
4445.996742  	94.401164 
4446.961167  	94.330646 
4447.925591  	94.247036 
4448.890016  	94.219132 
4449.854440  	94.181501 
4450.818864  	94.215406 
4451.783289  	94.273545 
4452.747713  	94.289022 
4453.712138  	94.234607 
4454.676562  	94.210327 
4455.640987  	94.263099 
4456.605411  	94.324023 
4457.569836  	94.299045 
4458.534260  	94.284485 
4459.498685  	94.277394 
4460.463109  	94.252155 
4461.427533  	94.256512 
4462.391958  	94.241161 
4463.356382  	94.207264 
4464.320807  	94.249804 
4465.285231  	94.237991 
4466.249656  	94.279344 
4467.214080  	94.352988 
4468.178505  	94.290794 
4469.142929  	94.280186 
4470.107354  	94.298633 
4471.071778  	94.239566 
4472.036202  	94.274205 
4473.000627  	94.368175 
4473.965051  	94.318483 
4474.929476  	94.214699 
4475.893900  	94.219948 
4476.858325  	94.190464 
4477.822749  	94.193366 
4478.787174  	94.316928 
4479.751598  	94.353268 
4480.716023  	94.257627 
4481.680447  	94.219258 
4482.644871  	94.231168 
4483.609296  	94.230330 
4484.573720  	94.254708 
4485.538145  	94.264681 
4486.502569  	94.264888 
4487.466994  	94.311085 
4488.431418  	94.416352 
4489.395843  	94.339768 
4490.360267  	94.271343 
4491.324692  	94.278677 
4492.289116  	94.229721 
4493.253541  	94.270663 
4494.217965  	94.313520 
4495.182389  	94.314634 
4496.146814  	94.285612 
4497.111238  	94.263921 
4498.075663  	94.268474 
4499.040087  	94.264428 
4500.004512  	94.218692 
4500.968936  	94.239301 
4501.933361  	94.222517 
4502.897785  	94.295592 
4503.862210  	94.359397 
4504.826634  	94.317045 
4505.791058  	94.255401 
4506.755483  	94.246948 
4507.719907  	94.285744 
4508.684332  	94.344947 
4509.648756  	94.256182 
4510.613181  	94.207573 
4511.577605  	94.286838 
4512.542030  	94.383758 
4513.506454  	94.383212 
4514.470879  	94.278127 
4515.435303  	94.202243 
4516.399727  	94.231652 
4517.364152  	94.238872 
4518.328576  	94.210850 
4519.293001  	94.240863 
4520.257425  	94.253850 
4521.221850  	94.195097 
4522.186274  	94.245255 
4523.150699  	94.273383 
4524.115123  	94.270784 
4525.079548  	94.299808 
4526.043972  	94.335680 
4527.008396  	94.313793 
4527.972821  	94.289898 
4528.937245  	94.243045 
4529.901670  	94.164697 
4530.866094  	94.275614 
4531.830519  	94.376291 
4532.794943  	94.274378 
4533.759368  	94.230008 
4534.723792  	94.216826 
4535.688217  	94.173268 
4536.652641  	94.198341 
4537.617065  	94.257925 
4538.581490  	94.327171 
4539.545914  	94.354462 
4540.510339  	94.305595 
4541.474763  	94.245541 
4542.439188  	94.190298 
4543.403612  	94.239312 
4544.368037  	94.271365 
4545.332461  	94.242656 
4546.296886  	94.279008 
4547.261310  	94.245778 
4548.225734  	94.242450 
4549.190159  	94.239029 
4550.154583  	94.240437 
4551.119008  	94.198248 
4552.083432  	94.151303 
4553.047857  	94.229231 
4554.012281  	94.311276 
4554.976706  	94.287613 
4555.941130  	94.268581 
4556.905555  	94.247180 
4557.869979  	94.259818 
4558.834404  	94.259347 
4559.798828  	94.212769 
4560.763252  	94.176638 
4561.727677  	94.173650 
4562.692101  	94.171648 
4563.656526  	94.259772 
4564.620950  	94.312314 
4565.585375  	94.196368 
4566.549799  	94.160108 
4567.514224  	94.194097 
4568.478648  	94.251687 
4569.443073  	94.293168 
4570.407497  	94.269220 
4571.371921  	94.288725 
4572.336346  	94.283683 
4573.300770  	94.302670 
4574.265195  	94.258392 
4575.229619  	94.238586 
4576.194044  	94.220639 
4577.158468  	94.206863 
4578.122893  	94.262556 
4579.087317  	94.241676 
4580.051742  	94.218550 
4581.016166  	94.294544 
4581.980590  	94.359071 
4582.945015  	94.360846 
4583.909439  	94.344021 
4584.873864  	94.300734 
4585.838288  	94.191921 
4586.802713  	94.199406 
4587.767137  	94.176304 
4588.731562  	94.242050 
4589.695986  	94.292081 
4590.660411  	94.243258 
4591.624835  	94.233127 
4592.589259  	94.242647 
4593.553684  	94.271610 
4594.518108  	94.225925 
4595.482533  	94.207164 
4596.446957  	94.202652 
4597.411382  	94.110989 
4598.375806  	94.144511 
4599.340231  	94.320179 
4600.304655  	94.378554 
4601.269080  	94.285123 
4602.233504  	94.232603 
4603.197928  	94.211456 
4604.162353  	94.223940 
4605.126777  	94.257094 
4606.091202  	94.278983 
4607.055626  	94.289410 
4608.020051  	94.291659 
4608.984475  	94.280007 
4609.948900  	94.284399 
4610.913324  	94.288187 
4611.877749  	94.260494 
4612.842173  	94.265203 
4613.806598  	94.273419 
4614.771022  	94.291846 
4615.735446  	94.326849 
4616.699871  	94.256093 
4617.664295  	94.182997 
4618.628720  	94.151218 
4619.593144  	94.178851 
4620.557569  	94.297925 
4621.521993  	94.288311 
4622.486418  	94.238132 
4623.450842  	94.226534 
4624.415267  	94.252694 
4625.379691  	94.356852 
4626.344115  	94.373036 
4627.308540  	94.318217 
4628.272964  	94.279838 
4629.237389  	94.291414 
4630.201813  	94.312253 
4631.166238  	94.281198 
4632.130662  	94.288498 
4633.095087  	94.263275 
4634.059511  	94.251358 
4635.023936  	94.333892 
4635.988360  	94.376859 
4636.952784  	94.347863 
4637.917209  	94.324827 
4638.881633  	94.306710 
4639.846058  	94.269737 
4640.810482  	94.299602 
4641.774907  	94.287086 
4642.739331  	94.175463 
4643.703756  	94.168414 
4644.668180  	94.300197 
4645.632605  	94.259538 
4646.597029  	94.270101 
4647.561453  	94.332041 
4648.525878  	94.305967 
4649.490302  	94.281098 
4650.454727  	94.312683 
4651.419151  	94.281526 
4652.383576  	94.218345 
4653.348000  	94.287481 
4654.312425  	94.332048 
4655.276849  	94.274103 
4656.241274  	94.177858 
4657.205698  	94.206041 
4658.170122  	94.225830 
4659.134547  	94.194400 
4660.098971  	94.175791 
4661.063396  	94.241158 
4662.027820  	94.327114 
4662.992245  	94.305473 
4663.956669  	94.264958 
4664.921094  	94.320778 
4665.885518  	94.350131 
4666.849943  	94.346035 
4667.814367  	94.328283 
4668.778791  	94.394789 
4669.743216  	94.374841 
4670.707640  	94.236242 
4671.672065  	94.193942 
4672.636489  	94.253254 
4673.600914  	94.287274 
4674.565338  	94.320089 
4675.529763  	94.296815 
4676.494187  	94.312519 
4677.458612  	94.340676 
4678.423036  	94.326281 
4679.387461  	94.308400 
4680.351885  	94.265541 
4681.316309  	94.245413 
4682.280734  	94.295129 
4683.245158  	94.312557 
4684.209583  	94.308781 
4685.174007  	94.363448 
4686.138432  	94.356842 
4687.102856  	94.327040 
4688.067281  	94.340933 
4689.031705  	94.279548 
4689.996130  	94.353482 
4690.960554  	94.389835 
4691.924978  	94.260352 
4692.889403  	94.185387 
4693.853827  	94.230339 
4694.818252  	94.318577 
4695.782676  	94.352019 
4696.747101  	94.300080 
4697.711525  	94.343696 
4698.675950  	94.388297 
4699.640374  	94.393292 