##TITLE=No Description
##DATA TYPE=INFRARED SPECTRUM
##XUNITS=1/CM
##YUNITS=%T
400.236149  	98.059957 
401.200574  	94.557319 
402.164998  	87.891322 
403.129423  	79.283597 
404.093847  	81.639969 
405.058272  	77.574901 
406.022696  	85.201626 
406.987120  	86.651526 
407.951545  	80.865846 
408.915969  	75.701494 
409.880394  	76.326048 
410.844818  	85.313638 
411.809243  	101.406035 
412.773667  	100.551611 
413.738092  	86.509400 
414.702516  	77.155069 
415.666941  	78.203809 
416.631365  	84.425649 
417.595789  	87.804244 
418.560214  	91.025788 
419.524638  	95.215823 
420.489063  	87.537285 
421.453487  	83.417301 
422.417912  	80.833819 
423.382336  	80.011919 
424.346761  	80.892140 
425.311185  	78.450959 
426.275610  	80.322133 
427.240034  	83.063694 
428.204458  	83.088152 
429.168883  	82.817200 
430.133307  	82.000515 
431.097732  	79.151186 
432.062156  	76.890051 
433.026581  	77.734359 
433.991005  	78.729655 
434.955430  	79.400312 
435.919854  	79.177473 
436.884279  	78.565484 
437.848703  	78.148218 
438.813127  	78.031512 
439.777552  	79.120710 
440.741976  	79.289498 
441.706401  	79.740414 
442.670825  	80.661520 
443.635250  	80.120705 
444.599674  	79.707495 
445.564099  	79.473369 
446.528523  	78.357437 
447.492948  	78.080172 
448.457372  	79.098295 
449.421796  	78.798872 
450.386221  	77.610564 
451.350645  	76.815551 
452.315070  	75.675578 
453.279494  	75.553168 
454.243919  	76.775797 
455.208343  	77.002102 
456.172768  	76.446981 
457.137192  	75.739982 
458.101617  	75.984728 
459.066041  	76.573574 
460.030466  	76.384900 
460.994890  	75.744838 
461.959314  	75.655714 
462.923739  	75.217619 
463.888163  	75.091528 
464.852588  	75.550518 
465.817012  	76.657863 
466.781437  	75.866096 
467.745861  	74.284750 
468.710286  	74.305201 
469.674710  	73.874263 
470.639135  	73.608495 
471.603559  	74.050536 
472.567983  	75.041145 
473.532408  	75.524756 
474.496832  	75.585530 
475.461257  	75.232863 
476.425681  	73.980713 
477.390106  	74.503619 
478.354530  	75.579386 
479.318955  	74.577490 
480.283379  	73.921453 
481.247804  	74.804517 
482.212228  	74.597567 
483.176652  	74.884942 
484.141077  	75.197076 
485.105501  	73.825746 
486.069926  	72.757629 
487.034350  	72.913494 
487.998775  	73.371284 
488.963199  	73.759458 
489.927624  	74.103756 
490.892048  	73.594994 
491.856473  	72.887154 
492.820897  	72.797914 
493.785321  	73.194565 
494.749746  	73.186076 
495.714170  	72.777519 
496.678595  	72.338515 
497.643019  	72.451803 
498.607444  	72.513524 
499.571868  	72.467455 
500.536293  	72.447025 
501.500717  	71.834046 
502.465142  	71.567967 
503.429566  	71.898997 
504.393990  	71.706579 
505.358415  	71.509903 
506.322839  	70.885479 
507.287264  	70.461469 
508.251688  	70.868348 
509.216113  	71.249854 
510.180537  	71.011725 
511.144962  	70.947867 
512.109386  	70.732489 
513.073811  	70.568200 
514.038235  	70.584889 
515.002660  	70.424690 
515.967084  	70.091165 
516.931508  	69.830206 
517.895933  	70.401365 
518.860357  	70.014045 
519.824782  	69.172609 
520.789206  	69.394382 
521.753631  	69.725772 
522.718055  	69.817272 
523.682480  	69.378919 
524.646904  	68.846770 
525.611329  	68.035052 
526.575753  	67.962816 
527.540177  	68.668675 
528.504602  	68.704218 
529.469026  	68.127816 
530.433451  	67.999722 
531.397875  	67.685297 
532.362300  	67.416101 
533.326724  	67.664657 
534.291149  	67.594435 
535.255573  	67.497533 
536.219998  	67.793664 
537.184422  	68.635465 
538.148846  	68.888556 
539.113271  	69.084947 
540.077695  	69.253753 
541.042120  	69.668750 
542.006544  	70.019737 
542.970969  	70.182198 
543.935393  	70.317174 
544.899818  	70.045174 
545.864242  	69.766174 
546.828667  	69.909672 
547.793091  	69.832259 
548.757515  	69.824389 
549.721940  	69.852137 
550.686364  	69.584531 
551.650789  	69.379881 
552.615213  	68.786717 
553.579638  	68.673103 
554.544062  	68.440249 
555.508487  	68.271432 
556.472911  	68.117992 
557.437336  	67.619194 
558.401760  	67.299347 
559.366184  	67.271212 
560.330609  	66.851202 
561.295033  	66.512241 
562.259458  	66.033510 
563.223882  	65.276436 
564.188307  	64.786689 
565.152731  	64.855131 
566.117156  	64.319602 
567.081580  	63.478791 
568.046005  	62.815352 
569.010429  	62.286620 
569.974853  	61.643046 
570.939278  	61.080972 
571.903702  	60.601514 
572.868127  	60.201400 
573.832551  	59.600599 
574.796976  	59.223482 
575.761400  	58.618109 
576.725825  	58.638221 
577.690249  	58.926862 
578.654674  	59.221271 
579.619098  	59.557057 
580.583523  	60.037600 
581.547947  	61.057551 
582.512371  	62.254302 
583.476796  	63.097536 
584.441220  	63.847464 
585.405645  	64.774363 
586.370069  	66.038080 
587.334494  	66.843896 
588.298918  	67.306119 
589.263343  	67.639802 
590.227767  	68.189783 
591.192192  	68.384261 
592.156616  	68.591526 
593.121040  	69.292860 
594.085465  	69.736734 
595.049889  	70.016881 
596.014314  	70.207559 
596.978738  	70.411969 
597.943163  	70.646303 
598.907587  	70.855003 
599.872012  	70.843702 
600.836436  	71.011041 
601.800861  	71.320450 
602.765285  	71.467072 
603.729709  	71.500653 
604.694134  	71.555504 
605.658558  	71.757655 
606.622983  	71.985203 
607.587407  	71.836397 
608.551832  	71.768308 
609.516256  	72.115685 
610.480681  	72.120303 
611.445105  	72.028123 
612.409530  	72.220015 
613.373954  	72.303497 
614.338378  	71.926203 
615.302803  	71.795660 
616.267227  	71.881236 
617.231652  	72.230046 
618.196076  	72.273215 
619.160501  	72.181391 
620.124925  	72.015286 
621.089350  	72.164813 
622.053774  	72.148988 
623.018199  	72.103363 
623.982623  	71.873755 
624.947047  	71.860374 
625.911472  	71.917004 
626.875896  	72.098924 
627.840321  	72.141820 
628.804745  	72.163475 
629.769170  	72.048547 
630.733594  	71.923439 
631.698019  	71.970788 
632.662443  	71.977270 
633.626868  	71.780814 
634.591292  	71.658194 
635.555717  	71.372350 
636.520141  	71.462363 
637.484565  	71.604498 
638.448990  	71.547946 
639.413414  	71.273854 
640.377839  	71.031379 
641.342263  	70.937301 
642.306688  	70.808224 
643.271112  	70.769531 
644.235537  	70.694494 
645.199961  	70.541942 
646.164386  	70.497584 
647.128810  	70.369357 
648.093234  	70.077690 
649.057659  	69.829972 
650.022083  	69.693088 
650.986508  	69.500864 
651.950932  	69.222015 
652.915357  	68.865695 
653.879781  	68.677876 
654.844206  	68.453526 
655.808630  	68.130064 
656.773055  	67.882748 
657.737479  	67.705595 
658.701903  	67.357161 
659.666328  	67.103384 
660.630752  	66.835569 
661.595177  	66.551901 
662.559601  	66.251678 
663.524026  	65.970007 
664.488450  	65.733010 
665.452875  	65.447735 
666.417299  	65.129528 
667.381724  	64.844751 
668.346148  	64.146053 
669.310572  	63.914113 
670.274997  	63.775087 
671.239421  	63.536085 
672.203846  	63.373857 
673.168270  	63.180762 
674.132695  	62.793433 
675.097119  	62.528920 
676.061544  	62.285553 
677.025968  	62.074320 
677.990393  	61.955553 
678.954817  	61.866300 
679.919241  	61.805743 
680.883666  	61.736991 
681.848090  	61.635181 
682.812515  	61.663107 
683.776939  	61.562325 
684.741364  	61.589454 
685.705788  	61.598928 
686.670213  	61.753517 
687.634637  	61.998974 
688.599062  	62.242068 
689.563486  	62.504597 
690.527910  	62.969448 
691.492335  	63.447241 
692.456759  	63.959953 
693.421184  	64.504679 
694.385608  	65.167341 
695.350033  	65.704190 
696.314457  	66.101129 
697.278882  	66.478355 
698.243306  	66.880779 
699.207731  	67.375903 
700.172155  	68.041616 
701.136580  	68.409895 
702.101004  	68.641510 
703.065428  	68.991617 
704.029853  	69.329274 
704.994277  	69.545229 
705.958702  	69.830916 
706.923126  	70.063922 
707.887551  	70.281090 
708.851975  	70.526063 
709.816400  	70.721264 
710.780824  	70.848289 
711.745249  	70.986891 
712.709673  	71.177790 
713.674097  	71.250636 
714.638522  	71.458925 
715.602946  	71.553762 
716.567371  	71.450819 
717.531795  	71.469953 
718.496220  	71.488247 
719.460644  	71.441951 
720.425069  	71.481645 
721.389493  	71.622991 
722.353918  	71.721765 
723.318342  	71.687191 
724.282766  	71.637141 
725.247191  	71.509624 
726.211615  	71.401562 
727.176040  	71.397797 
728.140464  	71.366422 
729.104889  	71.473444 
730.069313  	71.713713 
731.033738  	72.182445 
731.998162  	72.851905 
732.962587  	73.638973 
733.927011  	74.434444 
734.891435  	75.170047 
735.855860  	75.875453 
736.820284  	76.624161 
737.784709  	77.327644 
738.749133  	77.971565 
739.713558  	78.519378 
740.677982  	79.007907 
741.642407  	79.380035 
742.606831  	79.731542 
743.571256  	79.882828 
744.535680  	79.924806 
745.500104  	80.151431 
746.464529  	80.367240 
747.428953  	80.455295 
748.393378  	80.589525 
749.357802  	80.611952 
750.322227  	80.647418 
751.286651  	80.732794 
752.251076  	80.831080 
753.215500  	81.029523 
754.179925  	81.140918 
755.144349  	81.247587 
756.108774  	81.539386 
757.073198  	81.666959 
758.037622  	81.678893 
759.002047  	81.671086 
759.966471  	81.704090 
760.930896  	81.804553 
761.895320  	82.026163 
762.859745  	82.241932 
763.824169  	82.385219 
764.788594  	82.472446 
765.753018  	82.566916 
766.717443  	82.695746 
767.681867  	82.805718 
768.646291  	82.848188 
769.610716  	82.990100 
770.575140  	83.200443 
771.539565  	83.309772 
772.503989  	83.322085 
773.468414  	83.450317 
774.432838  	83.638366 
775.397263  	83.850102 
776.361687  	83.909321 
777.326112  	83.944135 
778.290536  	83.967439 
779.254960  	84.120993 
780.219385  	84.175699 
781.183809  	84.417293 
782.148234  	84.410956 
783.112658  	84.523554 
784.077083  	84.563105 
785.041507  	84.557790 
786.005932  	84.727866 
786.970356  	84.713893 
787.934781  	84.673594 
788.899205  	84.750374 
789.863629  	84.916023 
790.828054  	84.983278 
791.792478  	84.979520 
792.756903  	84.955310 
793.721327  	85.035950 
794.685752  	85.010616 
795.650176  	85.076131 
796.614601  	85.205933 
797.579025  	85.330128 
798.543450  	85.278496 
799.507874  	85.368194 
800.472298  	85.628748 
801.436723  	85.886680 
802.401147  	85.970326 
803.365572  	86.058496 
804.329996  	86.167772 
805.294421  	86.244949 
806.258845  	86.414417 
807.223270  	86.573066 
808.187694  	86.573591 
809.152119  	86.622655 
810.116543  	86.743946 
811.080967  	86.797170 
812.045392  	86.794856 
813.009816  	86.871367 
813.974241  	86.995293 
814.938665  	87.095359 
815.903090  	87.153135 
816.867514  	87.176800 
817.831939  	87.251856 
818.796363  	87.406858 
819.760788  	87.526448 
820.725212  	87.605684 
821.689637  	87.629385 
822.654061  	87.707370 
823.618485  	87.778452 
824.582910  	87.771402 
825.547334  	87.731273 
826.511759  	87.789750 
827.476183  	87.893484 
828.440608  	88.006920 
829.405032  	88.068547 
830.369457  	88.101402 
831.333881  	88.143437 
832.298306  	88.224236 
833.262730  	88.225985 
834.227154  	88.264617 
835.191579  	88.358367 
836.156003  	88.386881 
837.120428  	88.295664 
838.084852  	88.239178 
839.049277  	88.284971 
840.013701  	88.359212 
840.978126  	88.398150 
841.942550  	88.505899 
842.906975  	88.571345 
843.871399  	88.587700 
844.835823  	88.556020 
845.800248  	88.589511 
846.764672  	88.645869 
847.729097  	88.717156 
848.693521  	88.686718 
849.657946  	88.718146 
850.622370  	88.794176 
851.586795  	88.860500 
852.551219  	88.748292 
853.515644  	88.728734 
854.480068  	88.777913 
855.444492  	88.780445 
856.408917  	88.720859 
857.373341  	88.777879 
858.337766  	88.935280 
859.302190  	89.002837 
860.266615  	88.961215 
861.231039  	88.924491 
862.195464  	88.913532 
863.159888  	88.973180 
864.124313  	89.003601 
865.088737  	89.000555 
866.053161  	89.011779 
867.017586  	88.965139 
867.982010  	88.893955 
868.946435  	88.908612 
869.910859  	89.011974 
870.875284  	89.006791 
871.839708  	88.952570 
872.804133  	88.894277 
873.768557  	88.926635 
874.732982  	88.931175 
875.697406  	88.868954 
876.661831  	88.775157 
877.626255  	88.714034 
878.590679  	88.753888 
879.555104  	88.813380 
880.519528  	88.831062 
881.483953  	88.739784 
882.448377  	88.678546 
883.412802  	88.714019 
884.377226  	88.724250 
885.341651  	88.682245 
886.306075  	88.636376 
887.270500  	88.640651 
888.234924  	88.687951 
889.199348  	88.564040 
890.163773  	88.457000 
891.128197  	88.484940 
892.092622  	88.472472 
893.057046  	88.354562 
894.021471  	88.287358 
894.985895  	88.259351 
895.950320  	88.143968 
896.914744  	87.981312 
897.879169  	87.833729 
898.843593  	87.665360 
899.808017  	87.459970 
900.772442  	87.140131 
901.736866  	86.728880 
902.701291  	86.401394 
903.665715  	86.142967 
904.630140  	85.868433 
905.594564  	85.692236 
906.558989  	85.776404 
907.523413  	86.030623 
908.487838  	86.252503 
909.452262  	86.544002 
910.416686  	86.868623 
911.381111  	87.028557 
912.345535  	87.015314 
913.309960  	87.010411 
914.274384  	86.966073 
915.238809  	86.820934 
916.203233  	86.662819 
917.167658  	86.562387 
918.132082  	86.429557 
919.096507  	86.292716 
920.060931  	86.168444 
921.025355  	86.006355 
921.989780  	85.775712 
922.954204  	85.495386 
923.918629  	85.168595 
924.883053  	84.870771 
925.847478  	84.502565 
926.811902  	84.024663 
927.776327  	83.538240 
928.740751  	82.929687 
929.705176  	82.242958 
930.669600  	81.484154 
931.634024  	80.717013 
932.598449  	80.086860 
933.562873  	79.572866 
934.527298  	79.362883 
935.491722  	79.577918 
936.456147  	80.241821 
937.420571  	81.233860 
938.384996  	82.261629 
939.349420  	83.200315 
940.313845  	84.076613 
941.278269  	84.805767 
942.242694  	85.400955 
943.207118  	85.835288 
944.171542  	86.177687 
945.135967  	86.476646 
946.100391  	86.702500 
947.064816  	86.889696 
948.029240  	87.052044 
948.993665  	87.194942 
949.958089  	87.325703 
950.922514  	87.455236 
951.886938  	87.567265 
952.851363  	87.619715 
953.815787  	87.681075 
954.780211  	87.754889 
955.744636  	87.838236 
956.709060  	87.902238 
957.673485  	87.933997 
958.637909  	87.956830 
959.602334  	87.954251 
960.566758  	87.989112 
961.531183  	88.047182 
962.495607  	88.057441 
963.460032  	88.117170 
964.424456  	88.195917 
965.388880  	88.157133 
966.353305  	88.129384 
967.317729  	88.207457 
968.282154  	88.222519 
969.246578  	88.195187 
970.211003  	88.196356 
971.175427  	88.195795 
972.139852  	88.145582 
973.104276  	88.124301 
974.068701  	88.124433 
975.033125  	88.121874 
975.997549  	88.070218 
976.961974  	88.019942 
977.926398  	87.993546 
978.890823  	87.978718 
979.855247  	87.924947 
980.819672  	87.839501 
981.784096  	87.796863 
982.748521  	87.754051 
983.712945  	87.638508 
984.677370  	87.467649 
985.641794  	87.338944 
986.606218  	87.272423 
987.570643  	87.235916 
988.535067  	87.220221 
989.499492  	87.212501 
990.463916  	87.192153 
991.428341  	87.153398 
992.392765  	87.081876 
993.357190  	86.998262 
994.321614  	86.920404 
995.286039  	86.880831 
996.250463  	86.851472 
997.214888  	86.793958 
998.179312  	86.752705 
999.143736  	86.697105 
1000.108161  	86.618040 
1001.072585  	86.552386 
1002.037010  	86.524891 
1003.001434  	86.491165 
1003.965859  	86.403367 
1004.930283  	86.286457 
1005.894708  	86.182517 
1006.859132  	86.070708 
1007.823557  	85.934950 
1008.787981  	85.836495 
1009.752405  	85.742156 
1010.716830  	85.610598 
1011.681254  	85.489357 
1012.645679  	85.461136 
1013.610103  	85.436604 
1014.574528  	85.338579 
1015.538952  	85.286578 
1016.503377  	85.309180 
1017.467801  	85.331877 
1018.432226  	85.292163 
1019.396650  	85.291541 
1020.361074  	85.311639 
1021.325499  	85.323957 
1022.289923  	85.304255 
1023.254348  	85.264932 
1024.218772  	85.225496 
1025.183197  	85.193075 
1026.147621  	85.130046 
1027.112046  	85.094541 
1028.076470  	85.059754 
1029.040895  	84.950392 
1030.005319  	84.844065 
1030.969743  	84.776938 
1031.934168  	84.758279 
1032.898592  	84.746628 
1033.863017  	84.663722 
1034.827441  	84.510759 
1035.791866  	84.432886 
1036.756290  	84.409941 
1037.720715  	84.326219 
1038.685139  	84.250402 
1039.649564  	84.239518 
1040.613988  	84.218152 
1041.578412  	84.185545 
1042.542837  	84.218141 
1043.507261  	84.316070 
1044.471686  	84.375504 
1045.436110  	84.391070 
1046.400535  	84.512292 
1047.364959  	84.649956 
1048.329384  	84.688902 
1049.293808  	84.730293 
1050.258233  	84.836387 
1051.222657  	84.899830 
1052.187081  	84.898957 
1053.151506  	84.912158 
1054.115930  	84.932880 
1055.080355  	84.906976 
1056.044779  	84.818880 
1057.009204  	84.762732 
1057.973628  	84.730953 
1058.938053  	84.686093 
1059.902477  	84.590500 
1060.866902  	84.496490 
1061.831326  	84.494193 
1062.795751  	84.467821 
1063.760175  	84.377929 
1064.724599  	84.343182 
1065.689024  	84.429585 
1066.653448  	84.561569 
1067.617873  	84.664654 
1068.582297  	84.774007 
1069.546722  	84.958293 
1070.511146  	85.178177 
1071.475571  	85.308124 
1072.439995  	85.397403 
1073.404420  	85.464511 
1074.368844  	85.492705 
1075.333268  	85.508007 
1076.297693  	85.510990 
1077.262117  	85.460645 
1078.226542  	85.494154 
1079.190966  	85.513553 
1080.155391  	85.440013 
1081.119815  	85.393719 
1082.084240  	85.351212 
1083.048664  	85.300704 
1084.013089  	85.283918 
1084.977513  	85.223485 
1085.941937  	85.099960 
1086.906362  	84.993860 
1087.870786  	84.936653 
1088.835211  	84.848034 
1089.799635  	84.744109 
1090.764060  	84.671133 
1091.728484  	84.660019 
1092.692909  	84.649305 
1093.657333  	84.583397 
1094.621758  	84.478093 
1095.586182  	84.480975 
1096.550606  	84.511552 
1097.515031  	84.499040 
1098.479455  	84.513241 
1099.443880  	84.517567 
1100.408304  	84.495140 
1101.372729  	84.488135 
1102.337153  	84.530295 
1103.301578  	84.568837 
1104.266002  	84.558259 
1105.230427  	84.602535 
1106.194851  	84.628388 
1107.159275  	84.631060 
1108.123700  	84.620277 
1109.088124  	84.587824 
1110.052549  	84.586846 
1111.016973  	84.619412 
1111.981398  	84.624318 
1112.945822  	84.616920 
1113.910247  	84.601559 
1114.874671  	84.566256 
1115.839096  	84.536381 
1116.803520  	84.511852 
1117.767945  	84.467019 
1118.732369  	84.458447 
1119.696793  	84.461046 
1120.661218  	84.384370 
1121.625642  	84.237699 
1122.590067  	84.125427 
1123.554491  	84.039446 
1124.518916  	83.917000 
1125.483340  	83.811728 
1126.447765  	83.739457 
1127.412189  	83.644731 
1128.376614  	83.514355 
1129.341038  	83.318255 
1130.305462  	83.123095 
1131.269887  	82.914442 
1132.234311  	82.555961 
1133.198736  	82.104240 
1134.163160  	81.637840 
1135.127585  	81.133105 
1136.092009  	80.596716 
1137.056434  	80.118750 
1138.020858  	79.808475 
1138.985283  	79.669567 
1139.949707  	79.643397 
1140.914131  	79.735549 
1141.878556  	79.860497 
1142.842980  	79.884475 
1143.807405  	79.896559 
1144.771829  	79.939174 
1145.736254  	79.960405 
1146.700678  	80.003370 
1147.665103  	80.045221 
1148.629527  	80.144495 
1149.593952  	80.303942 
1150.558376  	80.512212 
1151.522800  	80.733343 
1152.487225  	80.964667 
1153.451649  	81.206984 
1154.416074  	81.434832 
1155.380498  	81.634076 
1156.344923  	81.822265 
1157.309347  	81.933364 
1158.273772  	81.992471 
1159.238196  	82.029247 
1160.202621  	82.048413 
1161.167045  	82.001709 
1162.131469  	81.893126 
1163.095894  	81.764246 
1164.060318  	81.637118 
1165.024743  	81.461571 
1165.989167  	81.233621 
1166.953592  	80.984528 
1167.918016  	80.726927 
1168.882441  	80.411838 
1169.846865  	80.023281 
1170.811290  	79.577529 
1171.775714  	79.091498 
1172.740138  	78.561371 
1173.704563  	77.926367 
1174.668987  	77.248896 
1175.633412  	76.715447 
1176.597836  	76.197137 
1177.562261  	75.701448 
1178.526685  	75.375609 
1179.491110  	75.254536 
1180.455534  	75.279227 
1181.419959  	75.473664 
1182.384383  	75.698832 
1183.348808  	75.916271 
1184.313232  	76.136506 
1185.277656  	76.272247 
1186.242081  	76.315952 
1187.206505  	76.289821 
1188.170930  	76.128947 
1189.135354  	75.788099 
1190.099779  	75.331580 
1191.064203  	74.755654 
1192.028628  	74.025794 
1192.993052  	73.129001 
1193.957477  	72.170869 
1194.921901  	71.248899 
1195.886325  	70.495270 
1196.850750  	70.055841 
1197.815174  	70.089169 
1198.779599  	70.663972 
1199.744023  	71.631838 
1200.708448  	72.780402 
1201.672872  	73.994222 
1202.637297  	75.159155 
1203.601721  	76.184997 
1204.566146  	77.056298 
1205.530570  	77.802108 
1206.494994  	78.424262 
1207.459419  	78.898071 
1208.423843  	79.263428 
1209.388268  	79.522396 
1210.352692  	79.705474 
1211.317117  	79.771324 
1212.281541  	79.771891 
1213.245966  	79.819660 
1214.210390  	79.850488 
1215.174815  	79.812652 
1216.139239  	79.717427 
1217.103663  	79.608720 
1218.068088  	79.482298 
1219.032512  	79.262835 
1219.996937  	78.975981 
1220.961361  	78.640519 
1221.925786  	78.210873 
1222.890210  	77.749296 
1223.854635  	77.421890 
1224.819059  	77.309724 
1225.783484  	77.474501 
1226.747908  	77.758814 
1227.712332  	77.935013 
1228.676757  	77.999673 
1229.641181  	77.930532 
1230.605606  	77.767269 
1231.570030  	77.565789 
1232.534455  	77.353339 
1233.498879  	77.159450 
1234.463304  	76.989573 
1235.427728  	76.812025 
1236.392153  	76.684084 
1237.356577  	76.575499 
1238.321002  	76.466277 
1239.285426  	76.359198 
1240.249850  	76.249558 
1241.214275  	76.157002 
1242.178699  	76.046624 
1243.143124  	75.882731 
1244.107548  	75.734396 
1245.071973  	75.666733 
1246.036397  	75.552514 
1247.000822  	75.384930 
1247.965246  	75.274146 
1248.929671  	75.151844 
1249.894095  	74.980385 
1250.858519  	74.828413 
1251.822944  	74.658222 
1252.787368  	74.478513 
1253.751793  	74.282430 
1254.716217  	74.079133 
1255.680642  	73.884535 
1256.645066  	73.693220 
1257.609491  	73.451287 
1258.573915  	73.130994 
1259.538340  	72.771626 
1260.502764  	72.411148 
1261.467188  	72.176777 
1262.431613  	71.875184 
1263.396037  	71.537078 
1264.360462  	71.222859 
1265.324886  	70.847228 
1266.289311  	70.462661 
1267.253735  	70.156326 
1268.218160  	69.837304 
1269.182584  	69.508854 
1270.147009  	69.202218 
1271.111433  	68.989833 
1272.075857  	68.800440 
1273.040282  	68.749474 
1274.004706  	68.768883 
1274.969131  	68.898387 
1275.933555  	69.154226 
1276.897980  	69.570250 
1277.862404  	70.138390 
1278.826829  	70.826266 
1279.791253  	71.546948 
1280.755678  	72.308939 
1281.720102  	73.094880 
1282.684526  	73.844562 
1283.648951  	74.491820 
1284.613375  	75.080513 
1285.577800  	75.661673 
1286.542224  	76.101056 
1287.506649  	76.356948 
1288.471073  	76.674368 
1289.435498  	77.109712 
1290.399922  	77.397521 
1291.364347  	77.607740 
1292.328771  	77.823314 
1293.293195  	77.993730 
1294.257620  	78.132796 
1295.222044  	78.188046 
1296.186469  	78.163149 
1297.150893  	78.189322 
1298.115318  	78.324453 
1299.079742  	78.320881 
1300.044167  	78.297937 
1301.008591  	78.294627 
1301.973016  	78.309423 
1302.937440  	78.337023 
1303.901865  	78.425117 
1304.866289  	78.565474 
1305.830713  	78.693692 
1306.795138  	78.795561 
1307.759562  	78.846968 
1308.723987  	78.995750 
1309.688411  	79.262766 
1310.652836  	79.397190 
1311.617260  	79.386132 
1312.581685  	79.157736 
1313.546109  	79.266391 
1314.510534  	79.453207 
1315.474958  	79.659609 
1316.439382  	79.623052 
1317.403807  	79.506682 
1318.368231  	79.472409 
1319.332656  	79.338141 
1320.297080  	79.573654 
1321.261505  	79.730099 
1322.225929  	79.809428 
1323.190354  	79.717058 
1324.154778  	79.646971 
1325.119203  	79.573952 
1326.083627  	79.454640 
1327.048051  	79.356554 
1328.012476  	79.309726 
1328.976900  	79.261031 
1329.941325  	79.230559 
1330.905749  	79.270627 
1331.870174  	79.323906 
1332.834598  	79.266197 
1333.799023  	79.218717 
1334.763447  	79.148613 
1335.727872  	78.822082 
1336.692296  	78.252972 
1337.656720  	78.049381 
1338.621145  	77.373696 
1339.585569  	76.650379 
1340.549994  	76.794216 
1341.514418  	77.806350 
1342.478843  	78.231198 
1343.443267  	78.113899 
1344.407692  	77.958243 
1345.372116  	77.844235 
1346.336541  	77.699032 
1347.300965  	77.523580 
1348.265389  	77.300933 
1349.229814  	76.986412 
1350.194238  	76.818931 
1351.158663  	76.690630 
1352.123087  	76.471297 
1353.087512  	76.258180 
1354.051936  	75.888300 
1355.016361  	75.432518 
1355.980785  	75.418727 
1356.945210  	75.306969 
1357.909634  	74.986335 
1358.874059  	74.799978 
1359.838483  	74.555804 
1360.802907  	73.773021 
1361.767332  	73.171288 
1362.731756  	72.298140 
1363.696181  	72.209033 
1364.660605  	73.107593 
1365.625030  	73.142737 
1366.589454  	72.917300 
1367.553879  	72.503256 
1368.518303  	71.899520 
1369.482728  	71.848899 
1370.447152  	72.175449 
1371.411576  	72.232970 
1372.376001  	72.192964 
1373.340425  	71.788617 
1374.304850  	71.686770 
1375.269274  	72.510407 
1376.233699  	73.634402 
1377.198123  	74.143462 
1378.162548  	74.313426 
1379.126972  	74.764152 
1380.091397  	75.254431 
1381.055821  	75.745632 
1382.020245  	76.037250 
1382.984670  	76.262796 
1383.949094  	76.488401 
1384.913519  	76.666789 
1385.877943  	76.426569 
1386.842368  	75.692704 
1387.806792  	75.778121 
1388.771217  	76.997009 
1389.735641  	77.583258 
1390.700066  	77.770495 
1391.664490  	78.009641 
1392.628914  	78.259323 
1393.593339  	77.928775 
1394.557763  	77.044474 
1395.522188  	77.122101 
1396.486612  	77.959263 
1397.451037  	78.053223 
1398.415461  	77.550133 
1399.379886  	77.501264 
1400.344310  	78.301930 
1401.308735  	78.659187 
1402.273159  	78.511490 
1403.237583  	78.216386 
1404.202008  	77.456989 
1405.166432  	76.500169 
1406.130857  	76.694661 
1407.095281  	76.643280 
1408.059706  	75.971567 
1409.024130  	75.071841 
1409.988555  	73.900266 
1410.952979  	72.607013 
1411.917404  	71.072310 
1412.881828  	69.766087 
1413.846252  	68.362671 
1414.810677  	66.964739 
1415.775101  	65.827831 
1416.739526  	65.404412 
1417.703950  	65.910675 
1418.668375  	66.557871 
1419.632799  	68.233429 
1420.597224  	71.267601 
1421.561648  	72.459575 
1422.526073  	73.135481 
1423.490497  	72.849379 
1424.454922  	73.185026 
1425.419346  	74.455886 
1426.383770  	74.984898 
1427.348195  	75.066845 
1428.312619  	74.873080 
1429.277044  	74.370178 
1430.241468  	73.937539 
1431.205893  	74.225682 
1432.170317  	74.040444 
1433.134742  	73.624719 
1434.099166  	73.594177 
1435.063591  	73.294538 
1436.028015  	72.021099 
1436.992439  	71.333077 
1437.956864  	72.726444 
1438.921288  	73.314912 
1439.885713  	73.464136 
1440.850137  	73.565308 
1441.814562  	73.675378 
1442.778986  	73.784171 
1443.743411  	73.805616 
1444.707835  	73.793358 
1445.672260  	73.745640 
1446.636684  	73.534237 
1447.601108  	72.765953 
1448.565533  	72.713562 
1449.529957  	73.294107 
1450.494382  	73.187541 
1451.458806  	72.502642 
1452.423231  	71.838826 
1453.387655  	71.783558 
1454.352080  	71.046594 
1455.316504  	69.697331 
1456.280929  	68.419978 
1457.245353  	67.332627 
1458.209777  	67.057266 
1459.174202  	67.266998 
1460.138626  	67.721414 
1461.103051  	67.538943 
1462.067475  	66.696996 
1463.031900  	65.875122 
1463.996324  	64.919680 
1464.960749  	64.299608 
1465.925173  	65.638423 
1466.889598  	67.022432 
1467.854022  	68.222319 
1468.818446  	69.183678 
1469.782871  	69.494004 
1470.747295  	68.898491 
1471.711720  	67.012963 
1472.676144  	65.025553 
1473.640569  	64.864750 
1474.604993  	65.808880 
1475.569418  	65.880186 
1476.533842  	66.304228 
1477.498267  	68.420146 
1478.462691  	70.027635 
1479.427116  	71.389424 
1480.391540  	72.493440 
1481.355964  	73.386500 
1482.320389  	75.041796 
1483.284813  	76.234762 
1484.249238  	76.947863 
1485.213662  	77.154750 
1486.178087  	76.816965 
1487.142511  	76.295306 
1488.106936  	76.355223 
1489.071360  	75.358694 
1490.035785  	73.908884 
1491.000209  	74.771380 
1491.964633  	76.054455 
1492.929058  	76.329293 
1493.893482  	76.012030 
1494.857907  	75.357021 
1495.822331  	74.113677 
1496.786756  	73.302135 
1497.751180  	73.446595 
1498.715605  	72.666672 
1499.680029  	72.492487 
1500.644454  	72.488489 
1501.608878  	71.770835 
1502.573302  	71.341001 
1503.537727  	71.046021 
1504.502151  	70.080641 
1505.466576  	68.111111 
1506.431000  	64.488172 
1507.395425  	62.889037 
1508.359849  	63.787997 
1509.324274  	64.297204 
1510.288698  	64.380473 
1511.253123  	64.479845 
1512.217547  	63.533515 
1513.181971  	63.111096 
1514.146396  	62.579735 
1515.110820  	60.963955 
1516.075245  	59.254464 
1517.039669  	57.403010 
1518.004094  	57.581479 
1518.968518  	57.574030 
1519.932943  	55.980397 
1520.897367  	53.151871 
1521.861792  	52.382760 
1522.826216  	52.342266 
1523.790640  	52.098165 
1524.755065  	50.900942 
1525.719489  	49.622925 
1526.683914  	49.077668 
1527.648338  	48.158044 
1528.612763  	47.675321 
1529.577187  	47.717491 
1530.541612  	47.406338 
1531.506036  	46.664073 
1532.470461  	46.131449 
1533.434885  	45.621322 
1534.399309  	46.592445 
1535.363734  	47.443558 
1536.328158  	48.157855 
1537.292583  	48.720808 
1538.257007  	48.335275 
1539.221432  	47.204924 
1540.185856  	48.844609 
1541.150281  	50.412903 
1542.114705  	51.084519 
1543.079130  	52.422535 
1544.043554  	53.021919 
1545.007979  	53.563756 
1545.972403  	55.572653 
1546.936827  	57.197859 
1547.901252  	58.047767 
1548.865676  	58.312133 
1549.830101  	57.767354 
1550.794525  	59.195255 
1551.758950  	60.758283 
1552.723374  	61.295116 
1553.687799  	61.024426 
1554.652223  	61.252166 
1555.616648  	62.758974 
1556.581072  	63.102902 
1557.545496  	62.233272 
1558.509921  	59.893433 
1559.474345  	60.170413 
1560.438770  	63.963344 
1561.403194  	66.486153 
1562.367619  	67.536107 
1563.332043  	68.233388 
1564.296468  	68.447486 
1565.260892  	68.963931 
1566.225317  	70.143562 
1567.189741  	70.831535 
1568.154165  	70.975032 
1569.118590  	70.241965 
1570.083014  	71.059369 
1571.047439  	72.865023 
1572.011863  	73.642152 
1572.976288  	74.111531 
1573.940712  	74.548472 
1574.905137  	74.563592 
1575.869561  	73.919360 
1576.833986  	74.166955 
1577.798410  	75.439961 
1578.762834  	76.268928 
1579.727259  	76.762994 
1580.691683  	77.071678 
1581.656108  	77.327388 
1582.620532  	77.441513 
1583.584957  	77.558814 
1584.549381  	77.659959 
1585.513806  	77.754110 
1586.478230  	77.743281 
1587.442655  	77.728875 
1588.407079  	77.608881 
1589.371503  	77.364312 
1590.335928  	77.101810 
1591.300352  	76.950516 
1592.264777  	76.678645 
1593.229201  	76.402388 
1594.193626  	75.769963 
1595.158050  	75.285982 
1596.122475  	74.900723 
1597.086899  	74.500458 
1598.051324  	73.996717 
1599.015748  	73.358963 
1599.980173  	72.592995 
1600.944597  	71.710334 
1601.909021  	70.746903 
1602.873446  	69.679719 
1603.837870  	68.657529 
1604.802295  	67.908019 
1605.766719  	66.907906 
1606.731144  	65.740383 
1607.695568  	64.689816 
1608.659993  	63.867396 
1609.624417  	62.683094 
1610.588842  	61.954986 
1611.553266  	61.027059 
1612.517690  	59.867326 
1613.482115  	58.617338 
1614.446539  	57.368746 
1615.410964  	55.834067 
1616.375388  	53.981701 
1617.339813  	52.301563 
1618.304237  	52.024980 
1619.268662  	51.172272 
1620.233086  	50.200684 
1621.197511  	49.141856 
1622.161935  	48.012431 
1623.126359  	46.509183 
1624.090784  	46.009987 
1625.055208  	45.797442 
1626.019633  	45.247247 
1626.984057  	44.295147 
1627.948482  	43.426723 
1628.912906  	43.087423 
1629.877331  	42.852579 
1630.841755  	42.486655 
1631.806180  	42.408766 
1632.770604  	42.508056 
1633.735028  	42.674709 
1634.699453  	42.214360 
1635.663877  	42.754619 
1636.628302  	44.754955 
1637.592726  	45.812172 
1638.557151  	47.614791 
1639.521575  	48.994801 
1640.486000  	50.242967 
1641.450424  	51.689689 
1642.414849  	53.015995 
1643.379273  	54.542785 
1644.343697  	55.757931 
1645.308122  	56.213843 
1646.272546  	56.795720 
1647.236971  	58.116547 
1648.201395  	59.853315 
1649.165820  	62.410905 
1650.130244  	63.855663 
1651.094669  	64.656593 
1652.059093  	64.445398 
1653.023518  	62.834939 
1653.987942  	65.032785 
1654.952366  	68.333749 
1655.916791  	70.402985 
1656.881215  	71.634643 
1657.845640  	72.884192 
1658.810064  	74.086389 
1659.774489  	75.095938 
1660.738913  	75.795740 
1661.703338  	76.164701 
1662.667762  	76.550821 
1663.632187  	78.159303 
1664.596611  	79.577437 
1665.561036  	80.555027 
1666.525460  	81.461618 
1667.489884  	81.849365 
1668.454309  	81.342677 
1669.418733  	81.475452 
1670.383158  	83.135417 
1671.347582  	83.526403 
1672.312007  	84.555667 
1673.276431  	85.716732 
1674.240856  	85.874418 
1675.205280  	85.225920 
1676.169705  	86.220874 
1677.134129  	87.527031 
1678.098553  	88.105482 
1679.062978  	88.109028 
1680.027402  	87.226474 
1680.991827  	87.783930 
1681.956251  	88.944620 
1682.920676  	88.273134 
1683.885100  	85.100297 
1684.849525  	85.292475 
1685.813949  	89.126057 
1686.778374  	90.330623 
1687.742798  	90.147237 
1688.707222  	89.816955 
1689.671647  	90.301094 
1690.636071  	90.703209 
1691.600496  	91.481407 
1692.564920  	91.724250 
1693.529345  	91.624938 
1694.493769  	91.166852 
1695.458194  	89.972767 
1696.422618  	88.825296 
1697.387043  	89.870127 
1698.351467  	90.374091 
1699.315891  	90.085377 
1700.280316  	87.759901 
1701.244740  	89.181642 
1702.209165  	90.669688 
1703.173589  	91.092227 
1704.138014  	90.596901 
1705.102438  	90.352055 
1706.066863  	90.444572 
1707.031287  	90.451451 
1707.995712  	91.305714 
1708.960136  	91.722728 
1709.924560  	91.266300 
1710.888985  	91.228327 
1711.853409  	91.672265 
1712.817834  	91.388961 
1713.782258  	90.513678 
1714.746683  	89.417625 
1715.711107  	89.506478 
1716.675532  	89.777780 
1717.639956  	88.418572 
1718.604381  	88.064187 
1719.568805  	90.284257 
1720.533230  	91.261316 
1721.497654  	91.372448 
1722.462078  	91.235846 
1723.426503  	90.823224 
1724.390927  	90.966809 
1725.355352  	91.406008 
1726.319776  	91.400586 
1727.284201  	91.344199 
1728.248625  	91.280847 
1729.213050  	90.596105 
1730.177474  	89.336968 
1731.141899  	90.087505 
1732.106323  	90.359813 
1733.070747  	89.159536 
1734.035172  	86.926336 
1734.999596  	88.465593 
1735.964021  	90.444554 
1736.928445  	90.956285 
1737.892870  	90.896519 
1738.857294  	90.733925 
1739.821719  	90.135005 
1740.786143  	90.893148 
1741.750568  	91.588503 
1742.714992  	90.917113 
1743.679416  	89.918284 
1744.643841  	90.761330 
1745.608265  	91.395653 
1746.572690  	91.157747 
1747.537114  	90.653767 
1748.501539  	90.296054 
1749.465963  	90.407751 
1750.430388  	90.803702 
1751.394812  	90.033095 
1752.359237  	91.232932 
1753.323661  	92.387921 
1754.288085  	92.826018 
1755.252510  	92.845346 
1756.216934  	92.229295 
1757.181359  	91.553082 
1758.145783  	92.223188 
1759.110208  	92.690873 
1760.074632  	92.876172 
1761.039057  	92.299502 
1762.003481  	91.379742 
1762.967906  	92.242790 
1763.932330  	92.991852 
1764.896754  	93.161640 
1765.861179  	93.208946 
1766.825603  	93.018740 
1767.790028  	92.084159 
1768.754452  	91.760649 
1769.718877  	92.757372 
1770.683301  	92.495867 
1771.647726  	91.406844 
1772.612150  	90.957450 
1773.576575  	92.032737 
1774.540999  	92.687366 
1775.505423  	92.359229 
1776.469848  	92.619705 
1777.434272  	93.262343 
1778.398697  	93.067947 
1779.363121  	92.763632 
1780.327546  	92.288758 
1781.291970  	92.215083 
1782.256395  	92.929228 
1783.220819  	93.278023 
1784.185244  	92.924058 
1785.149668  	92.393804 
1786.114093  	92.941351 
1787.078517  	93.391483 
1788.042941  	93.364556 
1789.007366  	93.255474 
1789.971790  	92.864816 
1790.936215  	91.919304 
1791.900639  	91.486101 
1792.865064  	91.421665 
1793.829488  	92.351661 
1794.793913  	92.866046 
1795.758337  	92.245530 
1796.722762  	92.259387 
1797.687186  	93.025023 
1798.651610  	93.112388 
1799.616035  	92.494625 
1800.580459  	92.444110 
1801.544884  	92.285715 
1802.509308  	92.125027 
1803.473733  	92.867503 
1804.438157  	93.362561 
1805.402582  	93.296609 
1806.367006  	93.245991 
1807.331431  	92.969101 
1808.295855  	92.877069 
1809.260279  	93.187176 
1810.224704  	92.770118 
1811.189128  	92.315148 
1812.153553  	92.648653 
1813.117977  	93.017902 
1814.082402  	93.438954 
1815.046826  	93.507778 
1816.011251  	93.506397 
1816.975675  	93.196127 
1817.940100  	93.004357 
1818.904524  	93.285613 
1819.868948  	93.471412 
1820.833373  	93.402611 
1821.797797  	93.275192 
1822.762222  	93.036622 
1823.726646  	93.060096 
1824.691071  	92.487811 
1825.655495  	91.822333 
1826.619920  	92.800944 
1827.584344  	93.210019 
1828.548769  	92.718887 
1829.513193  	91.623427 
1830.477617  	91.666791 
1831.442042  	92.854568 
1832.406466  	93.180244 
1833.370891  	93.036902 
1834.335315  	93.252993 
1835.299740  	93.473794 
1836.264164  	93.257113 
1837.228589  	92.785069 
1838.193013  	92.954173 
1839.157438  	93.270661 
1840.121862  	93.335062 
1841.086287  	93.317557 
1842.050711  	92.941693 
1843.015135  	92.626186 
1843.979560  	91.838349 
1844.943984  	91.582687 
1845.908409  	92.454813 
1846.872833  	92.813189 
1847.837258  	92.322343 
1848.801682  	92.567896 
1849.766107  	93.176842 
1850.730531  	93.422018 
1851.694956  	93.403815 
1852.659380  	93.373795 
1853.623804  	93.416322 
1854.588229  	93.417889 
1855.552653  	93.380983 
1856.517078  	93.297101 
1857.481502  	93.222093 
1858.445927  	93.090235 
1859.410351  	93.007323 
1860.374776  	93.096268 
1861.339200  	93.038009 
1862.303625  	93.112420 
1863.268049  	93.221634 
1864.232473  	93.299603 
1865.196898  	93.328856 
1866.161322  	92.986948 
1867.125747  	92.473981 
1868.090171  	91.923249 
1869.054596  	91.471665 
1870.019020  	91.927284 
1870.983445  	92.595307 
1871.947869  	93.095720 
1872.912294  	93.265691 
1873.876718  	93.295185 
1874.841142  	93.317318 
1875.805567  	93.290010 
1876.769991  	93.274794 
1877.734416  	93.322399 
1878.698840  	93.263062 
1879.663265  	93.184831 
1880.627689  	93.243202 
1881.592114  	93.240868 
1882.556538  	93.192854 
1883.520963  	93.266233 
1884.485387  	93.179803 
1885.449811  	93.135139 
1886.414236  	93.310447 
1887.378660  	93.304058 
1888.343085  	93.000588 
1889.307509  	92.302769 
1890.271934  	92.289892 
1891.236358  	92.995853 
1892.200783  	93.182422 
1893.165207  	93.194300 
1894.129632  	93.103582 
1895.094056  	92.718499 
1896.058480  	92.803405 
1897.022905  	93.240062 
1897.987329  	93.251976 
1898.951754  	93.191985 
1899.916178  	93.198803 
1900.880603  	93.268760 
1901.845027  	93.130823 
1902.809452  	93.171102 
1903.773876  	93.156519 
1904.738301  	93.173794 
1905.702725  	93.214301 
1906.667150  	93.280692 
1907.631574  	92.986575 
1908.595998  	92.889223 
1909.560423  	92.784842 
1910.524847  	92.763453 
1911.489272  	93.159478 
1912.453696  	93.189290 
1913.418121  	93.177224 
1914.382545  	93.233958 
1915.346970  	93.278086 
1916.311394  	93.238884 
1917.275819  	92.742258 
1918.240243  	92.102115 
1919.204667  	92.677914 
1920.169092  	93.152516 
1921.133516  	93.088128 
1922.097941  	92.570617 
1923.062365  	91.924443 
1924.026790  	92.697745 
1924.991214  	93.350144 
1925.955639  	93.383501 
1926.920063  	93.388377 
1927.884488  	93.407368 
1928.848912  	93.383705 
1929.813336  	93.377573 
1930.777761  	93.291308 
1931.742185  	93.178424 
1932.706610  	93.188593 
1933.671034  	93.352043 
1934.635459  	93.406225 
1935.599883  	93.369269 
1936.564308  	93.310333 
1937.528732  	93.249803 
1938.493157  	93.310219 
1939.457581  	93.587224 
1940.422005  	93.487603 
1941.386430  	93.018705 
1942.350854  	92.065584 
1943.315279  	92.127084 
1944.279703  	92.951933 
1945.244128  	93.099496 
1946.208552  	93.194372 
1947.172977  	93.245815 
1948.137401  	93.323299 
1949.101826  	93.377153 
1950.066250  	93.491870 
1951.030674  	93.580213 
1951.995099  	93.378854 
1952.959523  	93.406458 
1953.923948  	93.416068 
1954.888372  	93.181938 
1955.852797  	93.108829 
1956.817221  	93.399467 
1957.781646  	93.519981 
1958.746070  	93.674625 
1959.710495  	93.802001 
1960.674919  	93.581210 
1961.639344  	93.411202 
1962.603768  	93.365912 
1963.568192  	93.442216 
1964.532617  	93.916126 
1965.497041  	93.788119 
1966.461466  	93.359415 
1967.425890  	92.907548 
1968.390315  	93.278886 
1969.354739  	93.577718 
1970.319164  	93.471907 
1971.283588  	93.555484 
1972.248013  	93.653948 
1973.212437  	93.559655 
1974.176861  	93.459633 
1975.141286  	93.380235 
1976.105710  	93.704185 
1977.070135  	93.911847 
1978.034559  	93.873607 
1978.998984  	93.272937 
1979.963408  	93.089126 
1980.927833  	93.275604 
1981.892257  	93.450990 
1982.856682  	93.412442 
1983.821106  	93.392527 
1984.785530  	93.251703 
1985.749955  	93.162026 
1986.714379  	93.150398 
1987.678804  	92.918973 
1988.643228  	92.754588 
1989.607653  	93.119258 
1990.572077  	93.042887 
1991.536502  	92.627314 
1992.500926  	92.427580 
1993.465351  	92.816835 
1994.429775  	93.225270 
1995.394199  	93.392217 
1996.358624  	93.308154 
1997.323048  	93.176139 
1998.287473  	93.165626 
1999.251897  	93.379126 
2000.216322  	93.629204 
2001.180746  	93.777987 
2002.145171  	93.803199 
2003.109595  	94.034240 
2004.074020  	93.992622 
2005.038444  	93.908669 
2006.002868  	93.725152 
2006.967293  	93.380235 
2007.931717  	92.954222 
2008.896142  	93.236394 
2009.860566  	93.492637 
2010.824991  	93.547558 
2011.789415  	93.615835 
2012.753840  	93.560916 
2013.718264  	93.382023 
2014.682689  	93.594409 
2015.647113  	93.810418 
2016.611537  	93.482933 
2017.575962  	93.158212 
2018.540386  	93.216840 
2019.504811  	93.149792 
2020.469235  	93.394780 
2021.433660  	93.452951 
2022.398084  	93.337834 
2023.362509  	93.316936 
2024.326933  	93.217107 
2025.291358  	92.874961 
2026.255782  	93.010040 
2027.220207  	93.140682 
2028.184631  	93.524920 
2029.149055  	93.912889 
2030.113480  	93.883362 
2031.077904  	93.487581 
2032.042329  	93.319395 
2033.006753  	93.414218 
2033.971178  	93.544038 
2034.935602  	93.484109 
2035.900027  	93.509682 
2036.864451  	93.409497 
2037.828876  	93.243939 
2038.793300  	93.120624 
2039.757724  	93.234541 
2040.722149  	93.049509 
2041.686573  	92.804435 
2042.650998  	92.886499 
2043.615422  	92.981380 
2044.579847  	93.196963 
2045.544271  	93.349676 
2046.508696  	93.186161 
2047.473120  	93.178691 
2048.437545  	93.224160 
2049.401969  	93.365032 
2050.366393  	93.109250 
2051.330818  	92.819941 
2052.295242  	93.078788 
2053.259667  	93.493168 
2054.224091  	93.189841 
2055.188516  	92.837942 
2056.152940  	92.868496 
2057.117365  	92.934372 
2058.081789  	93.055047 
2059.046214  	93.147247 
2060.010638  	93.039829 
2060.975062  	92.983955 
2061.939487  	93.097505 
2062.903911  	92.993046 
2063.868336  	92.717930 
2064.832760  	92.600084 
2065.797185  	92.904423 
2066.761609  	93.163603 
2067.726034  	93.025647 
2068.690458  	92.959556 
2069.654883  	93.123534 
2070.619307  	93.183643 
2071.583731  	92.895715 
2072.548156  	92.854434 
2073.512580  	92.877275 
2074.477005  	92.941884 
2075.441429  	93.121187 
2076.405854  	93.089391 
2077.370278  	92.859469 
2078.334703  	92.793988 
2079.299127  	92.886903 
2080.263552  	92.894807 
2081.227976  	92.797657 
2082.192401  	92.835472 
2083.156825  	92.813075 
2084.121249  	92.815805 
2085.085674  	92.942572 
2086.050098  	93.044992 
2087.014523  	92.939176 
2087.978947  	92.899334 
2088.943372  	92.953412 
2089.907796  	92.915185 
2090.872221  	92.999236 
2091.836645  	93.375037 
2092.801070  	93.389353 
2093.765494  	93.222958 
2094.729918  	93.170994 
2095.694343  	93.124907 
2096.658767  	92.990153 
2097.623192  	92.900218 
2098.587616  	92.904945 
2099.552041  	92.953629 
2100.516465  	92.865082 
2101.480890  	92.961749 
2102.445314  	92.978566 
2103.409739  	92.927824 
2104.374163  	92.887276 
2105.338587  	92.832028 
2106.303012  	92.771126 
2107.267436  	92.795125 
2108.231861  	92.869222 
2109.196285  	92.936145 
2110.160710  	93.062021 
2111.125134  	93.053096 
2112.089559  	92.904338 
2113.053983  	92.936150 
2114.018408  	93.005537 
2114.982832  	92.989823 
2115.947256  	92.941316 
2116.911681  	93.042977 
2117.876105  	93.070551 
2118.840530  	93.013500 
2119.804954  	93.036985 
2120.769379  	93.113460 
2121.733803  	93.100280 
2122.698228  	93.189824 
2123.662652  	93.187881 
2124.627077  	93.146978 
2125.591501  	93.127355 
2126.555925  	93.328449 
2127.520350  	93.434460 
2128.484774  	93.373348 
2129.449199  	93.363559 
2130.413623  	93.429100 
2131.378048  	93.525725 
2132.342472  	93.751322 
2133.306897  	93.769347 
2134.271321  	93.616335 
2135.235746  	93.233477 
2136.200170  	93.169805 
2137.164594  	93.379997 
2138.129019  	93.522629 
2139.093443  	93.499081 
2140.057868  	93.468028 
2141.022292  	93.530247 
2141.986717  	93.567806 
2142.951141  	93.415380 
2143.915566  	93.461601 
2144.879990  	93.332237 
2145.844415  	93.510709 
2146.808839  	93.591639 
2147.773264  	93.672698 
2148.737688  	93.756204 
2149.702112  	93.818157 
2150.666537  	93.817647 
2151.630961  	93.761241 
2152.595386  	93.842085 
2153.559810  	93.979905 
2154.524235  	94.184698 
2155.488659  	94.495981 
2156.453084  	94.883117 
2157.417508  	94.820776 
2158.381933  	94.318041 
2159.346357  	93.496030 
2160.310781  	93.246179 
2161.275206  	93.009317 
2162.239630  	92.894188 
2163.204055  	93.158662 
2164.168479  	93.486188 
2165.132904  	93.186322 
2166.097328  	93.123437 
2167.061753  	93.370400 
2168.026177  	93.214991 
2168.990602  	92.919265 
2169.955026  	92.812487 
2170.919450  	93.004632 
2171.883875  	93.046444 
2172.848299  	93.126029 
2173.812724  	93.182350 
2174.777148  	93.338151 
2175.741573  	93.266603 
2176.705997  	93.044560 
2177.670422  	92.950379 
2178.634846  	93.178240 
2179.599271  	93.254752 
2180.563695  	93.314531 
2181.528119  	93.317530 
2182.492544  	93.190369 
2183.456968  	92.782137 
2184.421393  	92.713711 
2185.385817  	93.147097 
2186.350242  	93.304028 
2187.314666  	92.986556 
2188.279091  	93.096736 
2189.243515  	93.102320 
2190.207940  	93.046693 
2191.172364  	93.169860 
2192.136788  	93.248124 
2193.101213  	93.173972 
2194.065637  	93.178395 
2195.030062  	92.941037 
2195.994486  	92.648104 
2196.958911  	92.774636 
2197.923335  	93.165116 
2198.887760  	93.152628 
2199.852184  	93.114236 
2200.816609  	93.064457 
2201.781033  	92.957084 
2202.745458  	93.013676 
2203.709882  	93.166524 
2204.674306  	93.064689 
2205.638731  	92.928029 
2206.603155  	93.004637 
2207.567580  	93.184407 
2208.532004  	93.029554 
2209.496429  	92.934574 
2210.460853  	92.900960 
2211.425278  	92.894413 
2212.389702  	92.820678 
2213.354127  	92.730807 
2214.318551  	92.687018 
2215.282975  	92.726041 
2216.247400  	92.800077 
2217.211824  	92.951362 
2218.176249  	92.939776 
2219.140673  	92.962929 
2220.105098  	92.861825 
2221.069522  	92.836189 
2222.033947  	92.985364 
2222.998371  	92.974710 
2223.962796  	92.952123 
2224.927220  	93.073838 
2225.891644  	92.861558 
2226.856069  	92.721866 
2227.820493  	92.831683 
2228.784918  	92.992085 
2229.749342  	92.995636 
2230.713767  	92.996844 
2231.678191  	92.867474 
2232.642616  	92.834599 
2233.607040  	92.998676 
2234.571465  	92.929904 
2235.535889  	92.725755 
2236.500313  	92.734285 
2237.464738  	92.797158 
2238.429162  	92.985337 
2239.393587  	92.994687 
2240.358011  	92.893289 
2241.322436  	93.000039 
2242.286860  	92.972805 
2243.251285  	92.889897 
2244.215709  	92.881738 
2245.180134  	92.678122 
2246.144558  	92.632909 
2247.108982  	92.785933 
2248.073407  	92.906160 
2249.037831  	92.863786 
2250.002256  	92.828104 
2250.966680  	92.861346 
2251.931105  	92.961702 
2252.895529  	92.961926 
2253.859954  	92.954087 
2254.824378  	92.929388 
2255.788803  	92.888283 
2256.753227  	92.881001 
2257.717651  	92.878919 
2258.682076  	92.710231 
2259.646500  	92.650246 
2260.610925  	92.649962 
2261.575349  	92.766935 
2262.539774  	92.805988 
2263.504198  	92.865658 
2264.468623  	92.813900 
2265.433047  	92.791313 
2266.397472  	92.831012 
2267.361896  	92.862813 
2268.326321  	92.828012 
2269.290745  	92.803548 
2270.255169  	92.808269 
2271.219594  	92.825616 
2272.184018  	92.741825 
2273.148443  	92.698160 
2274.112867  	92.704446 
2275.077292  	92.701595 
2276.041716  	92.653603 
2277.006141  	92.680639 
2277.970565  	92.818159 
2278.934990  	92.802705 
2279.899414  	92.581405 
2280.863838  	92.627044 
2281.828263  	92.674572 
2282.792687  	92.608331 
2283.757112  	92.616067 
2284.721536  	92.623240 
2285.685961  	92.538277 
2286.650385  	92.550205 
2287.614810  	92.563965 
2288.579234  	92.524576 
2289.543659  	92.405360 
2290.508083  	92.504093 
2291.472507  	92.513934 
2292.436932  	92.534501 
2293.401356  	92.503527 
2294.365781  	92.384431 
2295.330205  	92.389574 
2296.294630  	92.375467 
2297.259054  	92.372244 
2298.223479  	92.264241 
2299.187903  	92.260605 
2300.152328  	92.286680 
2301.116752  	92.269390 
2302.081176  	92.345873 
2303.045601  	92.207774 
2304.010025  	92.230699 
2304.974450  	92.043115 
2305.938874  	92.091836 
2306.903299  	92.075756 
2307.867723  	92.095896 
2308.832148  	91.971792 
2309.796572  	91.986905 
2310.760997  	91.979895 
2311.725421  	91.948667 
2312.689845  	92.086646 
2313.654270  	92.074666 
2314.618694  	92.137925 
2315.583119  	92.168089 
2316.547543  	92.154328 
2317.511968  	92.182655 
2318.476392  	92.218738 
2319.440817  	92.165347 
2320.405241  	92.090039 
2321.369666  	92.141841 
2322.334090  	92.277361 
2323.298515  	92.271834 
2324.262939  	92.218081 
2325.227363  	92.610406 
2326.191788  	92.924523 
2327.156212  	93.010839 
2328.120637  	93.077961 
2329.085061  	93.171639 
2330.049486  	93.194908 
2331.013910  	93.148880 
2331.978335  	93.232484 
2332.942759  	93.431279 
2333.907184  	93.538548 
2334.871608  	93.666544 
2335.836032  	93.828386 
2336.800457  	93.916015 
2337.764881  	93.929666 
2338.729306  	93.908485 
2339.693730  	93.786557 
2340.658155  	93.885280 
2341.622579  	93.987346 
2342.587004  	93.893047 
2343.551428  	93.681674 
2344.515853  	93.431670 
2345.480277  	93.251697 
2346.444701  	93.140985 
2347.409126  	92.973494 
2348.373550  	92.709223 
2349.337975  	92.622795 
2350.302399  	92.867331 
2351.266824  	93.169881 
2352.231248  	93.470174 
2353.195673  	93.598891 
2354.160097  	93.673073 
2355.124522  	93.812341 
2356.088946  	94.049611 
2357.053370  	94.152163 
2358.017795  	94.181316 
2358.982219  	94.180852 
2359.946644  	94.429452 
2360.911068  	94.524361 
2361.875493  	94.390930 
2362.839917  	94.241851 
2363.804342  	94.254656 
2364.768766  	94.179843 
2365.733191  	94.153964 
2366.697615  	93.981543 
2367.662039  	93.754854 
2368.626464  	93.530911 
2369.590888  	93.372239 
2370.555313  	93.230123 
2371.519737  	93.085035 
2372.484162  	92.955262 
2373.448586  	92.952165 
2374.413011  	92.825441 
2375.377435  	92.621584 
2376.341860  	92.445835 
2377.306284  	92.376263 
2378.270708  	92.282570 
2379.235133  	92.183689 
2380.199557  	92.263264 
2381.163982  	92.379745 
2382.128406  	92.463430 
2383.092831  	92.561095 
2384.057255  	92.565015 
2385.021680  	92.617562 
2385.986104  	92.742183 
2386.950529  	92.840557 
2387.914953  	92.846962 
2388.879378  	92.885924 
2389.843802  	92.914338 
2390.808226  	92.942924 
2391.772651  	92.931202 
2392.737075  	92.935918 
2393.701500  	92.971394 
2394.665924  	92.958136 
2395.630349  	92.902038 
2396.594773  	92.882438 
2397.559198  	92.860213 
2398.523622  	92.919166 
2399.488047  	92.987951 
2400.452471  	92.974459 
2401.416895  	92.948414 
2402.381320  	92.915530 
2403.345744  	92.928504 
2404.310169  	92.941923 
2405.274593  	92.896098 
2406.239018  	92.866624 
2407.203442  	92.830405 
2408.167867  	92.830192 
2409.132291  	92.840338 
2410.096716  	92.864850 
2411.061140  	92.834648 
2412.025564  	92.854432 
2412.989989  	92.876437 
2413.954413  	92.869722 
2414.918838  	92.900131 
2415.883262  	92.838050 
2416.847687  	92.753318 
2417.812111  	92.813931 
2418.776536  	92.864175 
2419.740960  	92.867623 
2420.705385  	92.880851 
2421.669809  	92.827514 
2422.634233  	92.812850 
2423.598658  	92.788298 
2424.563082  	92.802504 
2425.527507  	92.897962 
2426.491931  	92.847920 
2427.456356  	92.772349 
2428.420780  	92.835522 
2429.385205  	92.882809 
2430.349629  	92.881245 
2431.314054  	92.858314 
2432.278478  	92.829913 
2433.242902  	92.785520 
2434.207327  	92.770733 
2435.171751  	92.824316 
2436.136176  	92.891360 
2437.100600  	92.973656 
2438.065025  	92.909994 
2439.029449  	92.842593 
2439.993874  	92.821725 
2440.958298  	92.813192 
2441.922723  	92.809341 
2442.887147  	92.805145 
2443.851572  	92.798366 
2444.815996  	92.800247 
2445.780420  	92.780253 
2446.744845  	92.724007 
2447.709269  	92.738496 
2448.673694  	92.769569 
2449.638118  	92.750368 
2450.602543  	92.768013 
2451.566967  	92.719825 
2452.531392  	92.694561 
2453.495816  	92.678208 
2454.460241  	92.696054 
2455.424665  	92.731694 
2456.389089  	92.714949 
2457.353514  	92.710709 
2458.317938  	92.766032 
2459.282363  	92.797298 
2460.246787  	92.783880 
2461.211212  	92.723009 
2462.175636  	92.704268 
2463.140061  	92.709138 
2464.104485  	92.706193 
2465.068910  	92.716667 
2466.033334  	92.710781 
2466.997758  	92.678531 
2467.962183  	92.740491 
2468.926607  	92.737473 
2469.891032  	92.725686 
2470.855456  	92.702513 
2471.819881  	92.676555 
2472.784305  	92.734763 
2473.748730  	92.755567 
2474.713154  	92.740813 
2475.677579  	92.727356 
2476.642003  	92.710069 
2477.606427  	92.721168 
2478.570852  	92.762197 
2479.535276  	92.758348 
2480.499701  	92.691624 
2481.464125  	92.710324 
2482.428550  	92.777308 
2483.392974  	92.786899 
2484.357399  	92.818823 
2485.321823  	92.759980 
2486.286248  	92.651136 
2487.250672  	92.670254 
2488.215096  	92.692988 
2489.179521  	92.672878 
2490.143945  	92.632038 
2491.108370  	92.632659 
2492.072794  	92.682358 
2493.037219  	92.693626 
2494.001643  	92.701490 
2494.966068  	92.722280 
2495.930492  	92.745517 
2496.894917  	92.726150 
2497.859341  	92.686669 
2498.823765  	92.695702 
2499.788190  	92.684738 
2500.752614  	92.628770 
2501.717039  	92.630039 
2502.681463  	92.682070 
2503.645888  	92.679056 
2504.610312  	92.653742 
2505.574737  	92.637481 
2506.539161  	92.687002 
2507.503586  	92.761528 
2508.468010  	92.736221 
2509.432435  	92.627838 
2510.396859  	92.634550 
2511.361283  	92.660867 
2512.325708  	92.620713 
2513.290132  	92.640088 
2514.254557  	92.678835 
2515.218981  	92.637467 
2516.183406  	92.608029 
2517.147830  	92.611367 
2518.112255  	92.589124 
2519.076679  	92.596021 
2520.041104  	92.652293 
2521.005528  	92.624305 
2521.969952  	92.564578 
2522.934377  	92.570819 
2523.898801  	92.598115 
2524.863226  	92.640705 
2525.827650  	92.651502 
2526.792075  	92.639244 
2527.756499  	92.628520 
2528.720924  	92.617009 
2529.685348  	92.562900 
2530.649773  	92.602850 
2531.614197  	92.608092 
2532.578621  	92.562717 
2533.543046  	92.599162 
2534.507470  	92.634028 
2535.471895  	92.621886 
2536.436319  	92.584648 
2537.400744  	92.597301 
2538.365168  	92.563769 
2539.329593  	92.598680 
2540.294017  	92.605285 
2541.258442  	92.591968 
2542.222866  	92.634560 
2543.187290  	92.631691 
2544.151715  	92.636609 
2545.116139  	92.640057 
2546.080564  	92.609960 
2547.044988  	92.546196 
2548.009413  	92.473499 
2548.973837  	92.511559 
2549.938262  	92.508674 
2550.902686  	92.495508 
2551.867111  	92.543252 
2552.831535  	92.530487 
2553.795959  	92.467773 
2554.760384  	92.489678 
2555.724808  	92.470498 
2556.689233  	92.442517 
2557.653657  	92.463439 
2558.618082  	92.472226 
2559.582506  	92.517748 
2560.546931  	92.493234 
2561.511355  	92.398934 
2562.475780  	92.395643 
2563.440204  	92.416915 
2564.404629  	92.453486 
2565.369053  	92.507172 
2566.333477  	92.499225 
2567.297902  	92.450753 
2568.262326  	92.433448 
2569.226751  	92.322716 
2570.191175  	92.304156 
2571.155600  	92.399503 
2572.120024  	92.429220 
2573.084449  	92.452153 
2574.048873  	92.422599 
2575.013298  	92.344383 
2575.977722  	92.369465 
2576.942146  	92.388690 
2577.906571  	92.381453 
2578.870995  	92.418420 
2579.835420  	92.399137 
2580.799844  	92.342057 
2581.764269  	92.246574 
2582.728693  	92.260145 
2583.693118  	92.258627 
2584.657542  	92.237053 
2585.621967  	92.273634 
2586.586391  	92.244019 
2587.550815  	92.245739 
2588.515240  	92.264647 
2589.479664  	92.231594 
2590.444089  	92.197058 
2591.408513  	92.223691 
2592.372938  	92.258873 
2593.337362  	92.243387 
2594.301787  	92.218429 
2595.266211  	92.229244 
2596.230636  	92.241696 
2597.195060  	92.261686 
2598.159484  	92.267844 
2599.123909  	92.278766 
2600.088333  	92.297472 
2601.052758  	92.241590 
2602.017182  	92.203274 
2602.981607  	92.232796 
2603.946031  	92.231897 
2604.910456  	92.243446 
2605.874880  	92.250277 
2606.839305  	92.240499 
2607.803729  	92.212183 
2608.768153  	92.208991 
2609.732578  	92.216956 
2610.697002  	92.188762 
2611.661427  	92.160442 
2612.625851  	92.162978 
2613.590276  	92.199887 
2614.554700  	92.221584 
2615.519125  	92.184336 
2616.483549  	92.193282 
2617.447974  	92.177514 
2618.412398  	92.186966 
2619.376822  	92.179847 
2620.341247  	92.176498 
2621.305671  	92.159838 
2622.270096  	92.163558 
2623.234520  	92.174897 
2624.198945  	92.174854 
2625.163369  	92.213656 
2626.127794  	92.216072 
2627.092218  	92.158299 
2628.056643  	92.148688 
2629.021067  	92.136438 
2629.985492  	92.160364 
2630.949916  	92.223499 
2631.914340  	92.233759 
2632.878765  	92.193953 
2633.843189  	92.193909 
2634.807614  	92.185901 
2635.772038  	92.147338 
2636.736463  	92.130695 
2637.700887  	92.154577 
2638.665312  	92.152232 
2639.629736  	92.142197 
2640.594161  	92.134422 
2641.558585  	92.133016 
2642.523009  	92.107006 
2643.487434  	92.102623 
2644.451858  	92.116564 
2645.416283  	92.109321 
2646.380707  	92.098655 
2647.345132  	92.093876 
2648.309556  	92.101368 
2649.273981  	92.108869 
2650.238405  	92.140585 
2651.202830  	92.136474 
2652.167254  	92.110542 
2653.131678  	92.105929 
2654.096103  	92.089014 
2655.060527  	92.068130 
2656.024952  	92.071949 
2656.989376  	92.064246 
2657.953801  	92.036973 
2658.918225  	92.054061 
2659.882650  	92.070362 
2660.847074  	92.084841 
2661.811499  	92.094526 
2662.775923  	92.092423 
2663.740347  	92.092945 
2664.704772  	92.104710 
2665.669196  	92.135826 
2666.633621  	92.141639 
2667.598045  	92.113193 
2668.562470  	92.090305 
2669.526894  	92.068782 
2670.491319  	92.062981 
2671.455743  	92.107375 
2672.420168  	92.137881 
2673.384592  	92.124707 
2674.349016  	92.104843 
2675.313441  	92.082257 
2676.277865  	92.078891 
2677.242290  	92.065232 
2678.206714  	92.043619 
2679.171139  	92.030486 
2680.135563  	92.037011 
2681.099988  	92.047011 
2682.064412  	92.054249 
2683.028837  	92.049692 
2683.993261  	92.022264 
2684.957686  	92.028226 
2685.922110  	92.034806 
2686.886534  	92.014216 
2687.850959  	91.996313 
2688.815383  	92.015203 
2689.779808  	92.011364 
2690.744232  	91.985836 
2691.708657  	91.995492 
2692.673081  	92.007988 
2693.637506  	91.994302 
2694.601930  	92.015788 
2695.566355  	92.026082 
2696.530779  	91.992106 
2697.495203  	91.960796 
2698.459628  	91.957005 
2699.424052  	91.956031 
2700.388477  	91.940526 
2701.352901  	91.902272 
2702.317326  	91.901980 
2703.281750  	91.948916 
2704.246175  	91.953971 
2705.210599  	91.921144 
2706.175024  	91.914656 
2707.139448  	91.907477 
2708.103872  	91.889962 
2709.068297  	91.921450 
2710.032721  	91.920117 
2710.997146  	91.894484 
2711.961570  	91.876481 
2712.925995  	91.886013 
2713.890419  	91.867097 
2714.854844  	91.840452 
2715.819268  	91.855554 
2716.783693  	91.868012 
2717.748117  	91.847738 
2718.712541  	91.827411 
2719.676966  	91.811978 
2720.641390  	91.794979 
2721.605815  	91.799493 
2722.570239  	91.805531 
2723.534664  	91.796461 
2724.499088  	91.752736 
2725.463513  	91.711761 
2726.427937  	91.710782 
2727.392362  	91.685988 
2728.356786  	91.628006 
2729.321210  	91.589113 
2730.285635  	91.618784 
2731.250059  	91.596888 
2732.214484  	91.578389 
2733.178908  	91.563824 
2734.143333  	91.551466 
2735.107757  	91.520664 
2736.072182  	91.503856 
2737.036606  	91.502285 
2738.001031  	91.483799 
2738.965455  	91.451361 
2739.929879  	91.429095 
2740.894304  	91.422533 
2741.858728  	91.420844 
2742.823153  	91.400570 
2743.787577  	91.386433 
2744.752002  	91.374768 
2745.716426  	91.359441 
2746.680851  	91.340728 
2747.645275  	91.328669 
2748.609700  	91.324787 
2749.574124  	91.326929 
2750.538549  	91.295784 
2751.502973  	91.247058 
2752.467397  	91.253027 
2753.431822  	91.280367 
2754.396246  	91.293113 
2755.360671  	91.293720 
2756.325095  	91.284765 
2757.289520  	91.236682 
2758.253944  	91.237046 
2759.218369  	91.250764 
2760.182793  	91.208998 
2761.147218  	91.167368 
2762.111642  	91.166772 
2763.076066  	91.196626 
2764.040491  	91.198874 
2765.004915  	91.171843 
2765.969340  	91.150763 
2766.933764  	91.164308 
2767.898189  	91.138856 
2768.862613  	91.108403 
2769.827038  	91.089749 
2770.791462  	91.087880 
2771.755887  	91.060270 
2772.720311  	91.039953 
2773.684735  	91.048276 
2774.649160  	91.042876 
2775.613584  	91.029486 
2776.578009  	91.020584 
2777.542433  	91.019541 
2778.506858  	91.002195 
2779.471282  	90.973021 
2780.435707  	90.941284 
2781.400131  	90.910642 
2782.364556  	90.909322 
2783.328980  	90.901429 
2784.293404  	90.888496 
2785.257829  	90.892022 
2786.222253  	90.892930 
2787.186678  	90.864512 
2788.151102  	90.806470 
2789.115527  	90.803740 
2790.079951  	90.772086 
2791.044376  	90.737689 
2792.008800  	90.705536 
2792.973225  	90.657205 
2793.937649  	90.631527 
2794.902073  	90.601611 
2795.866498  	90.562850 
2796.830922  	90.519978 
2797.795347  	90.507900 
2798.759771  	90.494247 
2799.724196  	90.443775 
2800.688620  	90.368727 
2801.653045  	90.328916 
2802.617469  	90.304933 
2803.581894  	90.291544 
2804.546318  	90.275988 
2805.510743  	90.250022 
2806.475167  	90.189178 
2807.439591  	90.122226 
2808.404016  	90.073364 
2809.368440  	90.070634 
2810.332865  	90.056713 
2811.297289  	89.980225 
2812.261714  	89.899182 
2813.226138  	89.861636 
2814.190563  	89.818591 
2815.154987  	89.778558 
2816.119412  	89.693626 
2817.083836  	89.607096 
2818.048260  	89.530982 
2819.012685  	89.465166 
2819.977109  	89.429243 
2820.941534  	89.387824 
2821.905958  	89.326614 
2822.870383  	89.223162 
2823.834807  	89.137242 
2824.799232  	89.069083 
2825.763656  	88.997287 
2826.728081  	88.934442 
2827.692505  	88.889638 
2828.656929  	88.863422 
2829.621354  	88.820626 
2830.585778  	88.733810 
2831.550203  	88.630216 
2832.514627  	88.525196 
2833.479052  	88.411951 
2834.443476  	88.326927 
2835.407901  	88.215480 
2836.372325  	88.046381 
2837.336750  	87.837005 
2838.301174  	87.584432 
2839.265598  	87.308113 
2840.230023  	86.996357 
2841.194447  	86.639947 
2842.158872  	86.242638 
2843.123296  	85.766353 
2844.087721  	85.144497 
2845.052145  	84.430675 
2846.016570  	83.645443 
2846.980994  	82.745075 
2847.945419  	81.741685 
2848.909843  	80.743158 
2849.874267  	79.899862 
2850.838692  	79.325727 
2851.803116  	78.907185 
2852.767541  	78.536790 
2853.731965  	78.235442 
2854.696390  	77.976149 
2855.660814  	77.758768 
2856.625239  	77.577120 
2857.589663  	77.402363 
2858.554088  	77.271980 
2859.518512  	77.259475 
2860.482936  	77.338438 
2861.447361  	77.503439 
2862.411785  	77.728446 
2863.376210  	77.991028 
2864.340634  	78.249182 
2865.305059  	78.507977 
2866.269483  	78.761727 
2867.233908  	78.989244 
2868.198332  	79.172513 
2869.162757  	79.327256 
2870.127181  	79.434861 
2871.091606  	79.547817 
2872.056030  	79.704810 
2873.020454  	79.889107 
2873.984879  	80.079955 
2874.949303  	80.285714 
2875.913728  	80.572702 
2876.878152  	80.903429 
2877.842577  	81.240307 
2878.807001  	81.636078 
2879.771426  	82.030424 
2880.735850  	82.374556 
2881.700275  	82.722544 
2882.664699  	83.071669 
2883.629123  	83.357194 
2884.593548  	83.594633 
2885.557972  	83.783920 
2886.522397  	83.910753 
2887.486821  	83.986655 
2888.451246  	84.012541 
2889.415670  	84.007923 
2890.380095  	83.937981 
2891.344519  	83.822801 
2892.308944  	83.709791 
2893.273368  	83.511106 
2894.237792  	83.289039 
2895.202217  	83.043302 
2896.166641  	82.833257 
2897.131066  	82.559392 
2898.095490  	82.210483 
2899.059915  	81.881189 
2900.024339  	81.538950 
2900.988764  	81.160361 
2901.953188  	80.806579 
2902.917613  	80.457098 
2903.882037  	80.073619 
2904.846461  	79.677592 
2905.810886  	79.299070 
2906.775310  	78.928550 
2907.739735  	78.556532 
2908.704159  	78.165262 
2909.668584  	77.801749 
2910.633008  	77.411356 
2911.597433  	76.971862 
2912.561857  	76.514176 
2913.526282  	76.002856 
2914.490706  	75.392024 
2915.455130  	74.770647 
2916.419555  	74.249185 
2917.383979  	73.795441 
2918.348404  	73.397311 
2919.312828  	73.095596 
2920.277253  	72.813676 
2921.241677  	72.553986 
2922.206102  	72.328338 
2923.170526  	72.108552 
2924.134951  	71.931763 
2925.099375  	71.732222 
2926.063800  	71.455540 
2927.028224  	71.207961 
2927.992648  	71.004462 
2928.957073  	70.794833 
2929.921497  	70.592178 
2930.885922  	70.443213 
2931.850346  	70.363986 
2932.814771  	70.404909 
2933.779195  	70.492211 
2934.743620  	70.628850 
2935.708044  	70.850698 
2936.672469  	71.183564 
2937.636893  	71.646922 
2938.601317  	72.187250 
2939.565742  	72.774628 
2940.530166  	73.378335 
2941.494591  	73.951084 
2942.459015  	74.504991 
2943.423440  	75.023440 
2944.387864  	75.519237 
2945.352289  	76.040146 
2946.316713  	76.632569 
2947.281138  	77.296465 
2948.245562  	78.032182 
2949.209986  	78.761437 
2950.174411  	79.472042 
2951.138835  	80.207672 
2952.103260  	80.928876 
2953.067684  	81.581113 
2954.032109  	82.183528 
2954.996533  	82.780892 
2955.960958  	83.300535 
2956.925382  	83.800706 
2957.889807  	84.317975 
2958.854231  	84.761821 
2959.818655  	85.160191 
2960.783080  	85.520946 
2961.747504  	85.851920 
2962.711929  	86.175919 
2963.676353  	86.454761 
2964.640778  	86.671057 
2965.605202  	86.910382 
2966.569627  	87.187931 
2967.534051  	87.525267 
2968.498476  	87.862506 
2969.462900  	88.113536 
2970.427324  	88.336152 
2971.391749  	88.575758 
2972.356173  	88.841468 
2973.320598  	89.081487 
2974.285022  	89.301342 
2975.249447  	89.480233 
2976.213871  	89.636812 
2977.178296  	89.785106 
2978.142720  	89.911983 
2979.107145  	90.070206 
2980.071569  	90.262503 
2981.035993  	90.364214 
2982.000418  	90.454085 
2982.964842  	90.617555 
2983.929267  	90.738698 
2984.893691  	90.813728 
2985.858116  	90.866212 
2986.822540  	90.970269 
2987.786965  	91.030035 
2988.751389  	91.052336 
2989.715814  	91.120878 
2990.680238  	91.203457 
2991.644663  	91.275625 
2992.609087  	91.287601 
2993.573511  	91.274020 
2994.537936  	91.262084 
2995.502360  	91.310118 
2996.466785  	91.367203 
2997.431209  	91.408641 
2998.395634  	91.444665 
2999.360058  	91.441398 
3000.324483  	91.455971 
3001.288907  	91.443806 
3002.253332  	91.408622 
3003.217756  	91.440098 
3004.182180  	91.430137 
3005.146605  	91.358115 
3006.111029  	91.329676 
3007.075454  	91.341824 
3008.039878  	91.372603 
3009.004303  	91.395351 
3009.968727  	91.358632 
3010.933152  	91.302550 
3011.897576  	91.270467 
3012.862001  	91.216747 
3013.826425  	91.275015 
3014.790849  	91.295129 
3015.755274  	91.226442 
3016.719698  	91.220289 
3017.684123  	91.235883 
3018.648547  	91.200307 
3019.612972  	91.153031 
3020.577396  	91.089967 
3021.541821  	91.083355 
3022.506245  	91.057064 
3023.470670  	91.015504 
3024.435094  	90.991786 
3025.399518  	90.936645 
3026.363943  	90.894538 
3027.328367  	90.895100 
3028.292792  	90.850594 
3029.257216  	90.807626 
3030.221641  	90.722512 
3031.186065  	90.564560 
3032.150490  	90.432565 
3033.114914  	90.472536 
3034.079339  	90.441398 
3035.043763  	90.390105 
3036.008187  	90.352618 
3036.972612  	90.269199 
3037.937036  	90.154437 
3038.901461  	90.086002 
3039.865885  	90.039465 
3040.830310  	90.005844 
3041.794734  	89.917602 
3042.759159  	89.816762 
3043.723583  	89.737162 
3044.688008  	89.628400 
3045.652432  	89.532837 
3046.616857  	89.419841 
3047.581281  	89.291502 
3048.545705  	89.117489 
3049.510130  	88.962848 
3050.474554  	88.909649 
3051.438979  	88.853319 
3052.403403  	88.733509 
3053.367828  	88.575528 
3054.332252  	88.462532 
3055.296677  	88.392486 
3056.261101  	88.216621 
3057.225526  	88.113166 
3058.189950  	88.160193 
3059.154374  	88.137391 
3060.118799  	88.082642 
3061.083223  	88.053373 
3062.047648  	88.032821 
3063.012072  	87.989431 
3063.976497  	87.899358 
3064.940921  	87.861020 
3065.905346  	87.945041 
3066.869770  	87.884740 
3067.834195  	87.855000 
3068.798619  	87.899511 
3069.763043  	87.906080 
3070.727468  	87.938812 
3071.691892  	87.944338 
3072.656317  	87.878941 
3073.620741  	87.871260 
3074.585166  	87.917509 
3075.549590  	87.950583 
3076.514015  	87.935704 
3077.478439  	87.911439 
3078.442864  	87.911731 
3079.407288  	87.908047 
3080.371712  	87.954085 
3081.336137  	88.000975 
3082.300561  	87.970758 
3083.264986  	88.057598 
3084.229410  	88.161038 
3085.193835  	88.137820 
3086.158259  	88.136409 
3087.122684  	88.170910 
3088.087108  	88.168900 
3089.051533  	88.222961 
3090.015957  	88.296953 
3090.980381  	88.322801 
3091.944806  	88.369793 
3092.909230  	88.420677 
3093.873655  	88.439862 
3094.838079  	88.491117 
3095.802504  	88.545860 
3096.766928  	88.615213 
3097.731353  	88.738419 
3098.695777  	88.837728 
3099.660202  	88.857022 
3100.624626  	88.899337 
3101.589050  	88.908281 
3102.553475  	88.982971 
3103.517899  	89.078460 
3104.482324  	89.202657 
3105.446748  	89.265613 
3106.411173  	89.294932 
3107.375597  	89.348596 
3108.340022  	89.454762 
3109.304446  	89.520083 
3110.268871  	89.525277 
3111.233295  	89.548735 
3112.197720  	89.562191 
3113.162144  	89.584286 
3114.126568  	89.654076 
3115.090993  	89.706809 
3116.055417  	89.748456 
3117.019842  	89.829430 
3117.984266  	89.837772 
3118.948691  	89.747733 
3119.913115  	89.864491 
3120.877540  	89.985861 
3121.841964  	89.941533 
3122.806389  	89.878947 
3123.770813  	89.927997 
3124.735237  	89.970506 
3125.699662  	89.957307 
3126.664086  	89.956846 
3127.628511  	90.003770 
3128.592935  	90.022965 
3129.557360  	90.045113 
3130.521784  	90.045721 
3131.486209  	90.033281 
3132.450633  	89.986312 
3133.415058  	89.922012 
3134.379482  	90.020347 
3135.343906  	90.094728 
3136.308331  	90.076000 
3137.272755  	90.027555 
3138.237180  	90.034008 
3139.201604  	90.056570 
3140.166029  	90.063966 
3141.130453  	90.080982 
3142.094878  	90.004589 
3143.059302  	89.927936 
3144.023727  	89.903397 
3144.988151  	89.890496 
3145.952575  	89.875935 
3146.917000  	89.848908 
3147.881424  	89.826891 
3148.845849  	89.835731 
3149.810273  	89.795107 
3150.774698  	89.767912 
3151.739122  	89.728045 
3152.703547  	89.681234 
3153.667971  	89.630521 
3154.632396  	89.615902 
3155.596820  	89.577404 
3156.561244  	89.485765 
3157.525669  	89.434883 
3158.490093  	89.439059 
3159.454518  	89.364485 
3160.418942  	89.258092 
3161.383367  	89.195453 
3162.347791  	89.152183 
3163.312216  	89.092503 
3164.276640  	89.072964 
3165.241065  	89.026274 
3166.205489  	88.924871 
3167.169914  	88.834185 
3168.134338  	88.748507 
3169.098762  	88.645150 
3170.063187  	88.547592 
3171.027611  	88.521482 
3171.992036  	88.500510 
3172.956460  	88.391086 
3173.920885  	88.298289 
3174.885309  	88.244886 
3175.849734  	88.181755 
3176.814158  	88.081931 
3177.778583  	87.952433 
3178.743007  	87.885845 
3179.707431  	87.877659 
3180.671856  	87.831739 
3181.636280  	87.821264 
3182.600705  	87.765417 
3183.565129  	87.672655 
3184.529554  	87.567188 
3185.493978  	87.501357 
3186.458403  	87.488138 
3187.422827  	87.417849 
3188.387252  	87.306539 
3189.351676  	87.307091 
3190.316100  	87.292289 
3191.280525  	87.225265 
3192.244949  	87.160614 
3193.209374  	87.115952 
3194.173798  	87.034923 
3195.138223  	86.955647 
3196.102647  	86.847878 
3197.067072  	86.749567 
3198.031496  	86.687973 
3198.995921  	86.740849 
3199.960345  	86.734061 
3200.924769  	86.713372 
3201.889194  	86.690979 
3202.853618  	86.628542 
3203.818043  	86.570075 
3204.782467  	86.510966 
3205.746892  	86.437669 
3206.711316  	86.397171 
3207.675741  	86.356386 
3208.640165  	86.299499 
3209.604590  	86.199037 
3210.569014  	86.167625 
3211.533438  	86.199299 
3212.497863  	86.174382 
3213.462287  	86.060323 
3214.426712  	85.958329 
3215.391136  	85.965594 
3216.355561  	85.945842 
3217.319985  	85.854409 
3218.284410  	85.735202 
3219.248834  	85.625139 
3220.213259  	85.591363 
3221.177683  	85.593198 
3222.142107  	85.513604 
3223.106532  	85.384977 
3224.070956  	85.278113 
3225.035381  	85.163666 
3225.999805  	85.031093 
3226.964230  	84.896408 
3227.928654  	84.746656 
3228.893079  	84.666270 
3229.857503  	84.635825 
3230.821928  	84.491332 
3231.786352  	84.368279 
3232.750777  	84.268080 
3233.715201  	84.134564 
3234.679625  	83.941027 
3235.644050  	83.789564 
3236.608474  	83.600669 
3237.572899  	83.435840 
3238.537323  	83.272248 
3239.501748  	83.066775 
3240.466172  	82.891153 
3241.430597  	82.790806 
3242.395021  	82.634931 
3243.359446  	82.396756 
3244.323870  	82.141540 
3245.288294  	81.891886 
3246.252719  	81.722342 
3247.217143  	81.612446 
3248.181568  	81.440964 
3249.145992  	81.207274 
3250.110417  	81.008350 
3251.074841  	80.795069 
3252.039266  	80.480750 
3253.003690  	80.204874 
3253.968115  	79.945022 
3254.932539  	79.698071 
3255.896963  	79.473640 
3256.861388  	79.198408 
3257.825812  	78.970748 
3258.790237  	78.736303 
3259.754661  	78.410999 
3260.719086  	78.103102 
3261.683510  	77.862733 
3262.647935  	77.593753 
3263.612359  	77.315487 
3264.576784  	77.052360 
3265.541208  	76.758185 
3266.505632  	76.458640 
3267.470057  	76.146858 
3268.434481  	75.874939 
3269.398906  	75.598594 
3270.363330  	75.331296 
3271.327755  	75.037219 
3272.292179  	74.718958 
3273.256604  	74.323655 
3274.221028  	73.988567 
3275.185453  	73.747966 
3276.149877  	73.408025 
3277.114301  	72.967222 
3278.078726  	72.625313 
3279.043150  	72.237712 
3280.007575  	71.849654 
3280.971999  	71.449818 
3281.936424  	71.081182 
3282.900848  	70.661765 
3283.865273  	70.248001 
3284.829697  	69.887211 
3285.794122  	69.535824 
3286.758546  	69.133071 
3287.722971  	68.735101 
3288.687395  	68.404011 
3289.651819  	68.154788 
3290.616244  	67.898127 
3291.580668  	67.659385 
3292.545093  	67.412110 
3293.509517  	67.198507 
3294.473942  	67.043296 
3295.438366  	66.973081 
3296.402791  	66.976978 
3297.367215  	67.009427 
3298.331640  	67.059302 
3299.296064  	67.246746 
3300.260488  	67.479014 
3301.224913  	67.801457 
3302.189337  	68.183073 
3303.153762  	68.507568 
3304.118186  	68.833195 
3305.082611  	69.312808 
3306.047035  	69.861709 
3307.011460  	70.460039 
3307.975884  	70.997735 
3308.940309  	71.549315 
3309.904733  	72.213140 
3310.869157  	72.878185 
3311.833582  	73.532293 
3312.798006  	74.226673 
3313.762431  	74.905720 
3314.726855  	75.619157 
3315.691280  	76.236974 
3316.655704  	76.841581 
3317.620129  	77.434109 
3318.584553  	78.015766 
3319.548978  	78.566272 
3320.513402  	79.099707 
3321.477826  	79.570217 
3322.442251  	80.076156 
3323.406675  	80.548938 
3324.371100  	80.960054 
3325.335524  	81.318167 
3326.299949  	81.737796 
3327.264373  	82.113321 
3328.228798  	82.450093 
3329.193222  	82.727567 
3330.157647  	83.060077 
3331.122071  	83.430609 
3332.086495  	83.760993 
3333.050920  	83.989052 
3334.015344  	84.195998 
3334.979769  	84.428587 
3335.944193  	84.688512 
3336.908618  	84.843630 
3337.873042  	85.097852 
3338.837467  	85.353054 
3339.801891  	85.563855 
3340.766316  	85.840899 
3341.730740  	86.000702 
3342.695164  	86.097152 
3343.659589  	86.334835 
3344.624013  	86.651916 
3345.588438  	86.827031 
3346.552862  	86.878058 
3347.517287  	86.969903 
3348.481711  	87.077199 
3349.446136  	87.218856 
3350.410560  	87.382945 
3351.374985  	87.601131 
3352.339409  	87.751265 
3353.303834  	87.783126 
3354.268258  	87.852837 
3355.232682  	87.943139 
3356.197107  	87.896588 
3357.161531  	88.003645 
3358.125956  	88.172656 
3359.090380  	88.289009 
3360.054805  	88.237969 
3361.019229  	88.287767 
3361.983654  	88.369220 
3362.948078  	88.518680 
3363.912503  	88.577144 
3364.876927  	88.521753 
3365.841351  	88.587120 
3366.805776  	88.705312 
3367.770200  	88.706617 
3368.734625  	88.785076 
3369.699049  	88.969979 
3370.663474  	89.072164 
3371.627898  	89.071716 
3372.592323  	89.080595 
3373.556747  	89.121128 
3374.521172  	89.159668 
3375.485596  	89.243620 
3376.450020  	89.290800 
3377.414445  	89.292775 
3378.378869  	89.344165 
3379.343294  	89.449618 
3380.307718  	89.511197 
3381.272143  	89.549467 
3382.236567  	89.537967 
3383.200992  	89.491561 
3384.165416  	89.455714 
3385.129841  	89.494727 
3386.094265  	89.599588 
3387.058689  	89.713364 
3388.023114  	89.788011 
3388.987538  	89.756265 
3389.951963  	89.677494 
3390.916387  	89.627090 
3391.880812  	89.576209 
3392.845236  	89.451438 
3393.809661  	89.562966 
3394.774085  	89.804030 
3395.738510  	89.866306 
3396.702934  	89.812263 
3397.667358  	89.663672 
3398.631783  	89.795577 
3399.596207  	89.987984 
3400.560632  	89.943268 
3401.525056  	89.922650 
3402.489481  	89.997035 
3403.453905  	89.983534 
3404.418330  	89.996030 
3405.382754  	90.049119 
3406.347179  	90.038954 
3407.311603  	90.020515 
3408.276028  	90.016281 
3409.240452  	89.981604 
3410.204876  	89.941559 
3411.169301  	90.031609 
3412.133725  	90.122205 
3413.098150  	90.177805 
3414.062574  	90.156440 
3415.026999  	90.172108 
3415.991423  	90.188737 
3416.955848  	90.264100 
3417.920272  	90.235819 
3418.884697  	90.134128 
3419.849121  	89.935127 
3420.813545  	89.735320 
3421.777970  	89.837230 
3422.742394  	90.004014 
3423.706819  	90.185786 
3424.671243  	90.312645 
3425.635668  	90.306867 
3426.600092  	90.257174 
3427.564517  	90.248778 
3428.528941  	90.336749 
3429.493366  	90.373073 
3430.457790  	90.286073 
3431.422214  	90.250701 
3432.386639  	90.273901 
3433.351063  	90.331696 
3434.315488  	90.423197 
3435.279912  	90.374856 
3436.244337  	90.382526 
3437.208761  	90.446650 
3438.173186  	90.441399 
3439.137610  	90.372960 
3440.102035  	90.387863 
3441.066459  	90.424434 
3442.030883  	90.357792 
3442.995308  	90.149446 
3443.959732  	90.315867 
3444.924157  	90.366634 
3445.888581  	90.307658 
3446.853006  	89.947257 
3447.817430  	89.650823 
3448.781855  	90.134725 
3449.746279  	90.469695 
3450.710704  	90.572887 
3451.675128  	90.613993 
3452.639552  	90.638576 
3453.603977  	90.619944 
3454.568401  	90.606638 
3455.532826  	90.579393 
3456.497250  	90.560435 
3457.461675  	90.594358 
3458.426099  	90.614199 
3459.390524  	90.629271 
3460.354948  	90.607912 
3461.319373  	90.513596 
3462.283797  	90.429650 
3463.248221  	90.413333 
3464.212646  	90.593220 
3465.177070  	90.695195 
3466.141495  	90.602343 
3467.105919  	90.405182 
3468.070344  	90.504604 
3469.034768  	90.703266 
3469.999193  	90.696392 
3470.963617  	90.659581 
3471.928042  	90.693369 
3472.892466  	90.703177 
3473.856891  	90.647750 
3474.821315  	90.516095 
3475.785739  	90.604212 
3476.750164  	90.783151 
3477.714588  	90.817261 
3478.679013  	90.808915 
3479.643437  	90.714174 
3480.607862  	90.455520 
3481.572286  	90.329392 
3482.536711  	90.185850 
3483.501135  	90.420971 
3484.465560  	90.694266 
3485.429984  	90.700507 
3486.394408  	90.706948 
3487.358833  	90.683038 
3488.323257  	90.473994 
3489.287682  	90.548318 
3490.252106  	90.833158 
3491.216531  	90.889563 
3492.180955  	90.969460 
3493.145380  	91.014612 
3494.109804  	91.061097 
3495.074229  	90.932404 
3496.038653  	90.708483 
3497.003077  	90.595826 
3497.967502  	90.793036 
3498.931926  	90.959151 
3499.896351  	90.854354 
3500.860775  	90.787159 
3501.825200  	90.491653 
3502.789624  	90.011170 
3503.754049  	89.973106 
3504.718473  	90.408392 
3505.682898  	90.763397 
3506.647322  	91.025062 
3507.611746  	91.164540 
3508.576171  	90.915527 
3509.540595  	90.311200 
3510.505020  	90.458664 
3511.469444  	90.947729 
3512.433869  	91.023749 
3513.398293  	91.066369 
3514.362718  	91.213999 
3515.327142  	91.379245 
3516.291567  	91.448866 
3517.255991  	91.378912 
3518.220415  	91.252714 
3519.184840  	91.221586 
3520.149264  	91.321300 
3521.113689  	91.472945 
3522.078113  	91.310904 
3523.042538  	90.612605 
3524.006962  	90.224365 
3524.971387  	90.626566 
3525.935811  	90.813455 
3526.900236  	90.788575 
3527.864660  	90.603220 
3528.829085  	90.685975 
3529.793509  	90.963175 
3530.757933  	91.312149 
3531.722358  	91.357384 
3532.686782  	91.590577 
3533.651207  	91.768386 
3534.615631  	91.817774 
3535.580056  	91.622494 
3536.544480  	91.061055 
3537.508905  	91.206183 
3538.473329  	91.786078 
3539.437754  	91.792513 
3540.402178  	91.822860 
3541.366602  	91.846578 
3542.331027  	91.858596 
3543.295451  	91.588967 
3544.259876  	91.204825 
3545.224300  	90.463950 
3546.188725  	90.304909 
3547.153149  	90.389728 
3548.117574  	90.808026 
3549.081998  	91.616948 
3550.046423  	91.992286 
3551.010847  	91.970569 
3551.975271  	91.354438 
3552.939696  	91.009318 
3553.904120  	91.438635 
3554.868545  	91.878707 
3555.832969  	92.225906 
3556.797394  	92.205268 
3557.761818  	92.236569 
3558.726243  	92.313398 
3559.690667  	91.953319 
3560.655092  	91.442665 
3561.619516  	91.847702 
3562.583940  	91.943357 
3563.548365  	91.873592 
3564.512789  	91.793192 
3565.477214  	91.016745 
3566.441638  	88.868309 
3567.406063  	88.668725 
3568.370487  	89.155128 
3569.334912  	90.579965 
3570.299336  	91.769433 
3571.263761  	92.022182 
3572.228185  	92.388970 
3573.192609  	92.477655 
3574.157034  	92.366269 
3575.121458  	92.309323 
3576.085883  	92.439600 
3577.050307  	92.365204 
3578.014732  	92.325658 
3578.979156  	92.471177 
3579.943581  	92.144807 
3580.908005  	92.082104 
3581.872430  	92.522883 
3582.836854  	92.596188 
3583.801278  	92.425442 
3584.765703  	92.443327 
3585.730127  	92.102405 
3586.694552  	90.607046 
3587.658976  	89.644777 
3588.623401  	90.018497 
3589.587825  	90.906962 
3590.552250  	92.229358 
3591.516674  	92.727805 
3592.481099  	92.708216 
3593.445523  	92.000459 
3594.409948  	91.999295 
3595.374372  	91.692712 
3596.338796  	91.448537 
3597.303221  	92.266596 
3598.267645  	92.334261 
3599.232070  	92.039752 
3600.196494  	92.190299 
3601.160919  	91.895961 
3602.125343  	92.168879 
3603.089768  	92.524354 
3604.054192  	92.841050 
3605.018617  	93.041225 
3605.983041  	92.927877 
3606.947465  	91.858251 
3607.911890  	91.200750 
3608.876314  	91.560101 
3609.840739  	91.263086 
3610.805163  	92.142798 
3611.769588  	92.278978 
3612.734012  	91.087965 
3613.698437  	91.122478 
3614.662861  	91.433673 
3615.627286  	91.463116 
3616.591710  	92.436316 
3617.556134  	92.013606 
3618.520559  	91.143984 
3619.484983  	91.081514 
3620.449408  	91.007519 
3621.413832  	91.772417 
3622.378257  	92.572828 
3623.342681  	93.040205 
3624.307106  	93.220890 
3625.271530  	93.187989 
3626.235955  	92.697205 
3627.200379  	92.421955 
3628.164803  	91.644645 
3629.129228  	88.961817 
3630.093652  	89.270921 
3631.058077  	91.626008 
3632.022501  	92.689473 
3632.986926  	92.821086 
3633.951350  	92.148007 
3634.915775  	92.431188 
3635.880199  	93.171377 
3636.844624  	93.331152 
3637.809048  	93.143772 
3638.773472  	93.027375 
3639.737897  	93.324174 
3640.702321  	93.455502 
3641.666746  	93.157659 
3642.631170  	92.653555 
3643.595595  	92.842451 
3644.560019  	93.244046 
3645.524444  	92.996337 
3646.488868  	92.044348 
3647.453293  	90.210998 
3648.417717  	90.159114 
3649.382142  	90.162534 
3650.346566  	89.377828 
3651.310990  	89.580592 
3652.275415  	91.499305 
3653.239839  	92.887192 
3654.204264  	93.299405 
3655.168688  	93.250410 
3656.133113  	92.444809 
3657.097537  	91.875614 
3658.061962  	92.928328 
3659.026386  	93.362298 
3659.990811  	93.297944 
3660.955235  	93.411713 
3661.919659  	93.631565 
3662.884084  	93.665748 
3663.848508  	93.633546 
3664.812933  	93.576137 
3665.777357  	93.629747 
3666.741782  	93.666582 
3667.706206  	93.586959 
3668.670631  	92.729743 
3669.635055  	91.484783 
3670.599480  	90.885294 
3671.563904  	91.137570 
3672.528328  	92.636908 
3673.492753  	93.057400 
3674.457177  	92.044208 
3675.421602  	89.269803 
3676.386026  	89.322164 
3677.350451  	91.337519 
3678.314875  	92.309107 
3679.279300  	92.389952 
3680.243724  	92.336833 
3681.208149  	93.192470 
3682.172573  	93.660462 
3683.136997  	93.691121 
3684.101422  	93.551307 
3685.065846  	93.401836 
3686.030271  	93.538942 
3686.994695  	93.449025 
3687.959120  	92.804733 
3688.923544  	91.598652 
3689.887969  	91.876001 
3690.852393  	91.586919 
3691.816818  	91.306680 
3692.781242  	92.803379 
3693.745666  	93.401329 
3694.710091  	93.515459 
3695.674515  	93.608846 
3696.638940  	93.478963 
3697.603364  	93.540909 
3698.567789  	93.810202 
3699.532213  	93.735501 
3700.496638  	93.654553 
3701.461062  	92.984864 
3702.425487  	92.328467 
3703.389911  	93.210324 
3704.354335  	93.726949 
3705.318760  	93.611176 
3706.283184  	93.538162 
3707.247609  	93.650333 
3708.212033  	93.684909 
3709.176458  	93.092075 
3710.140882  	92.173616 
3711.105307  	91.917867 
3712.069731  	91.097574 
3713.034156  	90.990179 
3713.998580  	92.469212 
3714.963005  	92.694573 
3715.927429  	92.983774 
3716.891853  	93.644056 
3717.856278  	93.785110 
3718.820702  	93.116993 
3719.785127  	92.687247 
3720.749551  	93.298220 
3721.713976  	93.023779 
3722.678400  	91.659261 
3723.642825  	92.190944 
3724.607249  	92.710820 
3725.571674  	92.043655 
3726.536098  	91.751577 
3727.500522  	91.962737 
3728.464947  	92.934998 
3729.429371  	93.566125 
3730.393796  	93.485204 
3731.358220  	93.141644 
3732.322645  	92.314043 
3733.287069  	92.124862 
3734.251494  	91.764265 
3735.215918  	88.754596 
3736.180343  	88.806374 
3737.144767  	90.536255 
3738.109191  	91.601191 
3739.073616  	92.085843 
3740.038040  	92.643579 
3741.002465  	92.358173 
3741.966889  	92.314233 
3742.931314  	92.932434 
3743.895738  	92.295885 
3744.860163  	89.022530 
3745.824587  	90.583343 
3746.789012  	91.991431 
3747.753436  	92.184317 
3748.717860  	92.114164 
3749.682285  	91.495549 
3750.646709  	90.996253 
3751.611134  	91.013188 
3752.575558  	89.898941 
3753.539983  	91.240023 
3754.504407  	92.502153 
3755.468832  	93.133430 
3756.433256  	92.919522 
3757.397681  	92.753536 
3758.362105  	92.968708 
3759.326529  	92.179339 
3760.290954  	91.594739 
3761.255378  	92.971361 
3762.219803  	93.504396 
3763.184227  	93.561572 
3764.148652  	93.573930 
3765.113076  	93.231435 
3766.077501  	92.379127 
3767.041925  	92.927180 
3768.006350  	93.556944 
3768.970774  	93.396718 
3769.935199  	92.431493 
3770.899623  	92.297888 
3771.864047  	93.199400 
3772.828472  	93.638651 
3773.792896  	93.744426 
3774.757321  	93.806581 
3775.721745  	93.928949 
3776.686170  	94.012180 
3777.650594  	93.855052 
3778.615019  	93.433050 
3779.579443  	92.623295 
3780.543868  	92.637303 
3781.508292  	93.523718 
3782.472716  	93.671208 
3783.437141  	93.676783 
3784.401565  	93.352050 
3785.365990  	92.856059 
3786.330414  	93.194292 
3787.294839  	93.592071 
3788.259263  	93.784581 
3789.223688  	93.814377 
3790.188112  	93.802829 
3791.152537  	93.907446 
3792.116961  	93.901169 
3793.081385  	93.956346 
3794.045810  	93.995783 
3795.010234  	93.840320 
3795.974659  	93.317674 
3796.939083  	92.399338 
3797.903508  	92.574851 
3798.867932  	93.210413 
3799.832357  	93.354248 
3800.796781  	92.530435 
3801.761206  	91.011740 
3802.725630  	91.272924 
3803.690054  	92.377308 
3804.654479  	93.345273 
3805.618903  	93.530405 
3806.583328  	93.036903 
3807.547752  	92.240426 
3808.512177  	93.003564 
3809.476601  	93.560228 
3810.441026  	93.625271 
3811.405450  	93.720222 
3812.369875  	93.836943 
3813.334299  	93.882089 
3814.298723  	93.749070 
3815.263148  	93.235848 
3816.227572  	91.936547 
3817.191997  	91.970780 
3818.156421  	92.983220 
3819.120846  	93.057501 
3820.085270  	92.395168 
3821.049695  	90.762014 
3822.014119  	90.376425 
3822.978544  	92.156610 
3823.942968  	92.961859 
3824.907392  	93.275215 
3825.871817  	93.258237 
3826.836241  	92.694281 
3827.800666  	92.663682 
3828.765090  	93.287619 
3829.729515  	93.630631 
3830.693939  	93.582137 
3831.658364  	92.878238 
3832.622788  	92.685995 
3833.587213  	93.366734 
3834.551637  	93.099215 
3835.516062  	92.320968 
3836.480486  	92.863343 
3837.444910  	92.740082 
3838.409335  	91.314395 
3839.373759  	91.633182 
3840.338184  	91.435743 
3841.302608  	91.492191 
3842.267033  	92.723969 
3843.231457  	92.983416 
3844.195882  	92.152451 
3845.160306  	92.774476 
3846.124731  	93.489930 
3847.089155  	93.653994 
3848.053579  	93.665155 
3849.018004  	93.501205 
3849.982428  	93.002704 
3850.946853  	92.989222 
3851.911277  	92.275071 
3852.875702  	90.492936 
3853.840126  	90.009778 
3854.804551  	90.072462 
3855.768975  	91.957058 
3856.733400  	92.422701 
3857.697824  	91.999616 
3858.662248  	92.971709 
3859.626673  	93.704810 
3860.591097  	93.738817 
3861.555522  	93.160693 
3862.519946  	92.431139 
3863.484371  	92.699847 
3864.448795  	92.130440 
3865.413220  	90.947537 
3866.377644  	92.173513 
3867.342069  	93.334898 
3868.306493  	93.399739 
3869.270917  	92.267672 
3870.235342  	90.240720 
3871.199766  	91.241246 
3872.164191  	92.567752 
3873.128615  	93.000424 
3874.093040  	91.871508 
3875.057464  	91.629854 
3876.021889  	93.255053 
3876.986313  	93.768850 
3877.950738  	93.812298 
3878.915162  	93.737295 
3879.879586  	92.887290 
3880.844011  	90.926961 
3881.808435  	91.938000 
3882.772860  	93.088230 
3883.737284  	92.832934 
3884.701709  	92.783607 
3885.666133  	92.110696 
3886.630558  	91.444718 
3887.594982  	93.000209 
3888.559407  	93.688981 
3889.523831  	93.725556 
3890.488256  	93.330655 
3891.452680  	92.123956 
3892.417104  	91.838816 
3893.381529  	92.904453 
3894.345953  	92.947357 
3895.310378  	93.197665 
3896.274802  	93.700939 
3897.239227  	93.750508 
3898.203651  	93.113779 
3899.168076  	92.026757 
3900.132500  	91.656398 
3901.096925  	92.522502 
3902.061349  	91.514162 
3903.025773  	91.324853 
3903.990198  	91.897949 
3904.954622  	91.372689 
3905.919047  	91.658369 
3906.883471  	92.487906 
3907.847896  	93.524356 
3908.812320  	93.854982 
3909.776745  	93.881431 
3910.741169  	93.872208 
3911.705594  	93.873988 
3912.670018  	93.840511 
3913.634442  	93.834711 
3914.598867  	93.885048 
3915.563291  	93.771022 
3916.527716  	92.896771 
3917.492140  	92.006152 
3918.456565  	92.808502 
3919.420989  	93.255741 
3920.385414  	92.574217 
3921.349838  	93.020204 
3922.314263  	93.794233 
3923.278687  	93.504288 
3924.243111  	92.655385 
3925.207536  	92.113232 
3926.171960  	92.802236 
3927.136385  	93.700906 
3928.100809  	93.774429 
3929.065234  	93.552527 
3930.029658  	93.231731 
3930.994083  	92.990064 
3931.958507  	92.620639 
3932.922932  	92.145262 
3933.887356  	92.878235 
3934.851780  	93.361055 
3935.816205  	93.676077 
3936.780629  	93.897880 
3937.745054  	93.865536 
3938.709478  	93.641931 
3939.673903  	93.747317 
3940.638327  	93.847653 
3941.602752  	93.698380 
3942.567176  	92.784784 
3943.531601  	92.255721 
3944.496025  	93.113954 
3945.460449  	93.601419 
3946.424874  	93.683392 
3947.389298  	93.150918 
3948.353723  	92.712671 
3949.318147  	92.965552 
3950.282572  	92.722524 
3951.246996  	93.107366 
3952.211421  	93.704686 
3953.175845  	93.599209 
3954.140270  	93.676614 
3955.104694  	93.844681 
3956.069119  	93.794730 
3957.033543  	93.607174 
3957.997967  	93.568782 
3958.962392  	93.662092 
3959.926816  	93.727569 
3960.891241  	93.691225 
3961.855665  	93.250516 
3962.820090  	93.215688 
3963.784514  	93.733635 
3964.748939  	93.793091 
3965.713363  	93.817534 
3966.677788  	93.904245 
3967.642212  	93.908211 
3968.606636  	93.727023 
3969.571061  	93.536751 
3970.535485  	93.696452 
3971.499910  	93.806974 
3972.464334  	93.567585 
3973.428759  	93.607231 
3974.393183  	93.726455 
3975.357608  	93.599643 
3976.322032  	93.449977 
3977.286457  	93.620987 
3978.250881  	93.861254 
3979.215305  	93.865393 
3980.179730  	93.830810 
3981.144154  	93.800970 
3982.108579  	93.759200 
3983.073003  	93.760447 
3984.037428  	93.865662 
3985.001852  	93.870249 
3985.966277  	93.861110 
3986.930701  	93.910962 
3987.895126  	93.899730 
3988.859550  	93.863702 
3989.823974  	93.717429 
3990.788399  	93.482239 
3991.752823  	93.617545 
3992.717248  	93.838421 
3993.681672  	93.844742 
3994.646097  	93.712457 
3995.610521  	93.615656 
3996.574946  	93.781776 
3997.539370  	93.852331 
3998.503795  	93.871764 
3999.468219  	93.885414 
4000.432643  	93.934087 
4001.397068  	93.904310 
4002.361492  	93.854873 
4003.325917  	93.817040 
4004.290341  	93.822193 
4005.254766  	93.817559 
4006.219190  	93.796880 
4007.183615  	93.775857 
4008.148039  	93.689726 
4009.112464  	93.593963 
4010.076888  	93.741652 
4011.041313  	93.838982 
4012.005737  	93.844071 
4012.970161  	93.809807 
4013.934586  	93.833001 
4014.899010  	93.875901 
4015.863435  	93.845108 
4016.827859  	93.831130 
4017.792284  	93.860527 
4018.756708  	93.875051 
4019.721133  	93.780735 
4020.685557  	93.758269 
4021.649982  	93.825287 
4022.614406  	93.893158 
4023.578830  	93.890522 
4024.543255  	93.833396 
4025.507679  	93.706703 
4026.472104  	93.713715 
4027.436528  	93.837078 
4028.400953  	93.824812 
4029.365377  	93.796242 
4030.329802  	93.828690 
4031.294226  	93.815214 
4032.258651  	93.795583 
4033.223075  	93.891445 
4034.187499  	93.951523 
4035.151924  	93.921621 
4036.116348  	93.881358 
4037.080773  	93.864483 
4038.045197  	93.879120 
4039.009622  	93.887079 
4039.974046  	93.881122 
4040.938471  	93.922012 
4041.902895  	93.938634 
4042.867320  	93.923324 
4043.831744  	93.809079 
4044.796168  	93.743621 
4045.760593  	93.787172 
4046.725017  	93.879686 
4047.689442  	93.918299 
4048.653866  	93.909606 
4049.618291  	93.899971 
4050.582715  	93.918185 
4051.547140  	93.929923 
4052.511564  	93.884893 
4053.475989  	93.881403 
4054.440413  	93.889802 
4055.404837  	93.864536 
4056.369262  	93.898982 
4057.333686  	93.926432 
4058.298111  	93.893433 
4059.262535  	93.887933 
4060.226960  	93.865131 
4061.191384  	93.832630 
4062.155809  	93.861601 
4063.120233  	93.884643 
4064.084658  	93.898434 
4065.049082  	93.936551 
4066.013506  	93.928306 
4066.977931  	93.861832 
4067.942355  	93.875365 
4068.906780  	93.922726 
4069.871204  	93.896763 
4070.835629  	93.892569 
4071.800053  	93.905090 
4072.764478  	93.894290 
4073.728902  	93.899577 
4074.693327  	93.937195 
4075.657751  	93.944292 
4076.622176  	93.888231 
4077.586600  	93.886016 
4078.551024  	93.909589 
4079.515449  	93.902176 
4080.479873  	93.930662 
4081.444298  	93.934505 
4082.408722  	93.882660 
4083.373147  	93.884150 
4084.337571  	93.906591 
4085.301996  	93.917058 
4086.266420  	93.930909 
4087.230845  	93.917085 
4088.195269  	93.880628 
4089.159693  	93.906899 
4090.124118  	93.963829 
4091.088542  	93.969070 
4092.052967  	93.986973 
4093.017391  	94.009578 
4093.981816  	93.982129 
4094.946240  	93.903335 
4095.910665  	93.936927 
4096.875089  	94.001593 
4097.839514  	93.945274 
4098.803938  	93.848773 
4099.768362  	93.864899 
4100.732787  	93.891555 
4101.697211  	93.906487 
4102.661636  	93.937278 
4103.626060  	93.965825 
4104.590485  	93.958183 
4105.554909  	93.914873 
4106.519334  	93.868015 
4107.483758  	93.849824 
4108.448183  	93.875060 
4109.412607  	93.921756 
4110.377031  	93.878518 
4111.341456  	93.914507 
4112.305880  	93.960299 
4113.270305  	93.923282 
4114.234729  	93.928503 
4115.199154  	93.953598 
4116.163578  	93.948321 
4117.128003  	93.932155 
4118.092427  	93.942319 
4119.056852  	93.921110 
4120.021276  	93.893871 
4120.985700  	93.921446 
4121.950125  	93.957820 
4122.914549  	93.954983 
4123.878974  	93.954357 
4124.843398  	93.942062 
4125.807823  	93.957748 
4126.772247  	93.951316 
4127.736672  	93.891307 
4128.701096  	93.891320 
4129.665521  	93.928925 
4130.629945  	93.937288 
4131.594370  	93.946127 
4132.558794  	93.964187 
4133.523218  	93.946572 
4134.487643  	93.958156 
4135.452067  	93.937247 
4136.416492  	93.927810 
4137.380916  	93.945093 
4138.345341  	93.926356 
4139.309765  	93.891236 
4140.274190  	93.901985 
4141.238614  	93.904109 
4142.203039  	93.916951 
4143.167463  	94.003288 
4144.131887  	93.949509 
4145.096312  	93.871972 
4146.060736  	93.891473 
4147.025161  	93.923520 
4147.989585  	93.931514 
4148.954010  	93.860407 
4149.918434  	93.837507 
4150.882859  	93.876472 
4151.847283  	93.886809 
4152.811708  	93.856130 
4153.776132  	93.882679 
4154.740556  	93.915291 
4155.704981  	93.870884 
4156.669405  	93.845262 
4157.633830  	93.866777 
4158.598254  	93.915045 
4159.562679  	93.936113 
4160.527103  	93.881515 
4161.491528  	93.875505 
4162.455952  	93.915839 
4163.420377  	93.919076 
4164.384801  	93.903269 
4165.349225  	93.936920 
4166.313650  	93.907035 
4167.278074  	93.829426 
4168.242499  	93.842306 
4169.206923  	93.914387 
4170.171348  	93.955807 
4171.135772  	93.930794 
4172.100197  	93.865096 
4173.064621  	93.852047 
4174.029046  	93.894503 
4174.993470  	93.926909 
4175.957894  	93.964039 
4176.922319  	93.996105 
4177.886743  	93.944131 
4178.851168  	93.863443 
4179.815592  	93.820290 
4180.780017  	93.845807 
4181.744441  	93.906958 
4182.708866  	93.913145 
4183.673290  	93.956454 
4184.637715  	93.964644 
4185.602139  	93.918421 
4186.566563  	93.839971 
4187.530988  	93.816295 
4188.495412  	93.856168 
4189.459837  	93.920596 
4190.424261  	93.939065 
4191.388686  	93.874148 
4192.353110  	93.884492 
4193.317535  	93.889907 
4194.281959  	93.852599 
4195.246384  	93.870662 
4196.210808  	93.882111 
4197.175233  	93.853382 
4198.139657  	93.896556 
4199.104081  	93.900834 
4200.068506  	93.854339 
4201.032930  	93.841220 
4201.997355  	93.887596 
4202.961779  	93.918891 
4203.926204  	93.869809 
4204.890628  	93.856218 
4205.855053  	93.866303 
4206.819477  	93.848561 
4207.783902  	93.858412 
4208.748326  	93.863111 
4209.712750  	93.883442 
4210.677175  	93.942150 
4211.641599  	93.965560 
4212.606024  	93.938081 
4213.570448  	93.908274 
4214.534873  	93.886276 
4215.499297  	93.862130 
4216.463722  	93.897114 
4217.428146  	93.842297 
4218.392571  	93.834237 
4219.356995  	93.895650 
4220.321419  	93.903097 
4221.285844  	93.962221 
4222.250268  	93.992895 
4223.214693  	93.872757 
4224.179117  	93.828008 
4225.143542  	93.870375 
4226.107966  	93.945740 
4227.072391  	94.034936 
4228.036815  	93.924161 
4229.001240  	93.827090 
4229.965664  	93.853393 
4230.930088  	93.924770 
4231.894513  	93.963719 
4232.858937  	93.959158 
4233.823362  	93.966711 
4234.787786  	93.980249 
4235.752211  	93.932714 
4236.716635  	93.938453 
4237.681060  	94.014956 
4238.645484  	94.005204 
4239.609909  	93.934804 
4240.574333  	93.867207 
4241.538757  	93.872151 
4242.503182  	93.969044 
4243.467606  	93.993350 
4244.432031  	93.921013 
4245.396455  	93.880052 
4246.360880  	93.948073 
4247.325304  	94.006893 
4248.289729  	93.978368 
4249.254153  	93.933161 
4250.218578  	94.001423 
4251.183002  	94.039511 
4252.147427  	93.962922 
4253.111851  	93.931750 
4254.076275  	93.888696 
4255.040700  	93.833287 
4256.005124  	93.876571 
4256.969549  	93.905069 
4257.933973  	93.930530 
4258.898398  	93.930788 
4259.862822  	93.903690 
4260.827247  	93.899633 
4261.791671  	93.890027 
4262.756096  	93.905815 
4263.720520  	93.944689 
4264.684944  	93.892834 
4265.649369  	93.885595 
4266.613793  	93.975545 
4267.578218  	93.973114 
4268.542642  	93.925279 
4269.507067  	93.880841 
4270.471491  	93.895349 
4271.435916  	93.943588 
4272.400340  	93.915414 
4273.364765  	93.884374 
4274.329189  	93.909919 
4275.293613  	93.987306 
4276.258038  	93.998948 
4277.222462  	93.965674 
4278.186887  	93.933055 
4279.151311  	93.862141 
4280.115736  	93.881640 
4281.080160  	93.951542 
4282.044585  	93.946804 
4283.009009  	93.902743 
4283.973434  	93.890323 
4284.937858  	93.859571 
4285.902282  	93.865315 
4286.866707  	93.928621 
4287.831131  	94.027111 
4288.795556  	94.068868 
4289.759980  	93.999303 
4290.724405  	93.939862 
4291.688829  	93.951906 
4292.653254  	93.964159 
4293.617678  	93.977675 
4294.582103  	93.957067 
4295.546527  	93.910004 
4296.510951  	93.957578 
4297.475376  	94.013562 
4298.439800  	93.985699 
4299.404225  	94.027400 
4300.368649  	94.048449 
4301.333074  	93.937393 
4302.297498  	93.881904 
4303.261923  	93.943724 
4304.226347  	94.002456 
4305.190772  	94.094645 
4306.155196  	94.092471 
4307.119620  	94.001204 
4308.084045  	93.977332 
4309.048469  	94.044296 
4310.012894  	94.048051 
4310.977318  	94.049582 
4311.941743  	94.063745 
4312.906167  	94.008843 
4313.870592  	93.931779 
4314.835016  	93.954564 
4315.799441  	93.943151 
4316.763865  	93.909666 
4317.728290  	93.963093 
4318.692714  	94.028425 
4319.657138  	93.990481 
4320.621563  	93.942212 
4321.585987  	93.913757 
4322.550412  	93.929920 
4323.514836  	93.921296 
4324.479261  	93.897678 
4325.443685  	93.908312 
4326.408110  	93.964042 
4327.372534  	94.005564 
4328.336959  	93.987811 
4329.301383  	93.941726 
4330.265807  	93.941578 
4331.230232  	93.988350 
4332.194656  	93.940679 
4333.159081  	93.926291 
4334.123505  	93.937145 
4335.087930  	93.936357 
4336.052354  	93.940467 
4337.016779  	93.951863 
4337.981203  	93.952106 
4338.945628  	93.957500 
4339.910052  	93.925585 
4340.874476  	93.885942 
4341.838901  	93.898920 
4342.803325  	93.899529 
4343.767750  	93.934255 
4344.732174  	93.908641 
4345.696599  	93.821640 
4346.661023  	93.807463 
4347.625448  	93.820134 
4348.589872  	93.840628 
4349.554297  	93.889191 
4350.518721  	93.878225 
4351.483145  	93.878248 
4352.447570  	93.861333 
4353.411994  	93.818608 
4354.376419  	93.799517 
4355.340843  	93.872123 
4356.305268  	93.958011 
4357.269692  	93.972713 
4358.234117  	93.949272 
4359.198541  	93.913777 
4360.162966  	93.860231 
4361.127390  	93.851018 
4362.091814  	93.872896 
4363.056239  	93.865847 
4364.020663  	93.899906 
4364.985088  	93.846096 
4365.949512  	93.722769 
4366.913937  	93.704954 
4367.878361  	93.758229 
4368.842786  	93.802421 
4369.807210  	93.878852 
4370.771635  	93.909828 
4371.736059  	93.914206 
4372.700484  	93.940637 
4373.664908  	93.977238 
4374.629332  	93.936613 
4375.593757  	93.937278 
4376.558181  	94.014615 
4377.522606  	93.989685 
4378.487030  	93.878547 
4379.451455  	93.856300 
4380.415879  	93.872571 
4381.380304  	93.937639 
4382.344728  	93.997368 
4383.309153  	94.043402 
4384.273577  	94.020633 
4385.238001  	93.960745 
4386.202426  	93.944351 
4387.166850  	94.017244 
4388.131275  	94.047323 
4389.095699  	93.993360 
4390.060124  	93.947624 
4391.024548  	94.006412 
4391.988973  	94.044686 
4392.953397  	94.055474 
4393.917822  	94.034917 
4394.882246  	93.993036 
4395.846670  	93.986597 
4396.811095  	93.974084 
4397.775519  	94.005762 
4398.739944  	94.117438 
4399.704368  	94.142311 
4400.668793  	94.149343 
4401.633217  	94.062526 
4402.597642  	93.978509 
4403.562066  	94.052338 
4404.526491  	94.162329 
4405.490915  	94.172279 
4406.455339  	94.109588 
4407.419764  	94.087187 
4408.384188  	94.109002 
4409.348613  	94.110829 
4410.313037  	94.085617 
4411.277462  	94.061479 
4412.241886  	94.054555 
4413.206311  	94.117058 
4414.170735  	94.201253 
4415.135160  	94.182150 
4416.099584  	94.156034 
4417.064008  	94.076468 
4418.028433  	94.005456 
4418.992857  	94.061471 
4419.957282  	94.021213 
4420.921706  	93.997674 
4421.886131  	94.038328 
4422.850555  	94.041161 
4423.814980  	94.063585 
4424.779404  	94.081589 
4425.743829  	94.075162 
4426.708253  	94.083509 
4427.672677  	94.077682 
4428.637102  	94.091653 
4429.601526  	94.106208 
4430.565951  	94.055335 
4431.530375  	94.051927 
4432.494800  	94.045997 
4433.459224  	93.982362 
4434.423649  	94.003899 
4435.388073  	94.066664 
4436.352498  	94.144850 
4437.316922  	94.176623 
4438.281347  	94.134840 
4439.245771  	94.084307 
4440.210195  	94.100134 
4441.174620  	94.099147 
4442.139044  	94.075352 
4443.103469  	94.124146 
4444.067893  	94.115807 
4445.032318  	94.092637 
4445.996742  	94.140088 
4446.961167  	94.161433 
4447.925591  	94.134813 
4448.890016  	94.075401 
4449.854440  	94.054245 
4450.818864  	94.121676 
4451.783289  	94.156442 
4452.747713  	94.157885 
4453.712138  	94.147794 
4454.676562  	94.135625 
4455.640987  	94.126333 
4456.605411  	94.125128 
4457.569836  	94.092416 
4458.534260  	94.055832 
4459.498685  	94.038345 
4460.463109  	94.032965 
4461.427533  	94.050485 
4462.391958  	94.085270 
4463.356382  	94.097026 
4464.320807  	94.131920 
4465.285231  	94.114021 
4466.249656  	94.116773 
4467.214080  	94.119902 
4468.178505  	94.103976 
4469.142929  	94.142956 
4470.107354  	94.210684 
4471.071778  	94.193208 
4472.036202  	94.174783 
4473.000627  	94.157459 
4473.965051  	94.093382 
4474.929476  	94.027699 
4475.893900  	94.010536 
4476.858325  	93.980554 
4477.822749  	94.070045 
4478.787174  	94.145568 
4479.751598  	94.106660 
4480.716023  	94.074394 
4481.680447  	94.088816 
4482.644871  	94.046429 
4483.609296  	94.012246 
4484.573720  	94.077900 
4485.538145  	94.087135 
4486.502569  	94.059334 
4487.466994  	94.091738 
4488.431418  	94.162038 
4489.395843  	94.139611 
4490.360267  	94.064688 
4491.324692  	94.080942 
4492.289116  	94.109834 
4493.253541  	94.088110 
4494.217965  	94.086214 
4495.182389  	94.109039 
4496.146814  	94.146944 
4497.111238  	94.142830 
4498.075663  	94.116074 
4499.040087  	94.144108 
4500.004512  	94.142032 
4500.968936  	94.132535 
4501.933361  	94.074416 
4502.897785  	94.079725 
4503.862210  	94.136608 
4504.826634  	94.169458 
4505.791058  	94.145454 
4506.755483  	94.110318 
4507.719907  	94.104852 
4508.684332  	94.120579 
4509.648756  	94.100315 
4510.613181  	94.055484 
4511.577605  	94.101831 
4512.542030  	94.145780 
4513.506454  	94.178706 
4514.470879  	94.174353 
4515.435303  	94.114023 
4516.399727  	94.060884 
4517.364152  	94.016989 
4518.328576  	94.064605 
4519.293001  	94.145093 
4520.257425  	94.143563 
4521.221850  	94.037161 
4522.186274  	94.102468 
4523.150699  	94.124511 
4524.115123  	94.047988 
4525.079548  	94.030976 
4526.043972  	94.095086 
4527.008396  	94.126105 
4527.972821  	94.094954 
4528.937245  	94.053838 
4529.901670  	94.039000 
4530.866094  	94.076767 
4531.830519  	94.109945 
4532.794943  	94.072172 
4533.759368  	94.071582 
4534.723792  	94.073278 
4535.688217  	94.087089 
4536.652641  	94.170205 
4537.617065  	94.218737 
4538.581490  	94.201654 
4539.545914  	94.180763 
4540.510339  	94.175066 
4541.474763  	94.068549 
4542.439188  	94.007622 
4543.403612  	94.031192 
4544.368037  	94.057258 
4545.332461  	94.035378 
4546.296886  	94.059100 
4547.261310  	94.042829 
4548.225734  	94.030143 
4549.190159  	94.080998 
4550.154583  	94.082501 
4551.119008  	93.974482 
4552.083432  	94.007000 
4553.047857  	94.087964 
4554.012281  	94.149280 
4554.976706  	94.080661 
4555.941130  	94.041300 
4556.905555  	94.093342 
4557.869979  	94.116481 
4558.834404  	94.119787 
4559.798828  	94.039484 
4560.763252  	93.912141 
4561.727677  	93.877685 
4562.692101  	93.993715 
4563.656526  	94.107073 
4564.620950  	94.137583 
4565.585375  	94.036922 
4566.549799  	94.009469 
4567.514224  	94.093273 
4568.478648  	94.118538 
4569.443073  	94.113012 
4570.407497  	94.081217 
4571.371921  	94.069984 
4572.336346  	94.046686 
4573.300770  	94.076819 
4574.265195  	94.123142 
4575.229619  	94.090814 
4576.194044  	94.023298 
4577.158468  	94.044258 
4578.122893  	94.152401 
4579.087317  	94.173583 
4580.051742  	94.155293 
4581.016166  	94.158550 
4581.980590  	94.152724 
4582.945015  	94.142736 
4583.909439  	94.111309 
4584.873864  	94.055299 
4585.838288  	94.025745 
4586.802713  	94.047140 
4587.767137  	94.036656 
4588.731562  	94.086306 
4589.695986  	94.093641 
4590.660411  	94.067032 
4591.624835  	94.098942 
4592.589259  	94.099224 
4593.553684  	94.089998 
4594.518108  	94.026027 
4595.482533  	94.005907 
4596.446957  	94.071792 
4597.411382  	94.026566 
4598.375806  	94.041383 
4599.340231  	94.122998 
4600.304655  	94.116327 
4601.269080  	94.070268 
4602.233504  	94.056155 
4603.197928  	94.064583 
4604.162353  	94.140562 
4605.126777  	94.164613 
4606.091202  	94.108096 
4607.055626  	94.096705 
4608.020051  	94.170021 
4608.984475  	94.127306 
4609.948900  	94.062282 
4610.913324  	94.090203 
4611.877749  	94.064120 
4612.842173  	94.097107 
4613.806598  	94.155565 
4614.771022  	94.152070 
4615.735446  	94.129013 
4616.699871  	94.093634 
4617.664295  	94.083512 
4618.628720  	94.089521 
4619.593144  	94.103854 
4620.557569  	94.150441 
4621.521993  	94.146072 
4622.486418  	94.059258 
4623.450842  	94.040693 
4624.415267  	94.135436 
4625.379691  	94.220480 
4626.344115  	94.200225 
4627.308540  	94.140990 
4628.272964  	94.016952 
4629.237389  	94.037512 
4630.201813  	94.068019 
4631.166238  	94.093313 
4632.130662  	94.141310 
4633.095087  	94.101022 
4634.059511  	94.048707 
4635.023936  	94.123539 
4635.988360  	94.181170 
4636.952784  	94.159370 
4637.917209  	94.144993 
4638.881633  	94.130498 
4639.846058  	94.092108 
4640.810482  	94.085134 
4641.774907  	94.090329 
4642.739331  	94.012185 
4643.703756  	93.993930 
4644.668180  	94.029552 
4645.632605  	93.980404 
4646.597029  	94.023070 
4647.561453  	94.082333 
4648.525878  	94.140784 
4649.490302  	94.215208 
4650.454727  	94.169653 
4651.419151  	94.073314 
4652.383576  	94.104014 
4653.348000  	94.090724 
4654.312425  	94.070878 
4655.276849  	94.150212 
4656.241274  	94.196860 
4657.205698  	94.198130 
4658.170122  	94.092519 
4659.134547  	94.064200 
4660.098971  	94.100941 
4661.063396  	94.126035 
4662.027820  	94.139604 
4662.992245  	94.094038 
4663.956669  	94.039904 
4664.921094  	94.118676 
4665.885518  	94.178238 
4666.849943  	94.192643 
4667.814367  	94.112698 
4668.778791  	94.084447 
4669.743216  	94.143432 
4670.707640  	94.174092 
4671.672065  	94.124923 
4672.636489  	94.022816 
4673.600914  	94.024617 
4674.565338  	94.062153 
4675.529763  	94.067341 
4676.494187  	94.133009 
4677.458612  	94.192634 
4678.423036  	94.190801 
4679.387461  	94.222196 
4680.351885  	94.207148 
4681.316309  	94.115250 
4682.280734  	94.084827 
4683.245158  	94.084844 
4684.209583  	94.098117 
4685.174007  	94.128445 
4686.138432  	94.150443 
4687.102856  	94.155864 
4688.067281  	94.138904 
4689.031705  	94.063443 
4689.996130  	94.079876 
4690.960554  	94.157317 
4691.924978  	94.128294 
4692.889403  	94.111928 
4693.853827  	94.085652 
4694.818252  	94.081324 
4695.782676  	94.157478 
4696.747101  	94.123060 
4697.711525  	94.131136 
4698.675950  	94.119482 
4699.640374  	94.023018 