##TITLE=No Description
##DATA TYPE=INFRARED SPECTRUM
##XUNITS=1/CM
##YUNITS=%T
400.236149  	139.732695 
401.200574  	104.059063 
402.164998  	86.839159 
403.129423  	77.477960 
404.093847  	72.503690 
405.058272  	79.916512 
406.022696  	86.378937 
406.987120  	79.911598 
407.951545  	79.253765 
408.915969  	82.004439 
409.880394  	89.060894 
410.844818  	99.153281 
411.809243  	103.610392 
412.773667  	99.551747 
413.738092  	85.454754 
414.702516  	75.857983 
415.666941  	77.270058 
416.631365  	80.464952 
417.595789  	75.721424 
418.560214  	79.554906 
419.524638  	84.559095 
420.489063  	82.566348 
421.453487  	80.747883 
422.417912  	78.529292 
423.382336  	77.073846 
424.346761  	76.480145 
425.311185  	74.389483 
426.275610  	75.761033 
427.240034  	76.401512 
428.204458  	75.895030 
429.168883  	75.415944 
430.133307  	74.678277 
431.097732  	74.130429 
432.062156  	73.654842 
433.026581  	73.149260 
433.991005  	73.544137 
434.955430  	74.424386 
435.919854  	73.505501 
436.884279  	73.013856 
437.848703  	74.413360 
438.813127  	75.591639 
439.777552  	75.563718 
440.741976  	76.702873 
441.706401  	77.761418 
442.670825  	78.512444 
443.635250  	79.366241 
444.599674  	79.252551 
445.564099  	80.189649 
446.528523  	79.223847 
447.492948  	79.998680 
448.457372  	83.455722 
449.421796  	82.362455 
450.386221  	81.867381 
451.350645  	82.942671 
452.315070  	81.604900 
453.279494  	81.354442 
454.243919  	82.254495 
455.208343  	82.206363 
456.172768  	81.733413 
457.137192  	81.465191 
458.101617  	81.519509 
459.066041  	81.718997 
460.030466  	82.138715 
460.994890  	82.422638 
461.959314  	82.160703 
462.923739  	81.335513 
463.888163  	80.807468 
464.852588  	81.025911 
465.817012  	82.055150 
466.781437  	81.460322 
467.745861  	80.408668 
468.710286  	80.053148 
469.674710  	79.635633 
470.639135  	79.537496 
471.603559  	79.910013 
472.567983  	81.590301 
473.532408  	81.384277 
474.496832  	80.547581 
475.461257  	80.391581 
476.425681  	79.965598 
477.390106  	80.804006 
478.354530  	81.385264 
479.318955  	80.806138 
480.283379  	79.965212 
481.247804  	79.202153 
482.212228  	79.212997 
483.176652  	80.236070 
484.141077  	80.760483 
485.105501  	79.858240 
486.069926  	78.853083 
487.034350  	79.186087 
487.998775  	80.009014 
488.963199  	79.819094 
489.927624  	79.321217 
490.892048  	79.047361 
491.856473  	78.644829 
492.820897  	78.507210 
493.785321  	78.239807 
494.749746  	77.673118 
495.714170  	77.130923 
496.678595  	76.696200 
497.643019  	76.553630 
498.607444  	76.467858 
499.571868  	75.728071 
500.536293  	75.410220 
501.500717  	74.650498 
502.465142  	73.757878 
503.429566  	74.048522 
504.393990  	73.898598 
505.358415  	74.013790 
506.322839  	73.802975 
507.287264  	74.240171 
508.251688  	76.413034 
509.216113  	78.232012 
510.180537  	78.707318 
511.144962  	79.342792 
512.109386  	80.107227 
513.073811  	80.400211 
514.038235  	80.403972 
515.002660  	80.591118 
515.967084  	80.653695 
516.931508  	80.153075 
517.895933  	80.352293 
518.860357  	80.543232 
519.824782  	79.987927 
520.789206  	80.078756 
521.753631  	80.651153 
522.718055  	81.243249 
523.682480  	81.135405 
524.646904  	80.791580 
525.611329  	80.403177 
526.575753  	80.630133 
527.540177  	81.271465 
528.504602  	81.502641 
529.469026  	81.341878 
530.433451  	81.514080 
531.397875  	81.877661 
532.362300  	82.004520 
533.326724  	82.099823 
534.291149  	82.169292 
535.255573  	82.426432 
536.219998  	82.557183 
537.184422  	82.917580 
538.148846  	82.835089 
539.113271  	82.821538 
540.077695  	82.764007 
541.042120  	82.995525 
542.006544  	83.095826 
542.970969  	83.064660 
543.935393  	83.296161 
544.899818  	83.274756 
545.864242  	83.079562 
546.828667  	82.941759 
547.793091  	82.873168 
548.757515  	83.056207 
549.721940  	83.689400 
550.686364  	83.632025 
551.650789  	83.728905 
552.615213  	83.459423 
553.579638  	83.460012 
554.544062  	83.639470 
555.508487  	83.650803 
556.472911  	83.491202 
557.437336  	83.575391 
558.401760  	83.761784 
559.366184  	83.814495 
560.330609  	83.821359 
561.295033  	83.769333 
562.259458  	83.816640 
563.223882  	83.416186 
564.188307  	83.129578 
565.152731  	83.337709 
566.117156  	83.415313 
567.081580  	83.160352 
568.046005  	83.132095 
569.010429  	82.946373 
569.974853  	82.760150 
570.939278  	82.756272 
571.903702  	82.917562 
572.868127  	83.031622 
573.832551  	82.845334 
574.796976  	82.834716 
575.761400  	82.482923 
576.725825  	82.750077 
577.690249  	83.074822 
578.654674  	83.113455 
579.619098  	82.997519 
580.583523  	82.766774 
581.547947  	82.995423 
582.512371  	83.242347 
583.476796  	83.114425 
584.441220  	82.933163 
585.405645  	82.947563 
586.370069  	83.247858 
587.334494  	83.212066 
588.298918  	83.072610 
589.263343  	82.996346 
590.227767  	82.979719 
591.192192  	82.692138 
592.156616  	82.614119 
593.121040  	82.994119 
594.085465  	83.090317 
595.049889  	82.828091 
596.014314  	82.783113 
596.978738  	82.913562 
597.943163  	83.014081 
598.907587  	82.900269 
599.872012  	82.428395 
600.836436  	82.348331 
601.800861  	82.618224 
602.765285  	82.655140 
603.729709  	82.622319 
604.694134  	82.624713 
605.658558  	82.584650 
606.622983  	82.621516 
607.587407  	82.480856 
608.551832  	82.297742 
609.516256  	82.435223 
610.480681  	82.544711 
611.445105  	82.523741 
612.409530  	82.533134 
613.373954  	82.504713 
614.338378  	82.325513 
615.302803  	81.986626 
616.267227  	81.856209 
617.231652  	82.068452 
618.196076  	82.053096 
619.160501  	81.915160 
620.124925  	81.712310 
621.089350  	81.686990 
622.053774  	81.666629 
623.018199  	81.850652 
623.982623  	81.649030 
624.947047  	81.405093 
625.911472  	81.158663 
626.875896  	81.084701 
627.840321  	80.855667 
628.804745  	80.712298 
629.769170  	80.247400 
630.733594  	79.616991 
631.698019  	79.358297 
632.662443  	79.608412 
633.626868  	80.006244 
634.591292  	80.560939 
635.555717  	80.951440 
636.520141  	81.226176 
637.484565  	81.115652 
638.448990  	81.095238 
639.413414  	81.051061 
640.377839  	81.037007 
641.342263  	80.923029 
642.306688  	80.745065 
643.271112  	80.632356 
644.235537  	80.515893 
645.199961  	80.459809 
646.164386  	80.619190 
647.128810  	80.681765 
648.093234  	80.422829 
649.057659  	80.154415 
650.022083  	80.068162 
650.986508  	80.004359 
651.950932  	79.834590 
652.915357  	79.721286 
653.879781  	79.749470 
654.844206  	79.783386 
655.808630  	79.674082 
656.773055  	79.462439 
657.737479  	79.420902 
658.701903  	79.257959 
659.666328  	79.058558 
660.630752  	79.052553 
661.595177  	79.002902 
662.559601  	78.750241 
663.524026  	78.618077 
664.488450  	78.687387 
665.452875  	78.518799 
666.417299  	78.448306 
667.381724  	78.297452 
668.346148  	77.175370 
669.310572  	77.230641 
670.274997  	77.289803 
671.239421  	77.310747 
672.203846  	77.150556 
673.168270  	76.838353 
674.132695  	76.520294 
675.097119  	76.253064 
676.061544  	75.902703 
677.025968  	75.530549 
677.990393  	75.195951 
678.954817  	74.888360 
679.919241  	74.661639 
680.883666  	74.653857 
681.848090  	74.631007 
682.812515  	74.593756 
683.776939  	74.437886 
684.741364  	74.218664 
685.705788  	73.969824 
686.670213  	73.794201 
687.634637  	73.385161 
688.599062  	73.027241 
689.563486  	72.711850 
690.527910  	72.473596 
691.492335  	72.130436 
692.456759  	71.584459 
693.421184  	70.894391 
694.385608  	70.383756 
695.350033  	69.722979 
696.314457  	68.850625 
697.278882  	67.855815 
698.243306  	66.825694 
699.207731  	65.806098 
700.172155  	64.788442 
701.136580  	63.788552 
702.101004  	62.928356 
703.065428  	62.137979 
704.029853  	61.438017 
704.994277  	60.601116 
705.958702  	59.765908 
706.923126  	58.883212 
707.887551  	57.903238 
708.851975  	56.814612 
709.816400  	55.633708 
710.780824  	54.464050 
711.745249  	53.252878 
712.709673  	51.853315 
713.674097  	50.383969 
714.638522  	48.893185 
715.602946  	47.260720 
716.567371  	45.410467 
717.531795  	43.613272 
718.496220  	41.881937 
719.460644  	40.375120 
720.425069  	39.089574 
721.389493  	38.195841 
722.353918  	37.624847 
723.318342  	37.523429 
724.282766  	38.216880 
725.247191  	39.830524 
726.211615  	42.049756 
727.176040  	44.717540 
728.140464  	47.538675 
729.104889  	50.486965 
730.069313  	53.448741 
731.033738  	56.363623 
731.998162  	59.297075 
732.962587  	62.447925 
733.927011  	65.499422 
734.891435  	68.567989 
735.855860  	71.615238 
736.820284  	74.560224 
737.784709  	77.242532 
738.749133  	79.639280 
739.713558  	81.729756 
740.677982  	83.500943 
741.642407  	84.881076 
742.606831  	85.948233 
743.571256  	86.662238 
744.535680  	87.082555 
745.500104  	87.428567 
746.464529  	87.677412 
747.428953  	87.678858 
748.393378  	87.708801 
749.357802  	87.627769 
750.322227  	87.470022 
751.286651  	87.404551 
752.251076  	87.401476 
753.215500  	87.350422 
754.179925  	87.109216 
755.144349  	86.868778 
756.108774  	86.864316 
757.073198  	86.875050 
758.037622  	86.742434 
759.002047  	86.440637 
759.966471  	86.245961 
760.930896  	86.114141 
761.895320  	85.923633 
762.859745  	85.834012 
763.824169  	85.786590 
764.788594  	85.560461 
765.753018  	85.300890 
766.717443  	85.067184 
767.681867  	84.866324 
768.646291  	84.511696 
769.610716  	84.291108 
770.575140  	84.221257 
771.539565  	84.105099 
772.503989  	83.748150 
773.468414  	83.574878 
774.432838  	83.408179 
775.397263  	83.194599 
776.361687  	82.856778 
777.326112  	82.508674 
778.290536  	82.328340 
779.254960  	82.467700 
780.219385  	82.422935 
781.183809  	82.234539 
782.148234  	81.709170 
783.112658  	81.723753 
784.077083  	81.656678 
785.041507  	81.097755 
786.005932  	80.663121 
786.970356  	80.066101 
787.934781  	79.399704 
788.899205  	78.831116 
789.863629  	78.459290 
790.828054  	78.066932 
791.792478  	77.699339 
792.756903  	77.634501 
793.721327  	77.976583 
794.685752  	78.514971 
795.650176  	79.321241 
796.614601  	80.208027 
797.579025  	80.988355 
798.543450  	81.220533 
799.507874  	81.181472 
800.472298  	81.233043 
801.436723  	81.271105 
802.401147  	81.127321 
803.365572  	81.029633 
804.329996  	81.011942 
805.294421  	80.908830 
806.258845  	80.744805 
807.223270  	80.691709 
808.187694  	80.690157 
809.152119  	80.693440 
810.116543  	80.679146 
811.080967  	80.528516 
812.045392  	80.306771 
813.009816  	80.237009 
813.974241  	80.269120 
814.938665  	80.328915 
815.903090  	80.328498 
816.867514  	80.241223 
817.831939  	80.140502 
818.796363  	80.062845 
819.760788  	79.988027 
820.725212  	79.865211 
821.689637  	79.613431 
822.654061  	79.441993 
823.618485  	79.320638 
824.582910  	79.141785 
825.547334  	78.897079 
826.511759  	78.642964 
827.476183  	78.420919 
828.440608  	78.208673 
829.405032  	77.900584 
830.369457  	77.611478 
831.333881  	77.319587 
832.298306  	77.024669 
833.262730  	76.700940 
834.227154  	76.337787 
835.191579  	75.944184 
836.156003  	75.569906 
837.120428  	75.170050 
838.084852  	74.754635 
839.049277  	74.370384 
840.013701  	73.890446 
840.978126  	73.377072 
841.942550  	73.035784 
842.906975  	72.563765 
843.871399  	71.953720 
844.835823  	71.548264 
845.800248  	71.382363 
846.764672  	71.320450 
847.729097  	71.415709 
848.693521  	71.688716 
849.657946  	72.274973 
850.622370  	72.904709 
851.586795  	73.438124 
852.551219  	73.754770 
853.515644  	74.041320 
854.480068  	74.358291 
855.444492  	74.621283 
856.408917  	74.866653 
857.373341  	75.120338 
858.337766  	75.265898 
859.302190  	75.330985 
860.266615  	75.361311 
861.231039  	75.270899 
862.195464  	75.123261 
863.159888  	74.859166 
864.124313  	74.411497 
865.088737  	73.763704 
866.053161  	72.961552 
867.017586  	71.851381 
867.982010  	70.411362 
868.946435  	68.553966 
869.910859  	66.176743 
870.875284  	63.764597 
871.839708  	62.473395 
872.804133  	63.318090 
873.768557  	65.797351 
874.732982  	68.492558 
875.697406  	70.583236 
876.661831  	72.044336 
877.626255  	73.272280 
878.590679  	74.404627 
879.555104  	75.364995 
880.519528  	76.208950 
881.483953  	76.912724 
882.448377  	77.479559 
883.412802  	78.035251 
884.377226  	78.567234 
885.341651  	78.936042 
886.306075  	79.173728 
887.270500  	79.383146 
888.234924  	79.587670 
889.199348  	79.602679 
890.163773  	79.529256 
891.128197  	79.505616 
892.092622  	79.538039 
893.057046  	79.415499 
894.021471  	79.265029 
894.985895  	79.194671 
895.950320  	79.064594 
896.914744  	78.959674 
897.879169  	78.958156 
898.843593  	78.953945 
899.808017  	78.967437 
900.772442  	79.036820 
901.736866  	79.092029 
902.701291  	79.256565 
903.665715  	79.382200 
904.630140  	79.514333 
905.594564  	79.703083 
906.558989  	79.917598 
907.523413  	80.094610 
908.487838  	80.205146 
909.452262  	80.322621 
910.416686  	80.533553 
911.381111  	80.659656 
912.345535  	80.616609 
913.309960  	80.609688 
914.274384  	80.655773 
915.238809  	80.657046 
916.203233  	80.613253 
917.167658  	80.600712 
918.132082  	80.547144 
919.096507  	80.543629 
920.060931  	80.560664 
921.025355  	80.480466 
921.989780  	80.358549 
922.954204  	80.271128 
923.918629  	80.157086 
924.883053  	80.033995 
925.847478  	79.910584 
926.811902  	79.786177 
927.776327  	79.712163 
928.740751  	79.662563 
929.705176  	79.568019 
930.669600  	79.403272 
931.634024  	79.263213 
932.598449  	79.165169 
933.562873  	79.056424 
934.527298  	78.960097 
935.491722  	78.801088 
936.456147  	78.647611 
937.420571  	78.533572 
938.384996  	78.390399 
939.349420  	78.217872 
940.313845  	78.076738 
941.278269  	77.933911 
942.242694  	77.763881 
943.207118  	77.583279 
944.171542  	77.409259 
945.135967  	77.255815 
946.100391  	77.081954 
947.064816  	76.860749 
948.029240  	76.650072 
948.993665  	76.436020 
949.958089  	76.214562 
950.922514  	75.996159 
951.886938  	75.777755 
952.851363  	75.513924 
953.815787  	75.217569 
954.780211  	74.955666 
955.744636  	74.708946 
956.709060  	74.425224 
957.673485  	74.116058 
958.637909  	73.771170 
959.602334  	73.419090 
960.566758  	73.062950 
961.531183  	72.682104 
962.495607  	72.297024 
963.460032  	71.916078 
964.424456  	71.564548 
965.388880  	71.184185 
966.353305  	70.828131 
967.317729  	70.576711 
968.282154  	70.363500 
969.246578  	70.185220 
970.211003  	70.145770 
971.175427  	70.266325 
972.139852  	70.512341 
973.104276  	70.891855 
974.068701  	71.406858 
975.033125  	71.964432 
975.997549  	72.473639 
976.961974  	72.946242 
977.926398  	73.403832 
978.890823  	73.804750 
979.855247  	74.096664 
980.819672  	74.285145 
981.784096  	74.413881 
982.748521  	74.526960 
983.712945  	74.515562 
984.677370  	74.387741 
985.641794  	74.254652 
986.606218  	74.149446 
987.570643  	74.018990 
988.535067  	73.877297 
989.499492  	73.817047 
990.463916  	73.767873 
991.428341  	73.687288 
992.392765  	73.535788 
993.357190  	73.370006 
994.321614  	73.235416 
995.286039  	73.036293 
996.250463  	72.758113 
997.214888  	72.474558 
998.179312  	72.204742 
999.143736  	71.886828 
1000.108161  	71.522290 
1001.072585  	71.201778 
1002.037010  	70.865619 
1003.001434  	70.419833 
1003.965859  	69.920831 
1004.930283  	69.435853 
1005.894708  	68.890067 
1006.859132  	68.211976 
1007.823557  	67.413922 
1008.787981  	66.560864 
1009.752405  	65.630566 
1010.716830  	64.513252 
1011.681254  	63.236419 
1012.645679  	61.778789 
1013.610103  	60.108578 
1014.574528  	58.392069 
1015.538952  	56.969689 
1016.503377  	56.202938 
1017.467801  	56.192153 
1018.432226  	56.912449 
1019.396650  	58.187707 
1020.361074  	59.779987 
1021.325499  	61.487756 
1022.289923  	63.189616 
1023.254348  	65.030463 
1024.218772  	67.249035 
1025.183197  	69.713225 
1026.147621  	71.974713 
1027.112046  	73.692261 
1028.076470  	74.750619 
1029.040895  	75.184440 
1030.005319  	75.084613 
1030.969743  	74.745011 
1031.934168  	74.375209 
1032.898592  	73.944542 
1033.863017  	73.440437 
1034.827441  	72.902832 
1035.791866  	72.405826 
1036.756290  	71.920076 
1037.720715  	71.449477 
1038.685139  	71.029196 
1039.649564  	70.691738 
1040.613988  	70.365658 
1041.578412  	70.054534 
1042.542837  	69.823321 
1043.507261  	69.650375 
1044.471686  	69.482684 
1045.436110  	69.364878 
1046.400535  	69.332166 
1047.364959  	69.283771 
1048.329384  	69.179906 
1049.293808  	69.069748 
1050.258233  	69.066739 
1051.222657  	69.093153 
1052.187081  	69.015159 
1053.151506  	68.869655 
1054.115930  	68.757723 
1055.080355  	68.619064 
1056.044779  	68.397629 
1057.009204  	68.109618 
1057.973628  	67.840656 
1058.938053  	67.518495 
1059.902477  	67.086136 
1060.866902  	66.667390 
1061.831326  	66.308821 
1062.795751  	65.858130 
1063.760175  	65.365167 
1064.724599  	64.849856 
1065.689024  	64.291821 
1066.653448  	63.712468 
1067.617873  	63.135398 
1068.582297  	62.548226 
1069.546722  	61.943866 
1070.511146  	61.286200 
1071.475571  	60.562287 
1072.439995  	59.816510 
1073.404420  	59.060164 
1074.368844  	58.232096 
1075.333268  	57.344671 
1076.297693  	56.401895 
1077.262117  	55.457059 
1078.226542  	54.537931 
1079.190966  	53.617713 
1080.155391  	52.734415 
1081.119815  	51.944662 
1082.084240  	51.195509 
1083.048664  	50.532140 
1084.013089  	49.998575 
1084.977513  	49.539016 
1085.941937  	49.081891 
1086.906362  	48.648569 
1087.870786  	48.314305 
1088.835211  	48.009205 
1089.799635  	47.681059 
1090.764060  	47.425362 
1091.728484  	47.263181 
1092.692909  	47.112997 
1093.657333  	46.980555 
1094.621758  	46.918823 
1095.586182  	46.961495 
1096.550606  	47.087874 
1097.515031  	47.266902 
1098.479455  	47.541934 
1099.443880  	47.902407 
1100.408304  	48.346567 
1101.372729  	48.867124 
1102.337153  	49.503508 
1103.301578  	50.180098 
1104.266002  	50.836650 
1105.230427  	51.493999 
1106.194851  	52.232253 
1107.159275  	52.978639 
1108.123700  	53.648022 
1109.088124  	54.247421 
1110.052549  	54.771677 
1111.016973  	55.205794 
1111.981398  	55.560392 
1112.945822  	55.819060 
1113.910247  	55.986188 
1114.874671  	56.012320 
1115.839096  	55.948738 
1116.803520  	55.873364 
1117.767945  	55.839747 
1118.732369  	55.919019 
1119.696793  	56.147072 
1120.661218  	56.481895 
1121.625642  	56.912269 
1122.590067  	57.477323 
1123.554491  	58.147420 
1124.518916  	58.890380 
1125.483340  	59.716525 
1126.447765  	60.660048 
1127.412189  	61.749070 
1128.376614  	62.887404 
1129.341038  	64.080027 
1130.305462  	65.351595 
1131.269887  	66.726234 
1132.234311  	68.105539 
1133.198736  	69.447671 
1134.163160  	70.746199 
1135.127585  	72.023726 
1136.092009  	73.278823 
1137.056434  	74.479829 
1138.020858  	75.607870 
1138.985283  	76.625656 
1139.949707  	77.528629 
1140.914131  	78.378109 
1141.878556  	79.175050 
1142.842980  	79.901255 
1143.807405  	80.564775 
1144.771829  	81.202562 
1145.736254  	81.788520 
1146.700678  	82.317685 
1147.665103  	82.770195 
1148.629527  	83.175282 
1149.593952  	83.594488 
1150.558376  	83.966983 
1151.522800  	84.240061 
1152.487225  	84.487473 
1153.451649  	84.699478 
1154.416074  	84.898875 
1155.380498  	85.056603 
1156.344923  	85.197897 
1157.309347  	85.303118 
1158.273772  	85.360233 
1159.238196  	85.344111 
1160.202621  	85.351466 
1161.167045  	85.362538 
1162.131469  	85.290642 
1163.095894  	85.158497 
1164.060318  	85.025539 
1165.024743  	84.839390 
1165.989167  	84.563405 
1166.953592  	84.239867 
1167.918016  	83.858146 
1168.882441  	83.362224 
1169.846865  	82.801175 
1170.811290  	82.293697 
1171.775714  	81.856711 
1172.740138  	81.550936 
1173.704563  	81.279160 
1174.668987  	81.022816 
1175.633412  	80.955842 
1176.597836  	80.969735 
1177.562261  	80.952432 
1178.526685  	80.957065 
1179.491110  	81.004395 
1180.455534  	81.027838 
1181.419959  	81.041422 
1182.384383  	81.025493 
1183.348808  	80.956140 
1184.313232  	80.854790 
1185.277656  	80.659421 
1186.242081  	80.397256 
1187.206505  	80.102446 
1188.170930  	79.782776 
1189.135354  	79.373558 
1190.099779  	78.926708 
1191.064203  	78.496841 
1192.028628  	78.009110 
1192.993052  	77.421554 
1193.957477  	76.820977 
1194.921901  	76.241109 
1195.886325  	75.664343 
1196.850750  	75.045167 
1197.815174  	74.402106 
1198.779599  	73.780684 
1199.744023  	73.196401 
1200.708448  	72.576907 
1201.672872  	71.953910 
1202.637297  	71.355360 
1203.601721  	70.767928 
1204.566146  	70.206644 
1205.530570  	69.658876 
1206.494994  	69.099322 
1207.459419  	68.560268 
1208.423843  	68.036769 
1209.388268  	67.474852 
1210.352692  	66.900896 
1211.317117  	66.315760 
1212.281541  	65.704140 
1213.245966  	65.104770 
1214.210390  	64.480756 
1215.174815  	63.799458 
1216.139239  	63.067584 
1217.103663  	62.342088 
1218.068088  	61.589514 
1219.032512  	60.781096 
1219.996937  	60.007588 
1220.961361  	59.293987 
1221.925786  	58.636662 
1222.890210  	58.029350 
1223.854635  	57.448992 
1224.819059  	56.850789 
1225.783484  	56.262999 
1226.747908  	55.660847 
1227.712332  	54.957331 
1228.676757  	54.186459 
1229.641181  	53.370584 
1230.605606  	52.501405 
1231.570030  	51.564933 
1232.534455  	50.574544 
1233.498879  	49.623347 
1234.463304  	48.733589 
1235.427728  	47.893026 
1236.392153  	47.150749 
1237.356577  	46.564515 
1238.321002  	46.115442 
1239.285426  	45.772329 
1240.249850  	45.571716 
1241.214275  	45.530184 
1242.178699  	45.621974 
1243.143124  	45.799622 
1244.107548  	46.095144 
1245.071973  	46.524128 
1246.036397  	47.008991 
1247.000822  	47.500230 
1247.965246  	48.037096 
1248.929671  	48.641844 
1249.894095  	49.268667 
1250.858519  	49.852290 
1251.822944  	50.429214 
1252.787368  	51.014466 
1253.751793  	51.551500 
1254.716217  	52.020633 
1255.680642  	52.480428 
1256.645066  	52.918491 
1257.609491  	53.287349 
1258.573915  	53.633160 
1259.538340  	53.975224 
1260.502764  	54.348255 
1261.467188  	54.896421 
1262.431613  	55.479503 
1263.396037  	56.114635 
1264.360462  	56.838159 
1265.324886  	57.594114 
1266.289311  	58.374285 
1267.253735  	59.257162 
1268.218160  	60.160039 
1269.182584  	61.030709 
1270.147009  	61.878460 
1271.111433  	62.779698 
1272.075857  	63.629516 
1273.040282  	64.528350 
1274.004706  	65.350630 
1274.969131  	66.091732 
1275.933555  	66.789648 
1276.897980  	67.467540 
1277.862404  	68.117547 
1278.826829  	68.725840 
1279.791253  	69.260257 
1280.755678  	69.794427 
1281.720102  	70.349704 
1282.684526  	70.907673 
1283.648951  	71.426303 
1284.613375  	71.905954 
1285.577800  	72.429816 
1286.542224  	72.922325 
1287.506649  	73.299856 
1288.471073  	73.835679 
1289.435498  	74.530993 
1290.399922  	75.145991 
1291.364347  	75.774451 
1292.328771  	76.465163 
1293.293195  	77.131388 
1294.257620  	77.802581 
1295.222044  	78.431324 
1296.186469  	79.029361 
1297.150893  	79.733602 
1298.115318  	80.559876 
1299.079742  	81.252007 
1300.044167  	81.919019 
1301.008591  	82.542491 
1301.973016  	83.107320 
1302.937440  	83.607124 
1303.901865  	84.055155 
1304.866289  	84.438488 
1305.830713  	84.772431 
1306.795138  	85.068043 
1307.759562  	85.332588 
1308.723987  	85.669912 
1309.688411  	86.115946 
1310.652836  	86.427102 
1311.617260  	86.602425 
1312.581685  	86.552480 
1313.546109  	86.804241 
1314.510534  	87.131634 
1315.474958  	87.488336 
1316.439382  	87.588466 
1317.403807  	87.593248 
1318.368231  	87.686450 
1319.332656  	87.708631 
1320.297080  	88.080872 
1321.261505  	88.369876 
1322.225929  	88.603685 
1323.190354  	88.669168 
1324.154778  	88.697362 
1325.119203  	88.705831 
1326.083627  	88.616794 
1327.048051  	88.406982 
1328.012476  	88.050960 
1328.976900  	87.505551 
1329.941325  	86.701822 
1330.905749  	85.699361 
1331.870174  	84.411740 
1332.834598  	82.789153 
1333.799023  	80.936561 
1334.763447  	79.011150 
1335.727872  	77.008351 
1336.692296  	75.014899 
1337.656720  	73.749228 
1338.621145  	72.631892 
1339.585569  	71.977619 
1340.549994  	72.815828 
1341.514418  	74.931051 
1342.478843  	76.882577 
1343.443267  	78.655507 
1344.407692  	80.486232 
1345.372116  	82.259812 
1346.336541  	83.855422 
1347.300965  	85.232551 
1348.265389  	86.307687 
1349.229814  	87.056085 
1350.194238  	87.825436 
1351.158663  	88.505302 
1352.123087  	88.952423 
1353.087512  	89.297659 
1354.051936  	89.431173 
1355.016361  	89.396523 
1355.980785  	89.720523 
1356.945210  	89.894821 
1357.909634  	89.814189 
1358.874059  	89.857663 
1359.838483  	89.839819 
1360.802907  	89.192564 
1361.767332  	88.611395 
1362.731756  	87.710228 
1363.696181  	87.542341 
1364.660605  	88.548100 
1365.625030  	88.585398 
1366.589454  	88.311527 
1367.553879  	87.850458 
1368.518303  	87.199055 
1369.482728  	87.109445 
1370.447152  	87.454692 
1371.411576  	87.436867 
1372.376001  	87.285420 
1373.340425  	86.653516 
1374.304850  	86.191246 
1375.269274  	86.659759 
1376.233699  	87.475134 
1377.198123  	87.668864 
1378.162548  	87.460356 
1379.126972  	87.540818 
1380.091397  	87.682346 
1381.055821  	87.823656 
1382.020245  	87.812462 
1382.984670  	87.736797 
1383.949094  	87.690011 
1384.913519  	87.626222 
1385.877943  	87.211436 
1386.842368  	86.236102 
1387.806792  	86.009486 
1388.771217  	87.032021 
1389.735641  	87.454274 
1390.700066  	87.343368 
1391.664490  	87.324065 
1392.628914  	87.297860 
1393.593339  	86.724047 
1394.557763  	85.412851 
1395.522188  	85.029938 
1396.486612  	85.461377 
1397.451037  	85.181401 
1398.415461  	84.253767 
1399.379886  	83.614206 
1400.344310  	83.766986 
1401.308735  	83.559275 
1402.273159  	82.629249 
1403.237583  	81.514595 
1404.202008  	79.919863 
1405.166432  	77.957805 
1406.130857  	77.088066 
1407.095281  	76.506054 
1408.059706  	75.692295 
1409.024130  	75.368313 
1409.988555  	75.503016 
1410.952979  	76.339078 
1411.917404  	77.659287 
1412.881828  	79.716058 
1413.846252  	81.732539 
1414.810677  	83.542446 
1415.775101  	84.786360 
1416.739526  	85.621596 
1417.703950  	86.235277 
1418.668375  	86.447156 
1419.632799  	86.757166 
1420.597224  	89.030787 
1421.561648  	89.986175 
1422.526073  	90.266368 
1423.490497  	89.568442 
1424.454922  	89.384669 
1425.419346  	90.519130 
1426.383770  	90.946655 
1427.348195  	90.887834 
1428.312619  	90.592377 
1429.277044  	90.120836 
1430.241468  	89.684033 
1431.205893  	90.043647 
1432.170317  	89.981343 
1433.134742  	89.660532 
1434.099166  	89.724575 
1435.063591  	89.415181 
1436.028015  	88.080674 
1436.992439  	87.034743 
1437.956864  	88.381988 
1438.921288  	89.002792 
1439.885713  	89.040120 
1440.850137  	89.003081 
1441.814562  	88.941652 
1442.778986  	88.910088 
1443.743411  	88.816676 
1444.707835  	88.702693 
1445.672260  	88.542690 
1446.636684  	88.289567 
1447.601108  	87.452438 
1448.565533  	87.275591 
1449.529957  	88.012725 
1450.494382  	88.104910 
1451.458806  	87.621520 
1452.423231  	87.213141 
1453.387655  	87.554190 
1454.352080  	87.185028 
1455.316504  	86.123275 
1456.280929  	85.270423 
1457.245353  	84.519025 
1458.209777  	84.758186 
1459.174202  	85.754761 
1460.138626  	87.239646 
1461.103051  	88.119019 
1462.067475  	88.358860 
1463.031900  	88.408994 
1463.996324  	88.036695 
1464.960749  	87.160820 
1465.925173  	87.629255 
1466.889598  	88.138698 
1467.854022  	88.040222 
1468.818446  	87.827788 
1469.782871  	87.300734 
1470.747295  	86.463104 
1471.711720  	84.901370 
1472.676144  	84.061602 
1473.640569  	85.014800 
1474.604993  	86.801948 
1475.569418  	87.143919 
1476.533842  	86.905335 
1477.498267  	88.345899 
1478.462691  	89.258716 
1479.427116  	89.565711 
1480.391540  	89.561058 
1481.355964  	89.231912 
1482.320389  	89.854915 
1483.284813  	90.486653 
1484.249238  	90.773154 
1485.213662  	90.753755 
1486.178087  	90.337963 
1487.142511  	89.836771 
1488.106936  	90.020794 
1489.071360  	89.234953 
1490.035785  	87.936063 
1491.000209  	89.158409 
1491.964633  	90.835057 
1492.929058  	91.499745 
1493.893482  	91.522778 
1494.857907  	91.170029 
1495.822331  	90.117035 
1496.786756  	89.357795 
1497.751180  	89.834161 
1498.715605  	89.126853 
1499.680029  	88.834033 
1500.644454  	88.788175 
1501.608878  	87.726364 
1502.573302  	86.785429 
1503.537727  	86.068302 
1504.502151  	84.853477 
1505.466576  	82.923392 
1506.431000  	79.973031 
1507.395425  	80.326843 
1508.359849  	83.120763 
1509.324274  	85.294455 
1510.288698  	87.108979 
1511.253123  	88.671194 
1512.217547  	88.837591 
1513.181971  	89.731869 
1514.146396  	90.266810 
1515.110820  	89.445205 
1516.075245  	88.487036 
1517.039669  	87.298515 
1518.004094  	88.964090 
1518.968518  	90.216296 
1519.932943  	89.329299 
1520.897367  	87.052591 
1521.861792  	87.381418 
1522.826216  	88.634979 
1523.790640  	89.592192 
1524.755065  	89.233328 
1525.719489  	88.752640 
1526.683914  	89.336980 
1527.648338  	89.016631 
1528.612763  	89.428818 
1529.577187  	90.509038 
1530.541612  	90.847871 
1531.506036  	90.093330 
1532.470461  	89.614022 
1533.434885  	88.756024 
1534.399309  	89.059351 
1535.363734  	89.986348 
1536.328158  	90.469495 
1537.292583  	90.596551 
1538.257007  	89.643386 
1539.221432  	87.199587 
1540.185856  	86.817347 
1541.150281  	87.979588 
1542.114705  	87.938667 
1543.079130  	87.965063 
1544.043554  	88.134054 
1545.007979  	87.802893 
1545.972403  	88.861398 
1546.936827  	90.283620 
1547.901252  	90.553790 
1548.865676  	90.036288 
1549.830101  	88.350307 
1550.794525  	88.789163 
1551.758950  	90.168431 
1552.723374  	90.198799 
1553.687799  	89.386431 
1554.652223  	88.463552 
1555.616648  	89.418093 
1556.581072  	89.629840 
1557.545496  	88.442945 
1558.509921  	84.700004 
1559.474345  	84.171224 
1560.438770  	86.879941 
1561.403194  	89.237133 
1562.367619  	90.037437 
1563.332043  	90.229925 
1564.296468  	89.873023 
1565.260892  	89.514669 
1566.225317  	90.033028 
1567.189741  	90.218718 
1568.154165  	89.766297 
1569.118590  	88.406993 
1570.083014  	88.025561 
1571.047439  	89.241274 
1572.011863  	89.491424 
1572.976288  	89.298009 
1573.940712  	89.040755 
1574.905137  	88.496462 
1575.869561  	87.296404 
1576.833986  	86.478596 
1577.798410  	87.290542 
1578.762834  	87.968003 
1579.727259  	88.365436 
1580.691683  	88.702344 
1581.656108  	89.006588 
1582.620532  	89.311163 
1583.584957  	89.592692 
1584.549381  	89.895855 
1585.513806  	90.139398 
1586.478230  	90.336561 
1587.442655  	90.458089 
1588.407079  	90.515760 
1589.371503  	90.432778 
1590.335928  	90.406884 
1591.300352  	90.467000 
1592.264777  	90.521607 
1593.229201  	90.535437 
1594.193626  	90.276795 
1595.158050  	90.179182 
1596.122475  	90.275901 
1597.086899  	90.334687 
1598.051324  	90.425870 
1599.015748  	90.361176 
1599.980173  	90.282551 
1600.944597  	90.020569 
1601.909021  	89.861680 
1602.873446  	89.628849 
1603.837870  	89.584715 
1604.802295  	89.726103 
1605.766719  	89.631115 
1606.731144  	89.231440 
1607.695568  	89.007719 
1608.659993  	88.949541 
1609.624417  	88.608104 
1610.588842  	88.796651 
1611.553266  	88.914858 
1612.517690  	88.814090 
1613.482115  	88.769732 
1614.446539  	88.679124 
1615.410964  	88.307703 
1616.375388  	87.403079 
1617.339813  	87.377854 
1618.304237  	88.409031 
1619.268662  	88.831166 
1620.233086  	88.917082 
1621.197511  	88.927078 
1622.161935  	88.555290 
1623.126359  	87.679729 
1624.090784  	87.811051 
1625.055208  	88.655598 
1626.019633  	88.816865 
1626.984057  	88.567977 
1627.948482  	88.068051 
1628.912906  	88.459948 
1629.877331  	88.765064 
1630.841755  	88.744931 
1631.806180  	88.695676 
1632.770604  	88.654535 
1633.735028  	88.322289 
1634.699453  	87.406045 
1635.663877  	85.676870 
1636.628302  	86.488584 
1637.592726  	86.741861 
1638.557151  	87.450987 
1639.521575  	87.897032 
1640.486000  	87.857366 
1641.450424  	87.857586 
1642.414849  	87.754723 
1643.379273  	87.782594 
1644.343697  	87.669902 
1645.308122  	86.851222 
1646.272546  	85.388673 
1647.236971  	84.780298 
1648.201395  	85.142080 
1649.165820  	86.435686 
1650.130244  	86.949826 
1651.094669  	86.659818 
1652.059093  	85.717794 
1653.023518  	82.781155 
1653.987942  	82.366886 
1654.952366  	84.421517 
1655.916791  	85.720646 
1656.881215  	85.944553 
1657.845640  	86.040908 
1658.810064  	86.088245 
1659.774489  	85.934319 
1660.738913  	85.450835 
1661.703338  	84.782290 
1662.667762  	83.934143 
1663.632187  	84.024416 
1664.596611  	84.284706 
1665.561036  	84.127902 
1666.525460  	83.838888 
1667.489884  	83.176224 
1668.454309  	81.751362 
1669.418733  	80.716254 
1670.383158  	81.218473 
1671.347582  	80.838112 
1672.312007  	80.841425 
1673.276431  	81.097725 
1674.240856  	80.494862 
1675.205280  	79.148234 
1676.169705  	79.112078 
1677.134129  	79.475317 
1678.098553  	79.129109 
1679.062978  	78.322859 
1680.027402  	76.821143 
1680.991827  	76.482945 
1681.956251  	76.612742 
1682.920676  	75.357189 
1683.885100  	72.121323 
1684.849525  	72.034663 
1685.813949  	74.645393 
1686.778374  	75.015725 
1687.742798  	74.250858 
1688.707222  	73.413934 
1689.671647  	73.069154 
1690.636071  	72.576074 
1691.600496  	72.213975 
1692.564920  	71.469031 
1693.529345  	70.371468 
1694.493769  	69.001715 
1695.458194  	66.973053 
1696.422618  	64.959203 
1697.387043  	64.482338 
1698.351467  	63.532813 
1699.315891  	61.904757 
1700.280316  	58.546294 
1701.244740  	57.635075 
1702.209165  	57.448360 
1703.173589  	56.307221 
1704.138014  	54.505524 
1705.102438  	52.738128 
1706.066863  	51.378132 
1707.031287  	49.910520 
1707.995712  	49.191502 
1708.960136  	48.387758 
1709.924560  	47.265484 
1710.888985  	46.530454 
1711.853409  	46.269952 
1712.817834  	45.818660 
1713.782258  	45.311128 
1714.746683  	45.024309 
1715.711107  	45.872466 
1716.675532  	46.453710 
1717.639956  	46.430723 
1718.604381  	48.239605 
1719.568805  	50.855236 
1720.533230  	52.435345 
1721.497654  	53.744740 
1722.462078  	54.963503 
1723.426503  	56.018590 
1724.390927  	57.605161 
1725.355352  	59.135516 
1726.319776  	60.491375 
1727.284201  	61.857300 
1728.248625  	63.204407 
1729.213050  	63.954852 
1730.177474  	64.770200 
1731.141899  	66.970608 
1732.106323  	68.232384 
1733.070747  	68.310297 
1734.035172  	68.211064 
1734.999596  	71.786093 
1735.964021  	74.480872 
1736.928445  	75.911068 
1737.892870  	77.264818 
1738.857294  	78.261012 
1739.821719  	79.140274 
1740.786143  	81.449358 
1741.750568  	83.002388 
1742.714992  	83.373660 
1743.679416  	83.843096 
1744.643841  	85.628797 
1745.608265  	86.983445 
1746.572690  	87.538854 
1747.537114  	87.863256 
1748.501539  	88.168932 
1749.465963  	88.855042 
1750.430388  	89.461021 
1751.394812  	89.100357 
1752.359237  	90.492936 
1753.323661  	91.734295 
1754.288085  	92.309449 
1755.252510  	92.472305 
1756.216934  	91.960891 
1757.181359  	91.474969 
1758.145783  	92.180234 
1759.110208  	92.661288 
1760.074632  	92.859089 
1761.039057  	92.339076 
1762.003481  	91.443475 
1762.967906  	92.433116 
1763.932330  	93.159497 
1764.896754  	93.299764 
1765.861179  	93.327680 
1766.825603  	93.187483 
1767.790028  	92.327215 
1768.754452  	92.084510 
1769.718877  	93.017382 
1770.683301  	92.768785 
1771.647726  	91.674297 
1772.612150  	91.240125 
1773.576575  	92.318726 
1774.540999  	92.967470 
1775.505423  	92.610617 
1776.469848  	92.860241 
1777.434272  	93.483903 
1778.398697  	93.325040 
1779.363121  	93.009307 
1780.327546  	92.580069 
1781.291970  	92.518457 
1782.256395  	93.207837 
1783.220819  	93.520611 
1784.185244  	93.198106 
1785.149668  	92.650649 
1786.114093  	93.134999 
1787.078517  	93.500575 
1788.042941  	93.490100 
1789.007366  	93.428986 
1789.971790  	93.146632 
1790.936215  	92.254813 
1791.900639  	91.796823 
1792.865064  	91.716155 
1793.829488  	92.599634 
1794.793913  	93.011630 
1795.758337  	92.447373 
1796.722762  	92.468356 
1797.687186  	93.167978 
1798.651610  	93.181024 
1799.616035  	92.621619 
1800.580459  	92.564630 
1801.544884  	92.392718 
1802.509308  	92.171809 
1803.473733  	92.896605 
1804.438157  	93.372862 
1805.402582  	93.361151 
1806.367006  	93.283562 
1807.331431  	92.988549 
1808.295855  	92.883215 
1809.260279  	93.186819 
1810.224704  	92.730841 
1811.189128  	92.308514 
1812.153553  	92.645020 
1813.117977  	93.042426 
1814.082402  	93.359440 
1815.046826  	93.370199 
1816.011251  	93.369116 
1816.975675  	93.155910 
1817.940100  	92.996786 
1818.904524  	93.236591 
1819.868948  	93.324714 
1820.833373  	93.266811 
1821.797797  	93.199073 
1822.762222  	93.000865 
1823.726646  	92.962405 
1824.691071  	92.409214 
1825.655495  	91.798927 
1826.619920  	92.770163 
1827.584344  	93.149322 
1828.548769  	92.756747 
1829.513193  	91.761019 
1830.477617  	91.757972 
1831.442042  	92.819608 
1832.406466  	93.144652 
1833.370891  	92.995579 
1834.335315  	93.226772 
1835.299740  	93.459843 
1836.264164  	93.308173 
1837.228589  	92.818518 
1838.193013  	92.981608 
1839.157438  	93.349245 
1840.121862  	93.506990 
1841.086287  	93.501610 
1842.050711  	93.144151 
1843.015135  	92.842659 
1843.979560  	92.168925 
1844.943984  	92.009582 
1845.908409  	92.834883 
1846.872833  	93.092401 
1847.837258  	92.704809 
1848.801682  	92.963120 
1849.766107  	93.533191 
1850.730531  	93.733468 
1851.694956  	93.708098 
1852.659380  	93.687126 
1853.623804  	93.770108 
1854.588229  	93.745087 
1855.552653  	93.765081 
1856.517078  	93.724659 
1857.481502  	93.738541 
1858.445927  	93.633391 
1859.410351  	93.556042 
1860.374776  	93.590885 
1861.339200  	93.529318 
1862.303625  	93.620534 
1863.268049  	93.817525 
1864.232473  	93.817015 
1865.196898  	93.729339 
1866.161322  	93.413501 
1867.125747  	93.066680 
1868.090171  	92.538940 
1869.054596  	92.142230 
1870.019020  	92.598189 
1870.983445  	93.292941 
1871.947869  	93.726851 
1872.912294  	93.904856 
1873.876718  	93.902324 
1874.841142  	93.892670 
1875.805567  	93.806133 
1876.769991  	93.793756 
1877.734416  	93.840917 
1878.698840  	93.781810 
1879.663265  	93.675574 
1880.627689  	93.772217 
1881.592114  	93.773338 
1882.556538  	93.785628 
1883.520963  	93.864366 
1884.485387  	93.737734 
1885.449811  	93.603301 
1886.414236  	93.829340 
1887.378660  	93.883428 
1888.343085  	93.626566 
1889.307509  	92.836835 
1890.271934  	92.757508 
1891.236358  	93.424922 
1892.200783  	93.670078 
1893.165207  	93.729791 
1894.129632  	93.626492 
1895.094056  	93.175657 
1896.058480  	93.337646 
1897.022905  	93.710301 
1897.987329  	93.645545 
1898.951754  	93.575857 
1899.916178  	93.619544 
1900.880603  	93.656710 
1901.845027  	93.584916 
1902.809452  	93.632769 
1903.773876  	93.650672 
1904.738301  	93.650346 
1905.702725  	93.710737 
1906.667150  	93.715909 
1907.631574  	93.416666 
1908.595998  	93.241903 
1909.560423  	93.169466 
1910.524847  	93.113165 
1911.489272  	93.505077 
1912.453696  	93.590441 
1913.418121  	93.558169 
1914.382545  	93.532634 
1915.346970  	93.567948 
1916.311394  	93.534960 
1917.275819  	93.093015 
1918.240243  	92.532862 
1919.204667  	93.162833 
1920.169092  	93.425538 
1921.133516  	93.259583 
1922.097941  	92.784024 
1923.062365  	92.301182 
1924.026790  	92.956726 
1924.991214  	93.421312 
1925.955639  	93.374533 
1926.920063  	93.529457 
1927.884488  	93.602341 
1928.848912  	93.669284 
1929.813336  	93.695300 
1930.777761  	93.652152 
1931.742185  	93.446681 
1932.706610  	93.352997 
1933.671034  	93.498078 
1934.635459  	93.605418 
1935.599883  	93.580179 
1936.564308  	93.614327 
1937.528732  	93.418027 
1938.493157  	93.460215 
1939.457581  	93.617334 
1940.422005  	93.570753 
1941.386430  	93.231525 
1942.350854  	92.338278 
1943.315279  	92.390864 
1944.279703  	93.149912 
1945.244128  	92.957858 
1946.208552  	92.850926 
1947.172977  	92.982928 
1948.137401  	93.091080 
1949.101826  	93.166759 
1950.066250  	93.408335 
1951.030674  	93.424966 
1951.995099  	93.285425 
1952.959523  	93.278177 
1953.923948  	93.102241 
1954.888372  	92.939602 
1955.852797  	93.029079 
1956.817221  	93.216228 
1957.781646  	93.374782 
1958.746070  	93.216225 
1959.710495  	93.144147 
1960.674919  	93.018255 
1961.639344  	93.036476 
1962.603768  	93.058436 
1963.568192  	93.164504 
1964.532617  	93.338297 
1965.497041  	93.404790 
1966.461466  	93.270756 
1967.425890  	93.051200 
1968.390315  	93.457868 
1969.354739  	93.575382 
1970.319164  	93.486120 
1971.283588  	93.640634 
1972.248013  	93.613195 
1973.212437  	93.688606 
1974.176861  	93.633621 
1975.141286  	93.452896 
1976.105710  	93.498916 
1977.070135  	93.943501 
1978.034559  	93.728897 
1978.998984  	93.187323 
1979.963408  	93.016297 
1980.927833  	93.141328 
1981.892257  	93.468342 
1982.856682  	93.590692 
1983.821106  	93.356789 
1984.785530  	93.244602 
1985.749955  	93.253545 
1986.714379  	93.350524 
1987.678804  	93.245858 
1988.643228  	93.185796 
1989.607653  	93.497642 
1990.572077  	93.486230 
1991.536502  	93.030545 
1992.500926  	92.900651 
1993.465351  	93.322239 
1994.429775  	93.613285 
1995.394199  	93.499364 
1996.358624  	93.473073 
1997.323048  	93.526994 
1998.287473  	93.644993 
1999.251897  	93.650289 
2000.216322  	93.765278 
2001.180746  	94.082358 
2002.145171  	94.310784 
2003.109595  	94.260937 
2004.074020  	94.226208 
2005.038444  	94.250799 
2006.002868  	94.158140 
2006.967293  	94.240327 
2007.931717  	94.001884 
2008.896142  	93.784736 
2009.860566  	94.035028 
2010.824991  	94.180095 
2011.789415  	93.895407 
2012.753840  	93.855595 
2013.718264  	93.959650 
2014.682689  	93.818640 
2015.647113  	93.634496 
2016.611537  	93.275457 
2017.575962  	93.366807 
2018.540386  	93.526593 
2019.504811  	93.596091 
2020.469235  	93.933866 
2021.433660  	94.138801 
2022.398084  	94.058569 
2023.362509  	93.970667 
2024.326933  	94.120415 
2025.291358  	94.080212 
2026.255782  	94.144706 
2027.220207  	94.046025 
2028.184631  	93.724877 
2029.149055  	94.230363 
2030.113480  	94.533221 
2031.077904  	94.219434 
2032.042329  	93.894788 
2033.006753  	94.128230 
2033.971178  	94.255060 
2034.935602  	94.156694 
2035.900027  	94.239301 
2036.864451  	94.326150 
2037.828876  	94.298750 
2038.793300  	94.130221 
2039.757724  	93.986544 
2040.722149  	93.879395 
2041.686573  	93.519177 
2042.650998  	93.423488 
2043.615422  	93.378263 
2044.579847  	93.545031 
2045.544271  	93.840852 
2046.508696  	94.074907 
2047.473120  	94.023951 
2048.437545  	93.831398 
2049.401969  	93.700619 
2050.366393  	93.384362 
2051.330818  	93.192949 
2052.295242  	93.504628 
2053.259667  	93.874681 
2054.224091  	93.743758 
2055.188516  	93.585798 
2056.152940  	93.498258 
2057.117365  	93.275890 
2058.081789  	93.321241 
2059.046214  	93.394770 
2060.010638  	93.304699 
2060.975062  	93.120106 
2061.939487  	93.196070 
2062.903911  	93.263626 
2063.868336  	93.203467 
2064.832760  	92.970051 
2065.797185  	93.073389 
2066.761609  	93.321979 
2067.726034  	93.276572 
2068.690458  	93.143946 
2069.654883  	93.178235 
2070.619307  	93.214558 
2071.583731  	93.170714 
2072.548156  	93.157364 
2073.512580  	93.083040 
2074.477005  	93.005754 
2075.441429  	93.160120 
2076.405854  	93.174864 
2077.370278  	93.071927 
2078.334703  	92.965983 
2079.299127  	92.961668 
2080.263552  	93.025534 
2081.227976  	92.992956 
2082.192401  	92.959422 
2083.156825  	92.988044 
2084.121249  	92.995141 
2085.085674  	93.127527 
2086.050098  	93.252420 
2087.014523  	93.209546 
2087.978947  	93.112667 
2088.943372  	93.088498 
2089.907796  	92.855575 
2090.872221  	92.828641 
2091.836645  	93.135693 
2092.801070  	93.274159 
2093.765494  	93.285609 
2094.729918  	93.275763 
2095.694343  	93.179647 
2096.658767  	93.046076 
2097.623192  	92.976309 
2098.587616  	92.953212 
2099.552041  	93.046633 
2100.516465  	93.079003 
2101.480890  	93.011489 
2102.445314  	93.042996 
2103.409739  	93.018927 
2104.374163  	92.927661 
2105.338587  	92.853361 
2106.303012  	92.920184 
2107.267436  	92.900493 
2108.231861  	92.847068 
2109.196285  	92.813648 
2110.160710  	92.948873 
2111.125134  	93.055168 
2112.089559  	93.038698 
2113.053983  	92.981949 
2114.018408  	92.916464 
2114.982832  	92.858675 
2115.947256  	92.890746 
2116.911681  	92.971303 
2117.876105  	93.072239 
2118.840530  	93.172390 
2119.804954  	93.165489 
2120.769379  	93.118306 
2121.733803  	93.174364 
2122.698228  	93.299471 
2123.662652  	93.285467 
2124.627077  	93.213968 
2125.591501  	93.262745 
2126.555925  	93.371387 
2127.520350  	93.325074 
2128.484774  	93.295401 
2129.449199  	93.585031 
2130.413623  	93.694154 
2131.378048  	93.683399 
2132.342472  	93.814622 
2133.306897  	93.851040 
2134.271321  	93.578718 
2135.235746  	93.324585 
2136.200170  	93.195229 
2137.164594  	93.354468 
2138.129019  	93.592505 
2139.093443  	93.755825 
2140.057868  	93.746364 
2141.022292  	93.587997 
2141.986717  	93.436561 
2142.951141  	93.515613 
2143.915566  	93.786849 
2144.879990  	93.885758 
2145.844415  	93.862589 
2146.808839  	93.628968 
2147.773264  	93.701214 
2148.737688  	93.984258 
2149.702112  	94.018519 
2150.666537  	94.068254 
2151.630961  	94.059103 
2152.595386  	94.010322 
2153.559810  	94.033363 
2154.524235  	94.331759 
2155.488659  	94.840664 
2156.453084  	95.276735 
2157.417508  	95.401625 
2158.381933  	95.094097 
2159.346357  	94.137286 
2160.310781  	93.392360 
2161.275206  	92.874251 
2162.239630  	93.053782 
2163.204055  	93.732843 
2164.168479  	94.073754 
2165.132904  	93.566811 
2166.097328  	93.534713 
2167.061753  	93.943261 
2168.026177  	93.844658 
2168.990602  	93.553534 
2169.955026  	93.602385 
2170.919450  	93.843027 
2171.883875  	93.679600 
2172.848299  	93.652723 
2173.812724  	93.860647 
2174.777148  	93.873614 
2175.741573  	93.601000 
2176.705997  	93.322706 
2177.670422  	93.620411 
2178.634846  	94.066182 
2179.599271  	93.883378 
2180.563695  	93.655267 
2181.528119  	93.959081 
2182.492544  	94.064528 
2183.456968  	93.703718 
2184.421393  	93.515887 
2185.385817  	93.749441 
2186.350242  	93.641885 
2187.314666  	93.287572 
2188.279091  	93.435337 
2189.243515  	93.590579 
2190.207940  	93.547336 
2191.172364  	93.656391 
2192.136788  	93.821517 
2193.101213  	93.743121 
2194.065637  	93.577959 
2195.030062  	93.489657 
2195.994486  	93.303884 
2196.958911  	93.298662 
2197.923335  	93.583529 
2198.887760  	93.519436 
2199.852184  	93.462113 
2200.816609  	93.491420 
2201.781033  	93.491072 
2202.745458  	93.708257 
2203.709882  	93.578771 
2204.674306  	93.233776 
2205.638731  	93.070391 
2206.603155  	93.097622 
2207.567580  	93.274033 
2208.532004  	93.392746 
2209.496429  	93.389766 
2210.460853  	93.357990 
2211.425278  	93.421398 
2212.389702  	93.291340 
2213.354127  	93.002860 
2214.318551  	92.972695 
2215.282975  	93.155242 
2216.247400  	93.266153 
2217.211824  	93.313430 
2218.176249  	93.276840 
2219.140673  	93.377683 
2220.105098  	93.304746 
2221.069522  	93.181826 
2222.033947  	93.259367 
2222.998371  	93.239815 
2223.962796  	93.229299 
2224.927220  	93.294216 
2225.891644  	93.190039 
2226.856069  	93.038580 
2227.820493  	93.051203 
2228.784918  	93.073803 
2229.749342  	93.176757 
2230.713767  	93.247446 
2231.678191  	93.074745 
2232.642616  	92.981365 
2233.607040  	93.091318 
2234.571465  	93.045473 
2235.535889  	93.043874 
2236.500313  	93.076132 
2237.464738  	93.161635 
2238.429162  	93.144393 
2239.393587  	93.058481 
2240.358011  	93.043851 
2241.322436  	93.137386 
2242.286860  	93.055251 
2243.251285  	93.057231 
2244.215709  	93.013599 
2245.180134  	92.919889 
2246.144558  	92.909989 
2247.108982  	92.940561 
2248.073407  	92.949444 
2249.037831  	93.008746 
2250.002256  	92.976490 
2250.966680  	92.972234 
2251.931105  	93.018380 
2252.895529  	92.973161 
2253.859954  	92.981599 
2254.824378  	92.924076 
2255.788803  	92.841300 
2256.753227  	92.820734 
2257.717651  	92.876467 
2258.682076  	92.841082 
2259.646500  	92.827507 
2260.610925  	92.766008 
2261.575349  	92.688667 
2262.539774  	92.735727 
2263.504198  	92.817774 
2264.468623  	92.790804 
2265.433047  	92.752696 
2266.397472  	92.720567 
2267.361896  	92.703028 
2268.326321  	92.689047 
2269.290745  	92.649467 
2270.255169  	92.728797 
2271.219594  	92.775855 
2272.184018  	92.690149 
2273.148443  	92.634573 
2274.112867  	92.678622 
2275.077292  	92.704918 
2276.041716  	92.610048 
2277.006141  	92.601032 
2277.970565  	92.654609 
2278.934990  	92.595986 
2279.899414  	92.573103 
2280.863838  	92.618327 
2281.828263  	92.638856 
2282.792687  	92.508009 
2283.757112  	92.461283 
2284.721536  	92.467361 
2285.685961  	92.412909 
2286.650385  	92.439880 
2287.614810  	92.396428 
2288.579234  	92.351859 
2289.543659  	92.376524 
2290.508083  	92.431266 
2291.472507  	92.407417 
2292.436932  	92.410837 
2293.401356  	92.368986 
2294.365781  	92.309358 
2295.330205  	92.337110 
2296.294630  	92.280553 
2297.259054  	92.251165 
2298.223479  	92.144573 
2299.187903  	92.235304 
2300.152328  	92.335976 
2301.116752  	92.264750 
2302.081176  	92.276432 
2303.045601  	92.178734 
2304.010025  	92.275640 
2304.974450  	92.110363 
2305.938874  	92.098102 
2306.903299  	91.926811 
2307.867723  	91.942107 
2308.832148  	91.813904 
2309.796572  	91.815144 
2310.760997  	91.811053 
2311.725421  	91.723434 
2312.689845  	91.849274 
2313.654270  	91.843577 
2314.618694  	91.947694 
2315.583119  	91.926016 
2316.547543  	91.982441 
2317.511968  	91.939001 
2318.476392  	91.967785 
2319.440817  	91.826357 
2320.405241  	91.762931 
2321.369666  	91.710915 
2322.334090  	91.842524 
2323.298515  	91.801815 
2324.262939  	91.767850 
2325.227363  	92.035663 
2326.191788  	92.390689 
2327.156212  	92.549421 
2328.120637  	92.575354 
2329.085061  	92.495617 
2330.049486  	92.493694 
2331.013910  	92.487262 
2331.978335  	92.593666 
2332.942759  	92.684869 
2333.907184  	92.752073 
2334.871608  	92.832694 
2335.836032  	93.024827 
2336.800457  	93.096234 
2337.764881  	93.115437 
2338.729306  	93.147421 
2339.693730  	93.000103 
2340.658155  	92.988650 
2341.622579  	93.075211 
2342.587004  	92.943199 
2343.551428  	92.787693 
2344.515853  	92.612473 
2345.480277  	92.489494 
2346.444701  	92.403159 
2347.409126  	92.330403 
2348.373550  	92.183109 
2349.337975  	92.138259 
2350.302399  	92.238259 
2351.266824  	92.491306 
2352.231248  	92.794935 
2353.195673  	92.849081 
2354.160097  	92.695970 
2355.124522  	92.645195 
2356.088946  	92.770141 
2357.053370  	92.903123 
2358.017795  	92.937829 
2358.982219  	92.933407 
2359.946644  	93.001936 
2360.911068  	93.091466 
2361.875493  	92.964329 
2362.839917  	92.890813 
2363.804342  	92.900879 
2364.768766  	92.791854 
2365.733191  	92.839869 
2366.697615  	92.965797 
2367.662039  	92.873867 
2368.626464  	92.669815 
2369.590888  	92.447501 
2370.555313  	92.314882 
2371.519737  	92.273470 
2372.484162  	92.215862 
2373.448586  	92.183881 
2374.413011  	92.119279 
2375.377435  	92.025452 
2376.341860  	91.982968 
2377.306284  	91.972517 
2378.270708  	91.931127 
2379.235133  	91.850330 
2380.199557  	91.936794 
2381.163982  	92.080532 
2382.128406  	92.189099 
2383.092831  	92.276033 
2384.057255  	92.335963 
2385.021680  	92.421569 
2385.986104  	92.506960 
2386.950529  	92.519832 
2387.914953  	92.585483 
2388.879378  	92.668228 
2389.843802  	92.742558 
2390.808226  	92.760903 
2391.772651  	92.694575 
2392.737075  	92.686806 
2393.701500  	92.746259 
2394.665924  	92.750438 
2395.630349  	92.747745 
2396.594773  	92.717760 
2397.559198  	92.703132 
2398.523622  	92.737084 
2399.488047  	92.758016 
2400.452471  	92.737711 
2401.416895  	92.688415 
2402.381320  	92.689366 
2403.345744  	92.777266 
2404.310169  	92.812829 
2405.274593  	92.772136 
2406.239018  	92.749093 
2407.203442  	92.742694 
2408.167867  	92.748213 
2409.132291  	92.763945 
2410.096716  	92.739357 
2411.061140  	92.732098 
2412.025564  	92.751079 
2412.989989  	92.736675 
2413.954413  	92.714323 
2414.918838  	92.765665 
2415.883262  	92.790441 
2416.847687  	92.720313 
2417.812111  	92.704059 
2418.776536  	92.725545 
2419.740960  	92.732744 
2420.705385  	92.783037 
2421.669809  	92.772955 
2422.634233  	92.749260 
2423.598658  	92.730294 
2424.563082  	92.763822 
2425.527507  	92.820430 
2426.491931  	92.796854 
2427.456356  	92.750242 
2428.420780  	92.793112 
2429.385205  	92.790988 
2430.349629  	92.791286 
2431.314054  	92.785783 
2432.278478  	92.794385 
2433.242902  	92.817221 
2434.207327  	92.789776 
2435.171751  	92.806429 
2436.136176  	92.861649 
2437.100600  	92.879614 
2438.065025  	92.817892 
2439.029449  	92.807600 
2439.993874  	92.794167 
2440.958298  	92.762721 
2441.922723  	92.755209 
2442.887147  	92.759134 
2443.851572  	92.803159 
2444.815996  	92.831951 
2445.780420  	92.773920 
2446.744845  	92.701938 
2447.709269  	92.709807 
2448.673694  	92.770158 
2449.638118  	92.802227 
2450.602543  	92.793363 
2451.566967  	92.731980 
2452.531392  	92.731321 
2453.495816  	92.767883 
2454.460241  	92.789466 
2455.424665  	92.784293 
2456.389089  	92.760292 
2457.353514  	92.757679 
2458.317938  	92.747508 
2459.282363  	92.764511 
2460.246787  	92.785219 
2461.211212  	92.780154 
2462.175636  	92.772346 
2463.140061  	92.777552 
2464.104485  	92.772111 
2465.068910  	92.779583 
2466.033334  	92.773749 
2466.997758  	92.779314 
2467.962183  	92.824619 
2468.926607  	92.804813 
2469.891032  	92.758430 
2470.855456  	92.762354 
2471.819881  	92.817253 
2472.784305  	92.880388 
2473.748730  	92.844480 
2474.713154  	92.849391 
2475.677579  	92.792432 
2476.642003  	92.779553 
2477.606427  	92.799847 
2478.570852  	92.765436 
2479.535276  	92.723120 
2480.499701  	92.668588 
2481.464125  	92.659223 
2482.428550  	92.745002 
2483.392974  	92.777774 
2484.357399  	92.812398 
2485.321823  	92.800623 
2486.286248  	92.716024 
2487.250672  	92.726745 
2488.215096  	92.763920 
2489.179521  	92.713524 
2490.143945  	92.643389 
2491.108370  	92.623820 
2492.072794  	92.672022 
2493.037219  	92.687241 
2494.001643  	92.725320 
2494.966068  	92.765381 
2495.930492  	92.749427 
2496.894917  	92.675567 
2497.859341  	92.691488 
2498.823765  	92.736502 
2499.788190  	92.713836 
2500.752614  	92.735846 
2501.717039  	92.708814 
2502.681463  	92.621463 
2503.645888  	92.623142 
2504.610312  	92.630217 
2505.574737  	92.623464 
2506.539161  	92.630690 
2507.503586  	92.704087 
2508.468010  	92.789388 
2509.432435  	92.709716 
2510.396859  	92.623378 
2511.361283  	92.625282 
2512.325708  	92.591258 
2513.290132  	92.592942 
2514.254557  	92.636497 
2515.218981  	92.628631 
2516.183406  	92.582218 
2517.147830  	92.628237 
2518.112255  	92.585350 
2519.076679  	92.591945 
2520.041104  	92.664414 
2521.005528  	92.662550 
2521.969952  	92.551575 
2522.934377  	92.533868 
2523.898801  	92.583286 
2524.863226  	92.642037 
2525.827650  	92.591900 
2526.792075  	92.567163 
2527.756499  	92.567368 
2528.720924  	92.554263 
2529.685348  	92.502507 
2530.649773  	92.535391 
2531.614197  	92.575064 
2532.578621  	92.623252 
2533.543046  	92.652430 
2534.507470  	92.639412 
2535.471895  	92.597943 
2536.436319  	92.533124 
2537.400744  	92.568463 
2538.365168  	92.586040 
2539.329593  	92.569610 
2540.294017  	92.555089 
2541.258442  	92.548333 
2542.222866  	92.561202 
2543.187290  	92.584960 
2544.151715  	92.601480 
2545.116139  	92.594516 
2546.080564  	92.605425 
2547.044988  	92.599840 
2548.009413  	92.514628 
2548.973837  	92.520517 
2549.938262  	92.596069 
2550.902686  	92.631858 
2551.867111  	92.625237 
2552.831535  	92.549613 
2553.795959  	92.504994 
2554.760384  	92.552216 
2555.724808  	92.537217 
2556.689233  	92.477466 
2557.653657  	92.474943 
2558.618082  	92.503158 
2559.582506  	92.607586 
2560.546931  	92.608661 
2561.511355  	92.528587 
2562.475780  	92.511621 
2563.440204  	92.494483 
2564.404629  	92.483519 
2565.369053  	92.537791 
2566.333477  	92.553617 
2567.297902  	92.521522 
2568.262326  	92.522506 
2569.226751  	92.437753 
2570.191175  	92.419095 
2571.155600  	92.517508 
2572.120024  	92.531860 
2573.084449  	92.570109 
2574.048873  	92.497035 
2575.013298  	92.407269 
2575.977722  	92.414792 
2576.942146  	92.469655 
2577.906571  	92.509494 
2578.870995  	92.525903 
2579.835420  	92.536087 
2580.799844  	92.539612 
2581.764269  	92.498608 
2582.728693  	92.519134 
2583.693118  	92.471985 
2584.657542  	92.411666 
2585.621967  	92.454006 
2586.586391  	92.465810 
2587.550815  	92.449763 
2588.515240  	92.472597 
2589.479664  	92.462716 
2590.444089  	92.449364 
2591.408513  	92.473615 
2592.372938  	92.447274 
2593.337362  	92.398702 
2594.301787  	92.399727 
2595.266211  	92.423679 
2596.230636  	92.469887 
2597.195060  	92.529779 
2598.159484  	92.600976 
2599.123909  	92.598648 
2600.088333  	92.542077 
2601.052758  	92.508239 
2602.017182  	92.508499 
2602.981607  	92.504195 
2603.946031  	92.466852 
2604.910456  	92.474478 
2605.874880  	92.493576 
2606.839305  	92.502087 
2607.803729  	92.500138 
2608.768153  	92.494402 
2609.732578  	92.455440 
2610.697002  	92.424984 
2611.661427  	92.450590 
2612.625851  	92.476033 
2613.590276  	92.495629 
2614.554700  	92.477486 
2615.519125  	92.442750 
2616.483549  	92.444642 
2617.447974  	92.423821 
2618.412398  	92.406702 
2619.376822  	92.389551 
2620.341247  	92.400635 
2621.305671  	92.395030 
2622.270096  	92.385552 
2623.234520  	92.422985 
2624.198945  	92.454338 
2625.163369  	92.427755 
2626.127794  	92.390900 
2627.092218  	92.378765 
2628.056643  	92.390529 
2629.021067  	92.374609 
2629.985492  	92.367735 
2630.949916  	92.431200 
2631.914340  	92.453285 
2632.878765  	92.415756 
2633.843189  	92.395739 
2634.807614  	92.388565 
2635.772038  	92.409572 
2636.736463  	92.399915 
2637.700887  	92.408353 
2638.665312  	92.393821 
2639.629736  	92.392790 
2640.594161  	92.440535 
2641.558585  	92.465281 
2642.523009  	92.449953 
2643.487434  	92.471853 
2644.451858  	92.487325 
2645.416283  	92.434922 
2646.380707  	92.402612 
2647.345132  	92.408856 
2648.309556  	92.449585 
2649.273981  	92.456442 
2650.238405  	92.473761 
2651.202830  	92.492734 
2652.167254  	92.471393 
2653.131678  	92.463815 
2654.096103  	92.443472 
2655.060527  	92.433328 
2656.024952  	92.438020 
2656.989376  	92.431765 
2657.953801  	92.445442 
2658.918225  	92.462755 
2659.882650  	92.485521 
2660.847074  	92.482561 
2661.811499  	92.498757 
2662.775923  	92.517678 
2663.740347  	92.549638 
2664.704772  	92.571871 
2665.669196  	92.584563 
2666.633621  	92.570939 
2667.598045  	92.543843 
2668.562470  	92.532965 
2669.526894  	92.530678 
2670.491319  	92.528915 
2671.455743  	92.565501 
2672.420168  	92.563670 
2673.384592  	92.543321 
2674.349016  	92.534006 
2675.313441  	92.536263 
2676.277865  	92.560664 
2677.242290  	92.576265 
2678.206714  	92.553301 
2679.171139  	92.525870 
2680.135563  	92.516997 
2681.099988  	92.535515 
2682.064412  	92.552309 
2683.028837  	92.551353 
2683.993261  	92.550700 
2684.957686  	92.550737 
2685.922110  	92.562311 
2686.886534  	92.560262 
2687.850959  	92.547019 
2688.815383  	92.569686 
2689.779808  	92.552264 
2690.744232  	92.526233 
2691.708657  	92.531361 
2692.673081  	92.542112 
2693.637506  	92.543105 
2694.601930  	92.561270 
2695.566355  	92.580202 
2696.530779  	92.570645 
2697.495203  	92.554250 
2698.459628  	92.556519 
2699.424052  	92.558639 
2700.388477  	92.520765 
2701.352901  	92.497361 
2702.317326  	92.492021 
2703.281750  	92.513527 
2704.246175  	92.537385 
2705.210599  	92.524989 
2706.175024  	92.530428 
2707.139448  	92.511783 
2708.103872  	92.507261 
2709.068297  	92.528889 
2710.032721  	92.514138 
2710.997146  	92.496478 
2711.961570  	92.494903 
2712.925995  	92.525225 
2713.890419  	92.548739 
2714.854844  	92.525597 
2715.819268  	92.503786 
2716.783693  	92.493594 
2717.748117  	92.496333 
2718.712541  	92.489419 
2719.676966  	92.493366 
2720.641390  	92.504231 
2721.605815  	92.520134 
2722.570239  	92.507819 
2723.534664  	92.508055 
2724.499088  	92.504259 
2725.463513  	92.469545 
2726.427937  	92.461144 
2727.392362  	92.470843 
2728.356786  	92.458962 
2729.321210  	92.461070 
2730.285635  	92.460232 
2731.250059  	92.447532 
2732.214484  	92.446805 
2733.178908  	92.437478 
2734.143333  	92.434647 
2735.107757  	92.438708 
2736.072182  	92.449789 
2737.036606  	92.474544 
2738.001031  	92.447405 
2738.965455  	92.417907 
2739.929879  	92.409938 
2740.894304  	92.422511 
2741.858728  	92.449078 
2742.823153  	92.454547 
2743.787577  	92.444335 
2744.752002  	92.444374 
2745.716426  	92.416363 
2746.680851  	92.380590 
2747.645275  	92.368687 
2748.609700  	92.377293 
2749.574124  	92.393629 
2750.538549  	92.407507 
2751.502973  	92.382970 
2752.467397  	92.384512 
2753.431822  	92.397110 
2754.396246  	92.401572 
2755.360671  	92.405318 
2756.325095  	92.411008 
2757.289520  	92.391925 
2758.253944  	92.385773 
2759.218369  	92.385353 
2760.182793  	92.391009 
2761.147218  	92.387619 
2762.111642  	92.370971 
2763.076066  	92.387030 
2764.040491  	92.426829 
2765.004915  	92.420088 
2765.969340  	92.389689 
2766.933764  	92.380598 
2767.898189  	92.376020 
2768.862613  	92.374106 
2769.827038  	92.371318 
2770.791462  	92.379410 
2771.755887  	92.370055 
2772.720311  	92.355360 
2773.684735  	92.364719 
2774.649160  	92.359017 
2775.613584  	92.346064 
2776.578009  	92.358532 
2777.542433  	92.359919 
2778.506858  	92.340651 
2779.471282  	92.339983 
2780.435707  	92.307327 
2781.400131  	92.284029 
2782.364556  	92.300185 
2783.328980  	92.322407 
2784.293404  	92.329668 
2785.257829  	92.335642 
2786.222253  	92.337400 
2787.186678  	92.322377 
2788.151102  	92.286650 
2789.115527  	92.313079 
2790.079951  	92.329901 
2791.044376  	92.319198 
2792.008800  	92.304522 
2792.973225  	92.272999 
2793.937649  	92.260662 
2794.902073  	92.263644 
2795.866498  	92.260669 
2796.830922  	92.266389 
2797.795347  	92.265571 
2798.759771  	92.264259 
2799.724196  	92.243284 
2800.688620  	92.203767 
2801.653045  	92.201275 
2802.617469  	92.208771 
2803.581894  	92.229032 
2804.546318  	92.265770 
2805.510743  	92.270958 
2806.475167  	92.225232 
2807.439591  	92.186655 
2808.404016  	92.182081 
2809.368440  	92.190457 
2810.332865  	92.209321 
2811.297289  	92.182410 
2812.261714  	92.173822 
2813.226138  	92.194381 
2814.190563  	92.176777 
2815.154987  	92.194622 
2816.119412  	92.213820 
2817.083836  	92.201686 
2818.048260  	92.204166 
2819.012685  	92.216497 
2819.977109  	92.244316 
2820.941534  	92.239080 
2821.905958  	92.256303 
2822.870383  	92.239394 
2823.834807  	92.223062 
2824.799232  	92.205256 
2825.763656  	92.182144 
2826.728081  	92.157203 
2827.692505  	92.144873 
2828.656929  	92.164351 
2829.621354  	92.205586 
2830.585778  	92.200474 
2831.550203  	92.181916 
2832.514627  	92.157412 
2833.479052  	92.148863 
2834.443476  	92.167026 
2835.407901  	92.181235 
2836.372325  	92.174919 
2837.336750  	92.171160 
2838.301174  	92.115646 
2839.265598  	92.064937 
2840.230023  	92.068025 
2841.194447  	92.081512 
2842.158872  	92.056928 
2843.123296  	92.037264 
2844.087721  	92.044768 
2845.052145  	92.023401 
2846.016570  	91.973912 
2846.980994  	91.940533 
2847.945419  	91.943285 
2848.909843  	91.933197 
2849.874267  	91.888619 
2850.838692  	91.873186 
2851.803116  	91.844480 
2852.767541  	91.830857 
2853.731965  	91.819219 
2854.696390  	91.798779 
2855.660814  	91.842083 
2856.625239  	91.873523 
2857.589663  	91.845493 
2858.554088  	91.826107 
2859.518512  	91.827630 
2860.482936  	91.823640 
2861.447361  	91.798311 
2862.411785  	91.799379 
2863.376210  	91.816979 
2864.340634  	91.791585 
2865.305059  	91.769308 
2866.269483  	91.799379 
2867.233908  	91.806395 
2868.198332  	91.777422 
2869.162757  	91.759171 
2870.127181  	91.757970 
2871.091606  	91.742086 
2872.056030  	91.757378 
2873.020454  	91.757075 
2873.984879  	91.733890 
2874.949303  	91.699393 
2875.913728  	91.688256 
2876.878152  	91.691946 
2877.842577  	91.690113 
2878.807001  	91.700920 
2879.771426  	91.691043 
2880.735850  	91.620583 
2881.700275  	91.609500 
2882.664699  	91.604374 
2883.629123  	91.558276 
2884.593548  	91.552739 
2885.557972  	91.572402 
2886.522397  	91.528613 
2887.486821  	91.538459 
2888.451246  	91.547339 
2889.415670  	91.527715 
2890.380095  	91.517049 
2891.344519  	91.507407 
2892.308944  	91.477468 
2893.273368  	91.433904 
2894.237792  	91.459076 
2895.202217  	91.455741 
2896.166641  	91.423198 
2897.131066  	91.399960 
2898.095490  	91.404604 
2899.059915  	91.388157 
2900.024339  	91.310462 
2900.988764  	91.248339 
2901.953188  	91.211441 
2902.917613  	91.171009 
2903.882037  	91.104845 
2904.846461  	91.050208 
2905.810886  	90.999175 
2906.775310  	90.965530 
2907.739735  	90.944958 
2908.704159  	90.904535 
2909.668584  	90.914867 
2910.633008  	90.974693 
2911.597433  	91.028141 
2912.561857  	91.095334 
2913.526282  	91.173094 
2914.490706  	91.212969 
2915.455130  	91.229770 
2916.419555  	91.292122 
2917.383979  	91.355448 
2918.348404  	91.388823 
2919.312828  	91.441354 
2920.277253  	91.482727 
2921.241677  	91.470267 
2922.206102  	91.501156 
2923.170526  	91.550076 
2924.134951  	91.583710 
2925.099375  	91.558817 
2926.063800  	91.529825 
2927.028224  	91.562773 
2927.992648  	91.601990 
2928.957073  	91.623523 
2929.921497  	91.595816 
2930.885922  	91.574523 
2931.850346  	91.581291 
2932.814771  	91.569729 
2933.779195  	91.543071 
2934.743620  	91.533090 
2935.708044  	91.532586 
2936.672469  	91.527734 
2937.636893  	91.512055 
2938.601317  	91.471302 
2939.565742  	91.461395 
2940.530166  	91.472864 
2941.494591  	91.421681 
2942.459015  	91.335202 
2943.423440  	91.264742 
2944.387864  	91.188215 
2945.352289  	91.100673 
2946.316713  	91.070029 
2947.281138  	91.046271 
2948.245562  	91.023772 
2949.209986  	90.955017 
2950.174411  	90.847617 
2951.138835  	90.837148 
2952.103260  	90.787446 
2953.067684  	90.707064 
2954.032109  	90.621401 
2954.996533  	90.576134 
2955.960958  	90.507216 
2956.925382  	90.408506 
2957.889807  	90.356424 
2958.854231  	90.325615 
2959.818655  	90.283243 
2960.783080  	90.235678 
2961.747504  	90.155451 
2962.711929  	90.120951 
2963.676353  	90.045937 
2964.640778  	89.966902 
2965.605202  	89.915852 
2966.569627  	89.828538 
2967.534051  	89.852832 
2968.498476  	89.915243 
2969.462900  	89.904008 
2970.427324  	89.896296 
2971.391749  	89.887894 
2972.356173  	89.929790 
2973.320598  	90.017249 
2974.285022  	90.111520 
2975.249447  	90.153372 
2976.213871  	90.244498 
2977.178296  	90.340468 
2978.142720  	90.363243 
2979.107145  	90.411834 
2980.071569  	90.535370 
2981.035993  	90.607195 
2982.000418  	90.701000 
2982.964842  	90.784226 
2983.929267  	90.810744 
2984.893691  	90.892426 
2985.858116  	90.956342 
2986.822540  	91.023494 
2987.786965  	91.074808 
2988.751389  	91.127578 
2989.715814  	91.199273 
2990.680238  	91.250969 
2991.644663  	91.247875 
2992.609087  	91.239523 
2993.573511  	91.270413 
2994.537936  	91.279786 
2995.502360  	91.325485 
2996.466785  	91.364430 
2997.431209  	91.398554 
2998.395634  	91.430077 
2999.360058  	91.405745 
3000.324483  	91.387813 
3001.288907  	91.428072 
3002.253332  	91.426641 
3003.217756  	91.422781 
3004.182180  	91.402152 
3005.146605  	91.408021 
3006.111029  	91.486527 
3007.075454  	91.543462 
3008.039878  	91.534941 
3009.004303  	91.562032 
3009.968727  	91.577671 
3010.933152  	91.573141 
3011.897576  	91.552112 
3012.862001  	91.491686 
3013.826425  	91.560521 
3014.790849  	91.663224 
3015.755274  	91.655439 
3016.719698  	91.677842 
3017.684123  	91.767294 
3018.648547  	91.808903 
3019.612972  	91.805049 
3020.577396  	91.856938 
3021.541821  	91.923789 
3022.506245  	91.953930 
3023.470670  	91.971298 
3024.435094  	92.001672 
3025.399518  	91.985839 
3026.363943  	92.012499 
3027.328367  	92.096591 
3028.292792  	92.137332 
3029.257216  	92.152546 
3030.221641  	92.127993 
3031.186065  	92.017087 
3032.150490  	91.938064 
3033.114914  	92.010531 
3034.079339  	92.008969 
3035.043763  	92.008173 
3036.008187  	92.062490 
3036.972612  	92.086791 
3037.937036  	92.066499 
3038.901461  	92.097270 
3039.865885  	92.130898 
3040.830310  	92.122384 
3041.794734  	92.106791 
3042.759159  	92.084088 
3043.723583  	92.078601 
3044.688008  	92.040985 
3045.652432  	92.015367 
3046.616857  	91.976524 
3047.581281  	91.924194 
3048.545705  	91.858747 
3049.510130  	91.825414 
3050.474554  	91.805802 
3051.438979  	91.769589 
3052.403403  	91.772884 
3053.367828  	91.781471 
3054.332252  	91.731641 
3055.296677  	91.713055 
3056.261101  	91.643738 
3057.225526  	91.637033 
3058.189950  	91.735176 
3059.154374  	91.783026 
3060.118799  	91.803477 
3061.083223  	91.832115 
3062.047648  	91.855687 
3063.012072  	91.835154 
3063.976497  	91.762552 
3064.940921  	91.695451 
3065.905346  	91.738960 
3066.869770  	91.726355 
3067.834195  	91.718470 
3068.798619  	91.753023 
3069.763043  	91.783566 
3070.727468  	91.822986 
3071.691892  	91.850688 
3072.656317  	91.826176 
3073.620741  	91.783184 
3074.585166  	91.831008 
3075.549590  	91.870869 
3076.514015  	91.844193 
3077.478439  	91.836113 
3078.442864  	91.839645 
3079.407288  	91.785792 
3080.371712  	91.808484 
3081.336137  	91.888186 
3082.300561  	91.855063 
3083.264986  	91.863780 
3084.229410  	91.956710 
3085.193835  	91.954503 
3086.158259  	91.938764 
3087.122684  	91.946135 
3088.087108  	91.938155 
3089.051533  	91.957924 
3090.015957  	91.974093 
3090.980381  	92.004810 
3091.944806  	92.052091 
3092.909230  	92.058059 
3093.873655  	92.040534 
3094.838079  	92.048060 
3095.802504  	92.036983 
3096.766928  	92.017275 
3097.731353  	92.022049 
3098.695777  	92.011846 
3099.660202  	92.001586 
3100.624626  	91.948712 
3101.589050  	91.864844 
3102.553475  	91.838117 
3103.517899  	91.864883 
3104.482324  	91.948086 
3105.446748  	91.947032 
3106.411173  	91.920653 
3107.375597  	91.947506 
3108.340022  	91.973372 
3109.304446  	91.982768 
3110.268871  	91.974309 
3111.233295  	91.986438 
3112.197720  	91.979136 
3113.162144  	92.015300 
3114.126568  	92.054758 
3115.090993  	92.003788 
3116.055417  	91.990225 
3117.019842  	92.049809 
3117.984266  	92.053338 
3118.948691  	92.007462 
3119.913115  	92.108381 
3120.877540  	92.184204 
3121.841964  	92.082183 
3122.806389  	92.002494 
3123.770813  	92.061626 
3124.735237  	92.074332 
3125.699662  	92.076646 
3126.664086  	92.076162 
3127.628511  	92.125017 
3128.592935  	92.149366 
3129.557360  	92.112534 
3130.521784  	92.134344 
3131.486209  	92.142088 
3132.450633  	92.051759 
3133.415058  	91.995059 
3134.379482  	92.149171 
3135.343906  	92.227941 
3136.308331  	92.199404 
3137.272755  	92.143375 
3138.237180  	92.144161 
3139.201604  	92.161866 
3140.166029  	92.214371 
3141.130453  	92.280597 
3142.094878  	92.242598 
3143.059302  	92.182363 
3144.023727  	92.204050 
3144.988151  	92.244244 
3145.952575  	92.216957 
3146.917000  	92.177933 
3147.881424  	92.219977 
3148.845849  	92.288145 
3149.810273  	92.297668 
3150.774698  	92.270143 
3151.739122  	92.274598 
3152.703547  	92.250338 
3153.667971  	92.231764 
3154.632396  	92.260600 
3155.596820  	92.280772 
3156.561244  	92.245154 
3157.525669  	92.241254 
3158.490093  	92.232027 
3159.454518  	92.227629 
3160.418942  	92.252214 
3161.383367  	92.277895 
3162.347791  	92.237763 
3163.312216  	92.178185 
3164.276640  	92.195717 
3165.241065  	92.310250 
3166.205489  	92.359761 
3167.169914  	92.329899 
3168.134338  	92.288472 
3169.098762  	92.243585 
3170.063187  	92.189055 
3171.027611  	92.190878 
3171.992036  	92.246344 
3172.956460  	92.245877 
3173.920885  	92.196628 
3174.885309  	92.191851 
3175.849734  	92.212529 
3176.814158  	92.215844 
3177.778583  	92.146377 
3178.743007  	92.099989 
3179.707431  	92.174452 
3180.671856  	92.225984 
3181.636280  	92.227721 
3182.600705  	92.239772 
3183.565129  	92.209020 
3184.529554  	92.170786 
3185.493978  	92.155140 
3186.458403  	92.206367 
3187.422827  	92.222442 
3188.387252  	92.193527 
3189.351676  	92.240403 
3190.316100  	92.227753 
3191.280525  	92.238353 
3192.244949  	92.290949 
3193.209374  	92.277984 
3194.173798  	92.251199 
3195.138223  	92.265159 
3196.102647  	92.195286 
3197.067072  	92.102532 
3198.031496  	92.080060 
3198.995921  	92.177267 
3199.960345  	92.257920 
3200.924769  	92.262763 
3201.889194  	92.286417 
3202.853618  	92.301394 
3203.818043  	92.268282 
3204.782467  	92.235070 
3205.746892  	92.248519 
3206.711316  	92.184658 
3207.675741  	92.152504 
3208.640165  	92.183720 
3209.604590  	92.173088 
3210.569014  	92.214211 
3211.533438  	92.271642 
3212.497863  	92.233915 
3213.462287  	92.187899 
3214.426712  	92.090173 
3215.391136  	92.065184 
3216.355561  	92.139017 
3217.319985  	92.172829 
3218.284410  	92.135397 
3219.248834  	92.096397 
3220.213259  	92.162111 
3221.177683  	92.236603 
3222.142107  	92.216865 
3223.106532  	92.208304 
3224.070956  	92.222801 
3225.035381  	92.212230 
3225.999805  	92.224566 
3226.964230  	92.206853 
3227.928654  	92.169344 
3228.893079  	92.226918 
3229.857503  	92.235591 
3230.821928  	92.192932 
3231.786352  	92.197396 
3232.750777  	92.169727 
3233.715201  	92.110637 
3234.679625  	92.089747 
3235.644050  	92.166204 
3236.608474  	92.233856 
3237.572899  	92.222408 
3238.537323  	92.238737 
3239.501748  	92.187602 
3240.466172  	92.116549 
3241.430597  	92.182098 
3242.395021  	92.222938 
3243.359446  	92.172125 
3244.323870  	92.098686 
3245.288294  	92.039931 
3246.252719  	92.080516 
3247.217143  	92.170241 
3248.181568  	92.197198 
3249.145992  	92.127671 
3250.110417  	92.138737 
3251.074841  	92.194759 
3252.039266  	92.195237 
3253.003690  	92.174381 
3253.968115  	92.133671 
3254.932539  	92.121856 
3255.896963  	92.120298 
3256.861388  	92.088695 
3257.825812  	92.158934 
3258.790237  	92.163278 
3259.754661  	92.160421 
3260.719086  	92.157157 
3261.683510  	92.167090 
3262.647935  	92.185265 
3263.612359  	92.183047 
3264.576784  	92.184586 
3265.541208  	92.171757 
3266.505632  	92.197038 
3267.470057  	92.244175 
3268.434481  	92.215723 
3269.398906  	92.173482 
3270.363330  	92.162472 
3271.327755  	92.172122 
3272.292179  	92.155775 
3273.256604  	92.098380 
3274.221028  	92.056525 
3275.185453  	92.166751 
3276.149877  	92.147476 
3277.114301  	92.099453 
3278.078726  	92.143260 
3279.043150  	92.098858 
3280.007575  	92.076084 
3280.971999  	92.107120 
3281.936424  	92.114028 
3282.900848  	92.094524 
3283.865273  	92.042715 
3284.829697  	92.073061 
3285.794122  	92.120243 
3286.758546  	92.113482 
3287.722971  	92.069680 
3288.687395  	92.046608 
3289.651819  	92.103335 
3290.616244  	92.110087 
3291.580668  	92.044958 
3292.545093  	92.046369 
3293.509517  	92.111277 
3294.473942  	92.130921 
3295.438366  	92.069115 
3296.402791  	92.048536 
3297.367215  	92.058940 
3298.331640  	92.060410 
3299.296064  	92.093654 
3300.260488  	92.088055 
3301.224913  	92.071068 
3302.189337  	92.118417 
3303.153762  	92.165313 
3304.118186  	92.158082 
3305.082611  	92.093503 
3306.047035  	92.128131 
3307.011460  	92.211494 
3307.975884  	92.170204 
3308.940309  	92.048244 
3309.904733  	92.041614 
3310.869157  	92.073718 
3311.833582  	92.100041 
3312.798006  	92.076482 
3313.762431  	92.066235 
3314.726855  	92.155866 
3315.691280  	92.182907 
3316.655704  	92.153237 
3317.620129  	92.142868 
3318.584553  	92.118091 
3319.548978  	92.067468 
3320.513402  	92.064848 
3321.477826  	92.066443 
3322.442251  	92.079867 
3323.406675  	92.146717 
3324.371100  	92.180683 
3325.335524  	92.094195 
3326.299949  	92.058008 
3327.264373  	92.013175 
3328.228798  	91.996582 
3329.193222  	92.024876 
3330.157647  	92.011801 
3331.122071  	92.036837 
3332.086495  	92.122704 
3333.050920  	92.077784 
3334.015344  	92.003573 
3334.979769  	91.987318 
3335.944193  	92.012461 
3336.908618  	91.979067 
3337.873042  	91.994776 
3338.837467  	92.071940 
3339.801891  	92.093624 
3340.766316  	92.099566 
3341.730740  	92.018750 
3342.695164  	91.957064 
3343.659589  	92.067280 
3344.624013  	92.221627 
3345.588438  	92.250165 
3346.552862  	92.225381 
3347.517287  	92.166559 
3348.481711  	92.113444 
3349.446136  	92.190443 
3350.410560  	92.253444 
3351.374985  	92.215754 
3352.339409  	92.211872 
3353.303834  	92.190413 
3354.268258  	92.161186 
3355.232682  	92.108116 
3356.197107  	92.013888 
3357.161531  	92.066996 
3358.125956  	92.132478 
3359.090380  	92.094071 
3360.054805  	91.996237 
3361.019229  	92.013173 
3361.983654  	92.014291 
3362.948078  	92.063410 
3363.912503  	92.107106 
3364.876927  	92.077020 
3365.841351  	92.068570 
3366.805776  	92.062901 
3367.770200  	92.010017 
3368.734625  	92.025863 
3369.699049  	92.118750 
3370.663474  	92.209773 
3371.627898  	92.241047 
3372.592323  	92.194046 
3373.556747  	92.157493 
3374.521172  	92.179782 
3375.485596  	92.186366 
3376.450020  	92.145111 
3377.414445  	92.117156 
3378.378869  	92.117532 
3379.343294  	92.171645 
3380.307718  	92.162313 
3381.272143  	92.137507 
3382.236567  	92.113237 
3383.200992  	92.105335 
3384.165416  	92.050824 
3385.129841  	92.033493 
3386.094265  	92.048662 
3387.058689  	92.059180 
3388.023114  	92.158661 
3388.987538  	92.208025 
3389.951963  	92.121936 
3390.916387  	92.072018 
3391.880812  	92.009768 
3392.845236  	91.830663 
3393.809661  	91.845389 
3394.774085  	92.032642 
3395.738510  	92.124906 
3396.702934  	92.097229 
3397.667358  	91.980585 
3398.631783  	92.086022 
3399.596207  	92.212213 
3400.560632  	92.145873 
3401.525056  	92.073116 
3402.489481  	92.056615 
3403.453905  	91.985378 
3404.418330  	92.006905 
3405.382754  	91.998187 
3406.347179  	91.993539 
3407.311603  	91.982837 
3408.276028  	91.960897 
3409.240452  	91.914326 
3410.204876  	91.823093 
3411.169301  	91.851700 
3412.133725  	91.965109 
3413.098150  	91.958548 
3414.062574  	91.921833 
3415.026999  	91.887095 
3415.991423  	91.811285 
3416.955848  	91.832973 
3417.920272  	91.858130 
3418.884697  	91.816189 
3419.849121  	91.573748 
3420.813545  	91.261203 
3421.777970  	91.248049 
3422.742394  	91.307309 
3423.706819  	91.447817 
3424.671243  	91.564092 
3425.635668  	91.559163 
3426.600092  	91.554740 
3427.564517  	91.585376 
3428.528941  	91.602529 
3429.493366  	91.646366 
3430.457790  	91.581064 
3431.422214  	91.463912 
3432.386639  	91.491821 
3433.351063  	91.629110 
3434.315488  	91.715371 
3435.279912  	91.676181 
3436.244337  	91.668351 
3437.208761  	91.703901 
3438.173186  	91.677171 
3439.137610  	91.611968 
3440.102035  	91.660824 
3441.066459  	91.707470 
3442.030883  	91.607056 
3442.995308  	91.433459 
3443.959732  	91.586692 
3444.924157  	91.672642 
3445.888581  	91.628868 
3446.853006  	91.254289 
3447.817430  	90.910651 
3448.781855  	91.455540 
3449.746279  	91.791012 
3450.710704  	91.832456 
3451.675128  	91.846357 
3452.639552  	91.881981 
3453.603977  	91.869944 
3454.568401  	91.864056 
3455.532826  	91.855392 
3456.497250  	91.838776 
3457.461675  	91.785571 
3458.426099  	91.776897 
3459.390524  	91.831902 
3460.354948  	91.877672 
3461.319373  	91.784833 
3462.283797  	91.716188 
3463.248221  	91.692727 
3464.212646  	91.862125 
3465.177070  	91.937737 
3466.141495  	91.893587 
3467.105919  	91.685127 
3468.070344  	91.806463 
3469.034768  	92.026247 
3469.999193  	91.987818 
3470.963617  	91.931512 
3471.928042  	91.979589 
3472.892466  	92.004825 
3473.856891  	91.968250 
3474.821315  	91.884795 
3475.785739  	91.940753 
3476.750164  	92.055705 
3477.714588  	92.065163 
3478.679013  	92.017413 
3479.643437  	91.959369 
3480.607862  	91.751197 
3481.572286  	91.625378 
3482.536711  	91.519814 
3483.501135  	91.774358 
3484.465560  	91.984682 
3485.429984  	91.898031 
3486.394408  	91.908533 
3487.358833  	91.907654 
3488.323257  	91.716125 
3489.287682  	91.831215 
3490.252106  	92.018086 
3491.216531  	91.973643 
3492.180955  	92.042337 
3493.145380  	92.082084 
3494.109804  	92.077835 
3495.074229  	91.928147 
3496.038653  	91.702708 
3497.003077  	91.636597 
3497.967502  	91.841230 
3498.931926  	91.983474 
3499.896351  	91.905810 
3500.860775  	91.860704 
3501.825200  	91.597612 
3502.789624  	91.184431 
3503.754049  	91.060440 
3504.718473  	91.328984 
3505.682898  	91.614988 
3506.647322  	91.902225 
3507.611746  	92.063432 
3508.576171  	91.838525 
3509.540595  	91.195130 
3510.505020  	91.281119 
3511.469444  	91.704736 
3512.433869  	91.782928 
3513.398293  	91.832605 
3514.362718  	91.972692 
3515.327142  	92.080682 
3516.291567  	92.059169 
3517.255991  	91.895885 
3518.220415  	91.783241 
3519.184840  	91.762189 
3520.149264  	91.869328 
3521.113689  	91.951848 
3522.078113  	91.739658 
3523.042538  	91.036597 
3524.006962  	90.719834 
3524.971387  	91.047669 
3525.935811  	91.215138 
3526.900236  	91.178174 
3527.864660  	91.025602 
3528.829085  	91.099615 
3529.793509  	91.252024 
3530.757933  	91.526168 
3531.722358  	91.591835 
3532.686782  	91.813438 
3533.651207  	91.956325 
3534.615631  	91.920298 
3535.580056  	91.712720 
3536.544480  	91.157150 
3537.508905  	91.241400 
3538.473329  	91.751109 
3539.437754  	91.811982 
3540.402178  	91.818627 
3541.366602  	91.860765 
3542.331027  	91.901698 
3543.295451  	91.608415 
3544.259876  	91.176685 
3545.224300  	90.411717 
3546.188725  	90.193668 
3547.153149  	90.327361 
3548.117574  	90.787452 
3549.081998  	91.458523 
3550.046423  	91.633266 
3551.010847  	91.563213 
3551.975271  	91.106253 
3552.939696  	90.838420 
3553.904120  	91.116897 
3554.868545  	91.512408 
3555.832969  	91.886221 
3556.797394  	91.841369 
3557.761818  	91.817474 
3558.726243  	91.908978 
3559.690667  	91.538687 
3560.655092  	91.096324 
3561.619516  	91.475703 
3562.583940  	91.478834 
3563.548365  	91.325932 
3564.512789  	91.254073 
3565.477214  	90.541298 
3566.441638  	88.561945 
3567.406063  	88.424027 
3568.370487  	88.776360 
3569.334912  	90.057103 
3570.299336  	91.184044 
3571.263761  	91.400552 
3572.228185  	91.737456 
3573.192609  	91.761576 
3574.157034  	91.642662 
3575.121458  	91.600379 
3576.085883  	91.726771 
3577.050307  	91.646797 
3578.014732  	91.602012 
3578.979156  	91.658878 
3579.943581  	91.343697 
3580.908005  	91.274232 
3581.872430  	91.658149 
3582.836854  	91.761802 
3583.801278  	91.682464 
3584.765703  	91.720854 
3585.730127  	91.342320 
3586.694552  	89.799849 
3587.658976  	88.840191 
3588.623401  	89.142950 
3589.587825  	90.101301 
3590.552250  	91.346613 
3591.516674  	91.702558 
3592.481099  	91.612206 
3593.445523  	90.995697 
3594.409948  	91.013434 
3595.374372  	90.634481 
3596.338796  	90.503783 
3597.303221  	91.351667 
3598.267645  	91.379917 
3599.232070  	91.016854 
3600.196494  	91.030148 
3601.160919  	90.713214 
3602.125343  	91.022204 
3603.089768  	91.367654 
3604.054192  	91.668723 
3605.018617  	91.869740 
3605.983041  	91.695248 
3606.947465  	90.665123 
3607.911890  	90.094499 
3608.876314  	90.368385 
3609.840739  	90.078293 
3610.805163  	90.962347 
3611.769588  	91.046153 
3612.734012  	89.883425 
3613.698437  	89.973021 
3614.662861  	90.227235 
3615.627286  	90.244545 
3616.591710  	91.135794 
3617.556134  	90.644638 
3618.520559  	89.873846 
3619.484983  	89.841636 
3620.449408  	89.773787 
3621.413832  	90.419085 
3622.378257  	91.108705 
3623.342681  	91.492484 
3624.307106  	91.643592 
3625.271530  	91.614951 
3626.235955  	91.186930 
3627.200379  	90.965258 
3628.164803  	90.159181 
3629.129228  	87.620280 
3630.093652  	88.156825 
3631.058077  	90.348942 
3632.022501  	91.224536 
3632.986926  	91.350694 
3633.951350  	90.748152 
3634.915775  	90.994927 
3635.880199  	91.638619 
3636.844624  	91.738699 
3637.809048  	91.563312 
3638.773472  	91.506477 
3639.737897  	91.759319 
3640.702321  	91.790717 
3641.666746  	91.568780 
3642.631170  	91.186784 
3643.595595  	91.420754 
3644.560019  	91.742259 
3645.524444  	91.448081 
3646.488868  	90.489021 
3647.453293  	88.827564 
3648.417717  	88.955449 
3649.382142  	88.833369 
3650.346566  	88.010529 
3651.310990  	88.143910 
3652.275415  	90.073467 
3653.239839  	91.378405 
3654.204264  	91.732218 
3655.168688  	91.636838 
3656.133113  	90.810877 
3657.097537  	90.520071 
3658.061962  	91.575659 
3659.026386  	91.864809 
3659.990811  	91.732816 
3660.955235  	91.859597 
3661.919659  	92.070531 
3662.884084  	92.057750 
3663.848508  	92.071768 
3664.812933  	92.048048 
3665.777357  	92.074867 
3666.741782  	92.169513 
3667.706206  	92.096475 
3668.670631  	91.173653 
3669.635055  	90.052170 
3670.599480  	89.471153 
3671.563904  	89.845448 
3672.528328  	91.375748 
3673.492753  	91.725999 
3674.457177  	90.685725 
3675.421602  	87.849361 
3676.386026  	88.044496 
3677.350451  	90.072162 
3678.314875  	90.859805 
3679.279300  	90.868552 
3680.243724  	90.926242 
3681.208149  	91.740308 
3682.172573  	92.135830 
3683.136997  	92.139156 
3684.101422  	92.011192 
3685.065846  	91.928209 
3686.030271  	92.060429 
3686.994695  	91.904791 
3687.959120  	91.174808 
3688.923544  	90.152153 
3689.887969  	90.629130 
3690.852393  	90.140197 
3691.816818  	89.878573 
3692.781242  	91.396958 
3693.745666  	91.890688 
3694.710091  	91.973833 
3695.674515  	92.043458 
3696.638940  	91.894645 
3697.603364  	92.000301 
3698.567789  	92.249114 
3699.532213  	92.190147 
3700.496638  	92.137548 
3701.461062  	91.491671 
3702.425487  	90.947924 
3703.389911  	91.774216 
3704.354335  	92.201773 
3705.318760  	92.116991 
3706.283184  	92.078844 
3707.247609  	92.189358 
3708.212033  	92.161643 
3709.176458  	91.559135 
3710.140882  	90.884957 
3711.105307  	90.671469 
3712.069731  	89.724175 
3713.034156  	89.677419 
3713.998580  	91.091187 
3714.963005  	91.253624 
3715.927429  	91.529627 
3716.891853  	92.100533 
3717.856278  	92.178035 
3718.820702  	91.592402 
3719.785127  	91.302714 
3720.749551  	91.832668 
3721.713976  	91.490355 
3722.678400  	90.291439 
3723.642825  	90.847236 
3724.607249  	91.207335 
3725.571674  	90.508890 
3726.536098  	90.278596 
3727.500522  	90.520335 
3728.464947  	91.425049 
3729.429371  	91.982147 
3730.393796  	91.923218 
3731.358220  	91.600791 
3732.322645  	90.851224 
3733.287069  	90.828442 
3734.251494  	90.329319 
3735.215918  	87.517110 
3736.180343  	87.757792 
3737.144767  	89.298671 
3738.109191  	90.233958 
3739.073616  	90.721286 
3740.038040  	91.289153 
3741.002465  	90.970543 
3741.966889  	91.083600 
3742.931314  	91.591564 
3743.895738  	90.706893 
3744.860163  	87.486194 
3745.824587  	89.415562 
3746.789012  	90.607662 
3747.753436  	90.718471 
3748.717860  	90.621526 
3749.682285  	90.095686 
3750.646709  	89.838679 
3751.611134  	89.591217 
3752.575558  	88.431648 
3753.539983  	89.972067 
3754.504407  	91.056657 
3755.468832  	91.572688 
3756.433256  	91.359666 
3757.397681  	91.334068 
3758.362105  	91.564123 
3759.326529  	90.718716 
3760.290954  	90.162867 
3761.255378  	91.482179 
3762.219803  	91.940143 
3763.184227  	92.023162 
3764.148652  	92.037031 
3765.113076  	91.658580 
3766.077501  	90.823783 
3767.041925  	91.446714 
3768.006350  	92.050973 
3768.970774  	91.817258 
3769.935199  	90.897643 
3770.899623  	90.989982 
3771.864047  	91.745973 
3772.828472  	92.036259 
3773.792896  	92.168173 
3774.757321  	92.300532 
3775.721745  	92.389744 
3776.686170  	92.469594 
3777.650594  	92.345311 
3778.615019  	91.912375 
3779.579443  	91.152254 
3780.543868  	91.277372 
3781.508292  	92.067339 
3782.472716  	92.158223 
3783.437141  	92.218708 
3784.401565  	91.947908 
3785.365990  	91.459883 
3786.330414  	91.744914 
3787.294839  	92.092179 
3788.259263  	92.271185 
3789.223688  	92.299269 
3790.188112  	92.269208 
3791.152537  	92.318790 
3792.116961  	92.334361 
3793.081385  	92.396839 
3794.045810  	92.428783 
3795.010234  	92.299958 
3795.974659  	91.825511 
3796.939083  	91.063920 
3797.903508  	91.304785 
3798.867932  	91.837034 
3799.832357  	91.937113 
3800.796781  	91.035789 
3801.761206  	89.536136 
3802.725630  	89.980174 
3803.690054  	91.035364 
3804.654479  	91.882133 
3805.618903  	91.970137 
3806.583328  	91.359256 
3807.547752  	90.729108 
3808.512177  	91.651354 
3809.476601  	92.082789 
3810.441026  	92.105840 
3811.405450  	92.239425 
3812.369875  	92.383028 
3813.334299  	92.421789 
3814.298723  	92.295845 
3815.263148  	91.735984 
3816.227572  	90.357836 
3817.191997  	90.687603 
3818.156421  	91.643768 
3819.120846  	91.649802 
3820.085270  	91.015407 
3821.049695  	89.506409 
3822.014119  	89.301093 
3822.978544  	90.915696 
3823.942968  	91.517756 
3824.907392  	91.739047 
3825.871817  	91.722758 
3826.836241  	91.258028 
3827.800666  	91.341652 
3828.765090  	91.927971 
3829.729515  	92.182969 
3830.693939  	92.061212 
3831.658364  	91.337462 
3832.622788  	91.335067 
3833.587213  	91.947352 
3834.551637  	91.591459 
3835.516062  	90.980330 
3836.480486  	91.551234 
3837.444910  	91.235061 
3838.409335  	90.009313 
3839.373759  	90.417342 
3840.338184  	90.033089 
3841.302608  	90.055359 
3842.267033  	91.298803 
3843.231457  	91.407140 
3844.195882  	90.675384 
3845.160306  	91.418477 
3846.124731  	92.008842 
3847.089155  	92.182102 
3848.053579  	92.243368 
3849.018004  	92.061749 
3849.982428  	91.611105 
3850.946853  	91.601727 
3851.911277  	90.908607 
3852.875702  	89.289960 
3853.840126  	88.678240 
3854.804551  	88.822640 
3855.768975  	90.706166 
3856.733400  	90.975764 
3857.697824  	90.613455 
3858.662248  	91.565578 
3859.626673  	92.185978 
3860.591097  	92.169608 
3861.555522  	91.606223 
3862.519946  	91.034080 
3863.484371  	91.338838 
3864.448795  	90.660138 
3865.413220  	89.587076 
3866.377644  	90.934798 
3867.342069  	91.990928 
3868.306493  	91.953346 
3869.270917  	90.774995 
3870.235342  	88.864958 
3871.199766  	90.063368 
3872.164191  	91.306167 
3873.128615  	91.554100 
3874.093040  	90.335244 
3875.057464  	90.283293 
3876.021889  	91.841322 
3876.986313  	92.244140 
3877.950738  	92.304795 
3878.915162  	92.230940 
3879.879586  	91.334341 
3880.844011  	89.619346 
3881.808435  	90.744792 
3882.772860  	91.685155 
3883.737284  	91.423470 
3884.701709  	91.367226 
3885.666133  	90.626859 
3886.630558  	90.218202 
3887.594982  	91.674182 
3888.559407  	92.206367 
3889.523831  	92.216265 
3890.488256  	91.850210 
3891.452680  	90.736948 
3892.417104  	90.624557 
3893.381529  	91.519885 
3894.345953  	91.518147 
3895.310378  	91.807637 
3896.274802  	92.285891 
3897.239227  	92.305211 
3898.203651  	91.683376 
3899.168076  	90.705846 
3900.132500  	90.547635 
3901.096925  	91.318467 
3902.061349  	90.222889 
3903.025773  	90.054165 
3903.990198  	90.471323 
3904.954622  	90.010368 
3905.919047  	90.408182 
3906.883471  	91.170712 
3907.847896  	92.055004 
3908.812320  	92.337528 
3909.776745  	92.366380 
3910.741169  	92.358187 
3911.705594  	92.351535 
3912.670018  	92.372334 
3913.634442  	92.379422 
3914.598867  	92.412012 
3915.563291  	92.269972 
3916.527716  	91.428618 
3917.492140  	90.714001 
3918.456565  	91.520115 
3919.420989  	91.817774 
3920.385414  	91.192592 
3921.349838  	91.627383 
3922.314263  	92.273594 
3923.278687  	92.033688 
3924.243111  	91.287035 
3925.207536  	90.811782 
3926.171960  	91.478550 
3927.136385  	92.240105 
3928.100809  	92.256023 
3929.065234  	92.069097 
3930.029658  	91.812996 
3930.994083  	91.620114 
3931.958507  	91.245997 
3932.922932  	90.872708 
3933.887356  	91.554543 
3934.851780  	91.955629 
3935.816205  	92.230956 
3936.780629  	92.372475 
3937.745054  	92.287311 
3938.709478  	92.107919 
3939.673903  	92.274512 
3940.638327  	92.371013 
3941.602752  	92.224072 
3942.567176  	91.397859 
3943.531601  	90.919765 
3944.496025  	91.708924 
3945.460449  	92.191857 
3946.424874  	92.308560 
3947.389298  	91.736160 
3948.353723  	91.353790 
3949.318147  	91.596914 
3950.282572  	91.372850 
3951.246996  	91.723749 
3952.211421  	92.274226 
3953.175845  	92.200231 
3954.140270  	92.238958 
3955.104694  	92.373559 
3956.069119  	92.326512 
3957.033543  	92.145125 
3957.997967  	92.124257 
3958.962392  	92.224268 
3959.926816  	92.295279 
3960.891241  	92.244034 
3961.855665  	91.852093 
3962.820090  	91.809724 
3963.784514  	92.266378 
3964.748939  	92.322380 
3965.713363  	92.380404 
3966.677788  	92.440152 
3967.642212  	92.446088 
3968.606636  	92.338510 
3969.571061  	92.168170 
3970.535485  	92.254091 
3971.499910  	92.318543 
3972.464334  	92.139988 
3973.428759  	92.213393 
3974.393183  	92.313996 
3975.357608  	92.171785 
3976.322032  	92.018593 
3977.286457  	92.187613 
3978.250881  	92.443424 
3979.215305  	92.440702 
3980.179730  	92.365099 
3981.144154  	92.317772 
3982.108579  	92.271222 
3983.073003  	92.369871 
3984.037428  	92.501627 
3985.001852  	92.483236 
3985.966277  	92.438151 
3986.930701  	92.462110 
3987.895126  	92.471272 
3988.859550  	92.466428 
3989.823974  	92.357140 
3990.788399  	92.116596 
3991.752823  	92.203084 
3992.717248  	92.374427 
3993.681672  	92.336359 
3994.646097  	92.273012 
3995.610521  	92.240868 
3996.574946  	92.420567 
3997.539370  	92.491306 
3998.503795  	92.456137 
3999.468219  	92.442756 
4000.432643  	92.523340 
4001.397068  	92.521102 
4002.361492  	92.482933 
4003.325917  	92.459775 
4004.290341  	92.460546 
4005.254766  	92.457156 
4006.219190  	92.432077 
4007.183615  	92.430643 
4008.148039  	92.351539 
4009.112464  	92.219331 
4010.076888  	92.341329 
4011.041313  	92.412964 
4012.005737  	92.437853 
4012.970161  	92.437296 
4013.934586  	92.404521 
4014.899010  	92.371773 
4015.863435  	92.377889 
4016.827859  	92.412215 
4017.792284  	92.433676 
4018.756708  	92.420492 
4019.721133  	92.371339 
4020.685557  	92.377765 
4021.649982  	92.436809 
4022.614406  	92.475839 
4023.578830  	92.479480 
4024.543255  	92.433951 
4025.507679  	92.339423 
4026.472104  	92.338686 
4027.436528  	92.415240 
4028.400953  	92.433264 
4029.365377  	92.412202 
4030.329802  	92.416706 
4031.294226  	92.420131 
4032.258651  	92.404241 
4033.223075  	92.466028 
4034.187499  	92.489749 
4035.151924  	92.454148 
4036.116348  	92.453678 
4037.080773  	92.480322 
4038.045197  	92.482599 
4039.009622  	92.463201 
4039.974046  	92.457101 
4040.938471  	92.479724 
4041.902895  	92.489744 
4042.867320  	92.493499 
4043.831744  	92.400458 
4044.796168  	92.306431 
4045.760593  	92.306510 
4046.725017  	92.401577 
4047.689442  	92.415984 
4048.653866  	92.400688 
4049.618291  	92.410065 
4050.582715  	92.439239 
4051.547140  	92.441153 
4052.511564  	92.454983 
4053.475989  	92.439374 
4054.440413  	92.383533 
4055.404837  	92.391223 
4056.369262  	92.468332 
4057.333686  	92.516585 
4058.298111  	92.499559 
4059.262535  	92.463763 
4060.226960  	92.454294 
4061.191384  	92.434057 
4062.155809  	92.445149 
4063.120233  	92.452516 
4064.084658  	92.433950 
4065.049082  	92.445539 
4066.013506  	92.477339 
4066.977931  	92.458808 
4067.942355  	92.396434 
4068.906780  	92.373692 
4069.871204  	92.414034 
4070.835629  	92.440640 
4071.800053  	92.435833 
4072.764478  	92.401184 
4073.728902  	92.391253 
4074.693327  	92.367278 
4075.657751  	92.388398 
4076.622176  	92.399845 
4077.586600  	92.454598 
4078.551024  	92.467552 
4079.515449  	92.384167 
4080.479873  	92.402790 
4081.444298  	92.430684 
4082.408722  	92.380890 
4083.373147  	92.346880 
4084.337571  	92.326798 
4085.301996  	92.338640 
4086.266420  	92.357171 
4087.230845  	92.323716 
4088.195269  	92.306761 
4089.159693  	92.346963 
4090.124118  	92.380528 
4091.088542  	92.377926 
4092.052967  	92.345803 
4093.017391  	92.334842 
4093.981816  	92.332135 
4094.946240  	92.341589 
4095.910665  	92.382771 
4096.875089  	92.455796 
4097.839514  	92.424398 
4098.803938  	92.336454 
4099.768362  	92.362873 
4100.732787  	92.394638 
4101.697211  	92.391207 
4102.661636  	92.428857 
4103.626060  	92.440786 
4104.590485  	92.407971 
4105.554909  	92.381075 
4106.519334  	92.407538 
4107.483758  	92.390311 
4108.448183  	92.405309 
4109.412607  	92.449845 
4110.377031  	92.425148 
4111.341456  	92.444906 
4112.305880  	92.492392 
4113.270305  	92.467143 
4114.234729  	92.435388 
4115.199154  	92.457714 
4116.163578  	92.468990 
4117.128003  	92.448894 
4118.092427  	92.469269 
4119.056852  	92.421123 
4120.021276  	92.366334 
4120.985700  	92.418691 
4121.950125  	92.456386 
4122.914549  	92.423297 
4123.878974  	92.430124 
4124.843398  	92.466697 
4125.807823  	92.502908 
4126.772247  	92.475298 
4127.736672  	92.425698 
4128.701096  	92.434238 
4129.665521  	92.453225 
4130.629945  	92.452308 
4131.594370  	92.486933 
4132.558794  	92.482928 
4133.523218  	92.447251 
4134.487643  	92.458535 
4135.452067  	92.515580 
4136.416492  	92.511553 
4137.380916  	92.478487 
4138.345341  	92.420061 
4139.309765  	92.367593 
4140.274190  	92.374373 
4141.238614  	92.377414 
4142.203039  	92.443667 
4143.167463  	92.548273 
4144.131887  	92.520294 
4145.096312  	92.482655 
4146.060736  	92.466704 
4147.025161  	92.512029 
4147.989585  	92.527950 
4148.954010  	92.481603 
4149.918434  	92.479778 
4150.882859  	92.524106 
4151.847283  	92.554434 
4152.811708  	92.518431 
4153.776132  	92.514522 
4154.740556  	92.546886 
4155.704981  	92.467249 
4156.669405  	92.379213 
4157.633830  	92.400079 
4158.598254  	92.466690 
4159.562679  	92.480778 
4160.527103  	92.458939 
4161.491528  	92.447048 
4162.455952  	92.451593 
4163.420377  	92.496156 
4164.384801  	92.516243 
4165.349225  	92.484945 
4166.313650  	92.475945 
4167.278074  	92.471489 
4168.242499  	92.482908 
4169.206923  	92.511674 
4170.171348  	92.556671 
4171.135772  	92.581562 
4172.100197  	92.511988 
4173.064621  	92.479222 
4174.029046  	92.498119 
4174.993470  	92.512468 
4175.957894  	92.565237 
4176.922319  	92.585577 
4177.886743  	92.499974 
4178.851168  	92.431686 
4179.815592  	92.457957 
4180.780017  	92.460953 
4181.744441  	92.497174 
4182.708866  	92.534140 
4183.673290  	92.496594 
4184.637715  	92.482631 
4185.602139  	92.534098 
4186.566563  	92.523030 
4187.530988  	92.480757 
4188.495412  	92.469967 
4189.459837  	92.484040 
4190.424261  	92.478377 
4191.388686  	92.497765 
4192.353110  	92.512074 
4193.317535  	92.489143 
4194.281959  	92.479282 
4195.246384  	92.499017 
4196.210808  	92.518433 
4197.175233  	92.503749 
4198.139657  	92.456942 
4199.104081  	92.458612 
4200.068506  	92.461453 
4201.032930  	92.470539 
4201.997355  	92.530205 
4202.961779  	92.604084 
4203.926204  	92.506888 
4204.890628  	92.438267 
4205.855053  	92.500669 
4206.819477  	92.513617 
4207.783902  	92.513535 
4208.748326  	92.545220 
4209.712750  	92.569519 
4210.677175  	92.581555 
4211.641599  	92.525822 
4212.606024  	92.505407 
4213.570448  	92.522888 
4214.534873  	92.556794 
4215.499297  	92.551277 
4216.463722  	92.536802 
4217.428146  	92.450207 
4218.392571  	92.456637 
4219.356995  	92.498612 
4220.321419  	92.526558 
4221.285844  	92.577515 
4222.250268  	92.602429 
4223.214693  	92.473254 
4224.179117  	92.436938 
4225.143542  	92.494730 
4226.107966  	92.506489 
4227.072391  	92.526460 
4228.036815  	92.491589 
4229.001240  	92.484520 
4229.965664  	92.484592 
4230.930088  	92.466414 
4231.894513  	92.530720 
4232.858937  	92.566877 
4233.823362  	92.609659 
4234.787786  	92.581062 
4235.752211  	92.504855 
4236.716635  	92.495754 
4237.681060  	92.570177 
4238.645484  	92.584760 
4239.609909  	92.516599 
4240.574333  	92.466213 
4241.538757  	92.509796 
4242.503182  	92.514492 
4243.467606  	92.507708 
4244.432031  	92.458043 
4245.396455  	92.417884 
4246.360880  	92.464885 
4247.325304  	92.486560 
4248.289729  	92.497400 
4249.254153  	92.527208 
4250.218578  	92.558825 
4251.183002  	92.579893 
4252.147427  	92.522570 
4253.111851  	92.496451 
4254.076275  	92.459176 
4255.040700  	92.476849 
4256.005124  	92.527900 
4256.969549  	92.564483 
4257.933973  	92.554820 
4258.898398  	92.518106 
4259.862822  	92.452082 
4260.827247  	92.479952 
4261.791671  	92.495268 
4262.756096  	92.507274 
4263.720520  	92.499591 
4264.684944  	92.455589 
4265.649369  	92.471586 
4266.613793  	92.526790 
4267.578218  	92.491485 
4268.542642  	92.488236 
4269.507067  	92.507888 
4270.471491  	92.509339 
4271.435916  	92.534356 
4272.400340  	92.505139 
4273.364765  	92.457738 
4274.329189  	92.455657 
4275.293613  	92.483223 
4276.258038  	92.517450 
4277.222462  	92.539570 
4278.186887  	92.509218 
4279.151311  	92.497946 
4280.115736  	92.479689 
4281.080160  	92.467823 
4282.044585  	92.470432 
4283.009009  	92.428670 
4283.973434  	92.445734 
4284.937858  	92.474787 
4285.902282  	92.471507 
4286.866707  	92.463447 
4287.831131  	92.475844 
4288.795556  	92.516922 
4289.759980  	92.500109 
4290.724405  	92.436148 
4291.688829  	92.465689 
4292.653254  	92.467691 
4293.617678  	92.510637 
4294.582103  	92.544226 
4295.546527  	92.513132 
4296.510951  	92.464966 
4297.475376  	92.471725 
4298.439800  	92.528415 
4299.404225  	92.534730 
4300.368649  	92.517006 
4301.333074  	92.490214 
4302.297498  	92.439825 
4303.261923  	92.464466 
4304.226347  	92.531526 
4305.190772  	92.589667 
4306.155196  	92.520740 
4307.119620  	92.458715 
4308.084045  	92.413710 
4309.048469  	92.484964 
4310.012894  	92.484141 
4310.977318  	92.449257 
4311.941743  	92.492480 
4312.906167  	92.532178 
4313.870592  	92.524569 
4314.835016  	92.506386 
4315.799441  	92.465006 
4316.763865  	92.500687 
4317.728290  	92.560477 
4318.692714  	92.612038 
4319.657138  	92.553608 
4320.621563  	92.482888 
4321.585987  	92.422740 
4322.550412  	92.456454 
4323.514836  	92.514358 
4324.479261  	92.555960 
4325.443685  	92.565140 
4326.408110  	92.543272 
4327.372534  	92.535408 
4328.336959  	92.557071 
4329.301383  	92.587516 
4330.265807  	92.625483 
4331.230232  	92.619060 
4332.194656  	92.532584 
4333.159081  	92.548410 
4334.123505  	92.615871 
4335.087930  	92.570600 
4336.052354  	92.508895 
4337.016779  	92.479094 
4337.981203  	92.546123 
4338.945628  	92.580233 
4339.910052  	92.523412 
4340.874476  	92.494683 
4341.838901  	92.568274 
4342.803325  	92.583917 
4343.767750  	92.563360 
4344.732174  	92.569830 
4345.696599  	92.524004 
4346.661023  	92.478085 
4347.625448  	92.465293 
4348.589872  	92.480027 
4349.554297  	92.498514 
4350.518721  	92.508186 
4351.483145  	92.585273 
4352.447570  	92.561294 
4353.411994  	92.527630 
4354.376419  	92.469251 
4355.340843  	92.510735 
4356.305268  	92.589728 
4357.269692  	92.585967 
4358.234117  	92.612340 
4359.198541  	92.570297 
4360.162966  	92.504338 
4361.127390  	92.543630 
4362.091814  	92.570409 
4363.056239  	92.562663 
4364.020663  	92.576300 
4364.985088  	92.596942 
4365.949512  	92.525762 
4366.913937  	92.503687 
4367.878361  	92.461287 
4368.842786  	92.471625 
4369.807210  	92.557348 
4370.771635  	92.562578 
4371.736059  	92.509268 
4372.700484  	92.482455 
4373.664908  	92.499431 
4374.629332  	92.513315 
4375.593757  	92.524735 
4376.558181  	92.585353 
4377.522606  	92.620689 
4378.487030  	92.549513 
4379.451455  	92.513883 
4380.415879  	92.521457 
4381.380304  	92.500387 
4382.344728  	92.537703 
4383.309153  	92.562211 
4384.273577  	92.545503 
4385.238001  	92.535089 
4386.202426  	92.543659 
4387.166850  	92.577562 
4388.131275  	92.616771 
4389.095699  	92.536846 
4390.060124  	92.468411 
4391.024548  	92.538055 
4391.988973  	92.615836 
4392.953397  	92.597838 
4393.917822  	92.518650 
4394.882246  	92.465174 
4395.846670  	92.473164 
4396.811095  	92.480278 
4397.775519  	92.545515 
4398.739944  	92.623671 
4399.704368  	92.603252 
4400.668793  	92.592448 
4401.633217  	92.489360 
4402.597642  	92.467336 
4403.562066  	92.591283 
4404.526491  	92.535105 
4405.490915  	92.505038 
4406.455339  	92.509488 
4407.419764  	92.484626 
4408.384188  	92.540809 
4409.348613  	92.618063 
4410.313037  	92.605401 
4411.277462  	92.526393 
4412.241886  	92.503398 
4413.206311  	92.592148 
4414.170735  	92.632485 
4415.135160  	92.546835 
4416.099584  	92.489559 
4417.064008  	92.438826 
4418.028433  	92.407462 
4418.992857  	92.445725 
4419.957282  	92.440677 
4420.921706  	92.450898 
4421.886131  	92.461800 
4422.850555  	92.501146 
4423.814980  	92.505776 
4424.779404  	92.503029 
4425.743829  	92.462496 
4426.708253  	92.454404 
4427.672677  	92.447909 
4428.637102  	92.419749 
4429.601526  	92.480450 
4430.565951  	92.511822 
4431.530375  	92.427183 
4432.494800  	92.379808 
4433.459224  	92.383138 
4434.423649  	92.422008 
4435.388073  	92.406831 
4436.352498  	92.482181 
4437.316922  	92.581186 
4438.281347  	92.573358 
4439.245771  	92.466126 
4440.210195  	92.449982 
4441.174620  	92.442007 
4442.139044  	92.448632 
4443.103469  	92.566988 
4444.067893  	92.582303 
4445.032318  	92.531922 
4445.996742  	92.503216 
4446.961167  	92.472912 
4447.925591  	92.425631 
4448.890016  	92.361384 
4449.854440  	92.350367 
4450.818864  	92.454002 
4451.783289  	92.513007 
4452.747713  	92.516310 
4453.712138  	92.521732 
4454.676562  	92.489384 
4455.640987  	92.467286 
4456.605411  	92.481529 
4457.569836  	92.451423 
4458.534260  	92.409454 
4459.498685  	92.432110 
4460.463109  	92.456635 
4461.427533  	92.447738 
4462.391958  	92.417487 
4463.356382  	92.386194 
4464.320807  	92.415913 
4465.285231  	92.472361 
4466.249656  	92.477941 
4467.214080  	92.452914 
4468.178505  	92.428066 
4469.142929  	92.451172 
4470.107354  	92.507047 
4471.071778  	92.507128 
4472.036202  	92.513384 
4473.000627  	92.513749 
4473.965051  	92.470822 
4474.929476  	92.450375 
4475.893900  	92.455354 
4476.858325  	92.507641 
4477.822749  	92.535804 
4478.787174  	92.548750 
4479.751598  	92.559652 
4480.716023  	92.546236 
4481.680447  	92.513221 
4482.644871  	92.501077 
4483.609296  	92.485048 
4484.573720  	92.503002 
4485.538145  	92.541618 
4486.502569  	92.507662 
4487.466994  	92.479122 
4488.431418  	92.525228 
4489.395843  	92.468369 
4490.360267  	92.443557 
4491.324692  	92.491982 
4492.289116  	92.571946 
4493.253541  	92.570985 
4494.217965  	92.598730 
4495.182389  	92.589946 
4496.146814  	92.532027 
4497.111238  	92.594708 
4498.075663  	92.629690 
4499.040087  	92.576946 
4500.004512  	92.585531 
4500.968936  	92.552671 
4501.933361  	92.485848 
4502.897785  	92.528521 
4503.862210  	92.603952 
4504.826634  	92.612539 
4505.791058  	92.577807 
4506.755483  	92.542053 
4507.719907  	92.519039 
4508.684332  	92.558254 
4509.648756  	92.518211 
4510.613181  	92.524392 
4511.577605  	92.650305 
4512.542030  	92.695691 
4513.506454  	92.723690 
4514.470879  	92.606846 
4515.435303  	92.439991 
4516.399727  	92.455802 
4517.364152  	92.519346 
4518.328576  	92.581614 
4519.293001  	92.636653 
4520.257425  	92.628414 
4521.221850  	92.547250 
4522.186274  	92.570567 
4523.150699  	92.603640 
4524.115123  	92.541645 
4525.079548  	92.460447 
4526.043972  	92.488141 
4527.008396  	92.534644 
4527.972821  	92.468581 
4528.937245  	92.486249 
4529.901670  	92.532882 
4530.866094  	92.576460 
4531.830519  	92.587242 
4532.794943  	92.558076 
4533.759368  	92.596893 
4534.723792  	92.591037 
4535.688217  	92.536734 
4536.652641  	92.571275 
4537.617065  	92.551039 
4538.581490  	92.560007 
4539.545914  	92.555041 
4540.510339  	92.526707 
4541.474763  	92.454967 
4542.439188  	92.419155 
4543.403612  	92.478253 
4544.368037  	92.560531 
4545.332461  	92.530140 
4546.296886  	92.537656 
4547.261310  	92.571635 
4548.225734  	92.547534 
4549.190159  	92.525108 
4550.154583  	92.535222 
4551.119008  	92.513581 
4552.083432  	92.510388 
4553.047857  	92.532362 
4554.012281  	92.590726 
4554.976706  	92.649928 
4555.941130  	92.600485 
4556.905555  	92.517835 
4557.869979  	92.537562 
4558.834404  	92.571381 
4559.798828  	92.509560 
4560.763252  	92.410181 
4561.727677  	92.423951 
4562.692101  	92.475461 
4563.656526  	92.475792 
4564.620950  	92.479146 
4565.585375  	92.472577 
4566.549799  	92.557640 
4567.514224  	92.609231 
4568.478648  	92.587985 
4569.443073  	92.573465 
4570.407497  	92.519177 
4571.371921  	92.542505 
4572.336346  	92.569276 
4573.300770  	92.571859 
4574.265195  	92.521550 
4575.229619  	92.532517 
4576.194044  	92.501601 
4577.158468  	92.466472 
4578.122893  	92.510625 
4579.087317  	92.548083 
4580.051742  	92.518683 
4581.016166  	92.574640 
4581.980590  	92.629729 
4582.945015  	92.655748 
4583.909439  	92.611039 
4584.873864  	92.608406 
4585.838288  	92.619128 
4586.802713  	92.651966 
4587.767137  	92.562950 
4588.731562  	92.480608 
4589.695986  	92.490673 
4590.660411  	92.479693 
4591.624835  	92.491485 
4592.589259  	92.582666 
4593.553684  	92.647058 
4594.518108  	92.547837 
4595.482533  	92.490309 
4596.446957  	92.563066 
4597.411382  	92.516482 
4598.375806  	92.490572 
4599.340231  	92.553964 
4600.304655  	92.591551 
4601.269080  	92.534678 
4602.233504  	92.510505 
4603.197928  	92.520226 
4604.162353  	92.586697 
4605.126777  	92.594732 
4606.091202  	92.596989 
4607.055626  	92.568637 
4608.020051  	92.516334 
4608.984475  	92.526329 
4609.948900  	92.584778 
4610.913324  	92.531123 
4611.877749  	92.469800 
4612.842173  	92.517603 
4613.806598  	92.568310 
4614.771022  	92.583783 
4615.735446  	92.625088 
4616.699871  	92.538709 
4617.664295  	92.436386 
4618.628720  	92.459308 
4619.593144  	92.498964 
4620.557569  	92.558146 
4621.521993  	92.523868 
4622.486418  	92.481124 
4623.450842  	92.558336 
4624.415267  	92.598226 
4625.379691  	92.650053 
4626.344115  	92.596935 
4627.308540  	92.568698 
4628.272964  	92.577053 
4629.237389  	92.528166 
4630.201813  	92.511151 
4631.166238  	92.560779 
4632.130662  	92.589031 
4633.095087  	92.507288 
4634.059511  	92.464272 
4635.023936  	92.604884 
4635.988360  	92.693185 
4636.952784  	92.584107 
4637.917209  	92.503620 
4638.881633  	92.438236 
4639.846058  	92.397352 
4640.810482  	92.481536 
4641.774907  	92.537166 
4642.739331  	92.443323 
4643.703756  	92.411412 
4644.668180  	92.450652 
4645.632605  	92.424685 
4646.597029  	92.470732 
4647.561453  	92.474110 
4648.525878  	92.517236 
4649.490302  	92.564408 
4650.454727  	92.568120 
4651.419151  	92.538152 
4652.383576  	92.506421 
4653.348000  	92.481293 
4654.312425  	92.527316 
4655.276849  	92.559915 
4656.241274  	92.519310 
4657.205698  	92.493110 
4658.170122  	92.479786 
4659.134547  	92.486994 
4660.098971  	92.441239 
4661.063396  	92.476733 
4662.027820  	92.591248 
4662.992245  	92.602684 
4663.956669  	92.543061 
4664.921094  	92.559187 
4665.885518  	92.621059 
4666.849943  	92.675091 
4667.814367  	92.595869 
4668.778791  	92.568130 
4669.743216  	92.566334 
4670.707640  	92.576303 
4671.672065  	92.554509 
4672.636489  	92.515027 
4673.600914  	92.501963 
4674.565338  	92.507597 
4675.529763  	92.550772 
4676.494187  	92.593294 
4677.458612  	92.595725 
4678.423036  	92.553370 
4679.387461  	92.592289 
4680.351885  	92.606836 
4681.316309  	92.517848 
4682.280734  	92.502000 
4683.245158  	92.478140 
4684.209583  	92.502921 
4685.174007  	92.533322 
4686.138432  	92.577566 
4687.102856  	92.586870 
4688.067281  	92.456902 
4689.031705  	92.335709 
4689.996130  	92.447158 
4690.960554  	92.600943 
4691.924978  	92.523962 
4692.889403  	92.419410 
4693.853827  	92.438446 
4694.818252  	92.456450 
4695.782676  	92.481452 
4696.747101  	92.520984 
4697.711525  	92.539048 
4698.675950  	92.552689 
4699.640374  	92.507094 