##TITLE=No Description
##DATA TYPE=INFRARED SPECTRUM
##XUNITS=1/CM
##YUNITS=%T
400.236149  	135.541209 
401.200574  	112.406499 
402.164998  	78.440488 
403.129423  	59.570795 
404.093847  	68.975903 
405.058272  	79.641423 
406.022696  	91.225411 
406.987120  	98.914361 
407.951545  	90.184010 
408.915969  	83.396096 
409.880394  	91.989410 
410.844818  	106.331119 
411.809243  	106.240661 
412.773667  	97.814877 
413.738092  	86.843834 
414.702516  	71.961070 
415.666941  	69.504628 
416.631365  	81.114690 
417.595789  	85.059304 
418.560214  	85.965556 
419.524638  	94.129677 
420.489063  	90.467498 
421.453487  	87.274629 
422.417912  	91.049107 
423.382336  	93.115147 
424.346761  	89.970360 
425.311185  	85.705320 
426.275610  	85.613060 
427.240034  	85.527303 
428.204458  	86.030157 
429.168883  	86.077977 
430.133307  	83.964969 
431.097732  	80.705737 
432.062156  	79.964550 
433.026581  	79.733195 
433.991005  	80.503736 
434.955430  	81.544653 
435.919854  	82.634511 
436.884279  	81.300557 
437.848703  	81.394611 
438.813127  	82.963254 
439.777552  	83.730174 
440.741976  	82.586458 
441.706401  	81.997283 
442.670825  	85.543156 
443.635250  	87.439169 
444.599674  	87.145791 
445.564099  	86.243081 
446.528523  	86.526702 
447.492948  	87.390637 
448.457372  	88.821336 
449.421796  	87.168497 
450.386221  	86.259456 
451.350645  	86.673310 
452.315070  	85.587077 
453.279494  	86.521147 
454.243919  	87.563910 
455.208343  	86.910062 
456.172768  	86.176126 
457.137192  	86.416672 
458.101617  	86.497166 
459.066041  	86.170132 
460.030466  	86.027755 
460.994890  	86.276060 
461.959314  	86.081731 
462.923739  	85.321674 
463.888163  	84.647704 
464.852588  	84.377094 
465.817012  	85.584563 
466.781437  	85.807781 
467.745861  	84.950079 
468.710286  	83.994495 
469.674710  	83.249601 
470.639135  	83.662662 
471.603559  	84.380952 
472.567983  	85.271864 
473.532408  	85.650258 
474.496832  	85.167662 
475.461257  	84.959198 
476.425681  	85.004361 
477.390106  	85.513002 
478.354530  	85.754679 
479.318955  	84.621148 
480.283379  	84.147110 
481.247804  	84.308616 
482.212228  	84.515792 
483.176652  	85.399559 
484.141077  	85.895139 
485.105501  	84.908218 
486.069926  	84.041472 
487.034350  	84.570700 
487.998775  	85.628409 
488.963199  	85.244400 
489.927624  	84.829336 
490.892048  	84.880976 
491.856473  	84.515760 
492.820897  	84.389722 
493.785321  	83.959223 
494.749746  	82.857362 
495.714170  	82.563775 
496.678595  	83.033931 
497.643019  	82.999886 
498.607444  	82.512886 
499.571868  	81.436392 
500.536293  	81.279567 
501.500717  	81.621169 
502.465142  	81.143614 
503.429566  	80.945203 
504.393990  	80.465953 
505.358415  	80.304293 
506.322839  	80.063740 
507.287264  	79.978368 
508.251688  	80.899944 
509.216113  	82.340152 
510.180537  	83.354301 
511.144962  	83.900301 
512.109386  	84.397419 
513.073811  	85.004113 
514.038235  	85.363215 
515.002660  	85.213138 
515.967084  	84.758406 
516.931508  	84.881554 
517.895933  	85.437388 
518.860357  	85.295861 
519.824782  	85.047375 
520.789206  	85.266682 
521.753631  	85.795865 
522.718055  	86.133404 
523.682480  	85.810196 
524.646904  	85.384559 
525.611329  	85.252030 
526.575753  	85.279072 
527.540177  	85.884252 
528.504602  	86.398858 
529.469026  	86.571520 
530.433451  	86.502851 
531.397875  	86.546383 
532.362300  	86.578834 
533.326724  	87.064602 
534.291149  	87.110603 
535.255573  	87.237830 
536.219998  	87.348359 
537.184422  	87.627026 
538.148846  	87.227540 
539.113271  	86.978038 
540.077695  	87.251591 
541.042120  	87.611921 
542.006544  	87.744285 
542.970969  	87.835185 
543.935393  	88.242516 
544.899818  	88.349558 
545.864242  	88.422817 
546.828667  	88.233226 
547.793091  	88.136299 
548.757515  	88.318964 
549.721940  	88.741745 
550.686364  	88.654745 
551.650789  	88.722982 
552.615213  	88.522469 
553.579638  	88.757479 
554.544062  	88.858669 
555.508487  	88.657212 
556.472911  	88.370138 
557.437336  	88.202385 
558.401760  	88.263370 
559.366184  	88.709468 
560.330609  	88.751556 
561.295033  	88.673837 
562.259458  	88.809170 
563.223882  	88.634383 
564.188307  	88.421917 
565.152731  	88.628274 
566.117156  	88.658801 
567.081580  	88.395041 
568.046005  	88.404720 
569.010429  	88.484588 
569.974853  	88.479088 
570.939278  	88.444081 
571.903702  	88.484840 
572.868127  	88.431506 
573.832551  	88.358484 
574.796976  	88.511730 
575.761400  	88.239840 
576.725825  	88.377752 
577.690249  	88.546022 
578.654674  	88.505343 
579.619098  	88.393054 
580.583523  	88.346497 
581.547947  	88.657344 
582.512371  	88.846097 
583.476796  	88.814017 
584.441220  	88.607313 
585.405645  	88.526511 
586.370069  	88.794414 
587.334494  	88.873848 
588.298918  	88.973721 
589.263343  	88.953107 
590.227767  	88.835214 
591.192192  	88.551381 
592.156616  	88.478944 
593.121040  	88.701285 
594.085465  	88.851185 
595.049889  	88.781243 
596.014314  	88.767655 
596.978738  	88.936885 
597.943163  	88.965226 
598.907587  	88.841944 
599.872012  	88.582649 
600.836436  	88.619664 
601.800861  	88.922562 
602.765285  	88.988875 
603.729709  	88.941107 
604.694134  	88.912719 
605.658558  	88.789291 
606.622983  	88.782551 
607.587407  	88.703796 
608.551832  	88.652632 
609.516256  	88.705963 
610.480681  	88.633927 
611.445105  	88.510380 
612.409530  	88.744733 
613.373954  	88.907219 
614.338378  	88.608503 
615.302803  	88.457297 
616.267227  	88.309228 
617.231652  	88.487418 
618.196076  	88.617936 
619.160501  	88.501413 
620.124925  	88.106373 
621.089350  	88.017397 
622.053774  	88.117475 
623.018199  	88.466692 
623.982623  	88.173966 
624.947047  	88.020524 
625.911472  	88.055588 
626.875896  	87.876036 
627.840321  	87.732430 
628.804745  	87.682306 
629.769170  	87.355637 
630.733594  	86.727775 
631.698019  	86.332805 
632.662443  	86.437387 
633.626868  	86.822203 
634.591292  	87.266381 
635.555717  	87.462696 
636.520141  	87.682826 
637.484565  	87.743927 
638.448990  	87.884063 
639.413414  	87.860188 
640.377839  	87.656116 
641.342263  	87.513492 
642.306688  	87.281152 
643.271112  	87.353548 
644.235537  	87.493115 
645.199961  	87.414591 
646.164386  	87.383727 
647.128810  	87.301579 
648.093234  	87.232386 
649.057659  	87.288550 
650.022083  	87.274585 
650.986508  	87.248531 
651.950932  	86.991934 
652.915357  	86.732913 
653.879781  	86.765838 
654.844206  	86.843456 
655.808630  	86.774422 
656.773055  	86.561354 
657.737479  	86.476659 
658.701903  	86.312208 
659.666328  	86.090621 
660.630752  	86.002522 
661.595177  	85.978240 
662.559601  	85.913549 
663.524026  	85.768332 
664.488450  	85.649061 
665.452875  	85.465556 
666.417299  	85.351106 
667.381724  	85.395845 
668.346148  	85.611508 
669.310572  	84.876749 
670.274997  	84.430269 
671.239421  	84.321752 
672.203846  	84.191718 
673.168270  	83.913823 
674.132695  	83.530403 
675.097119  	83.221508 
676.061544  	82.908507 
677.025968  	82.571360 
677.990393  	82.246250 
678.954817  	81.963391 
679.919241  	81.721198 
680.883666  	81.561333 
681.848090  	81.447543 
682.812515  	81.378500 
683.776939  	81.246297 
684.741364  	81.116915 
685.705788  	80.923139 
686.670213  	80.662483 
687.634637  	80.272816 
688.599062  	79.898928 
689.563486  	79.477475 
690.527910  	78.997757 
691.492335  	78.426063 
692.456759  	77.707855 
693.421184  	76.963127 
694.385608  	76.382001 
695.350033  	75.556823 
696.314457  	74.651725 
697.278882  	73.559339 
698.243306  	72.401315 
699.207731  	71.167768 
700.172155  	69.955264 
701.136580  	68.677288 
702.101004  	67.525830 
703.065428  	66.545486 
704.029853  	65.618755 
704.994277  	64.553774 
705.958702  	63.402425 
706.923126  	62.102874 
707.887551  	60.662110 
708.851975  	59.266034 
709.816400  	57.762761 
710.780824  	56.064139 
711.745249  	54.346847 
712.709673  	52.602327 
713.674097  	50.623801 
714.638522  	48.451108 
715.602946  	46.236059 
716.567371  	44.000602 
717.531795  	41.927025 
718.496220  	40.012656 
719.460644  	38.556111 
720.425069  	37.657640 
721.389493  	37.491449 
722.353918  	37.788697 
723.318342  	38.753196 
724.282766  	40.682802 
725.247191  	43.358775 
726.211615  	46.324347 
727.176040  	49.455366 
728.140464  	52.445111 
729.104889  	55.342387 
730.069313  	58.187003 
731.033738  	61.181391 
731.998162  	64.114901 
732.962587  	67.047591 
733.927011  	69.965291 
734.891435  	72.921265 
735.855860  	75.847834 
736.820284  	78.617839 
737.784709  	81.224090 
738.749133  	83.536324 
739.713558  	85.432635 
740.677982  	87.116442 
741.642407  	88.444394 
742.606831  	89.575248 
743.571256  	90.427850 
744.535680  	90.971122 
745.500104  	91.436852 
746.464529  	91.810656 
747.428953  	91.955181 
748.393378  	92.069456 
749.357802  	92.131136 
750.322227  	92.161009 
751.286651  	92.203054 
752.251076  	92.314661 
753.215500  	92.362828 
754.179925  	92.278900 
755.144349  	92.144611 
756.108774  	92.113874 
757.073198  	92.106407 
758.037622  	91.991597 
759.002047  	91.790573 
759.966471  	91.791107 
760.930896  	91.761555 
761.895320  	91.735301 
762.859745  	91.721295 
763.824169  	91.759177 
764.788594  	91.652654 
765.753018  	91.471880 
766.717443  	91.253546 
767.681867  	91.007546 
768.646291  	90.770179 
769.610716  	90.660519 
770.575140  	90.584815 
771.539565  	90.618045 
772.503989  	90.498770 
773.468414  	90.322255 
774.432838  	90.263421 
775.397263  	90.304443 
776.361687  	90.214772 
777.326112  	90.145319 
778.290536  	90.096749 
779.254960  	89.876694 
780.219385  	89.654146 
781.183809  	89.625492 
782.148234  	89.425364 
783.112658  	89.212886 
784.077083  	88.890820 
785.041507  	88.584899 
786.005932  	88.474456 
786.970356  	87.960313 
787.934781  	87.312017 
788.899205  	86.926871 
789.863629  	86.689475 
790.828054  	86.184075 
791.792478  	85.739242 
792.756903  	85.565292 
793.721327  	85.737181 
794.685752  	86.175317 
795.650176  	86.836963 
796.614601  	87.466095 
797.579025  	88.063998 
798.543450  	88.306523 
799.507874  	88.435031 
800.472298  	88.654150 
801.436723  	88.786349 
802.401147  	88.793729 
803.365572  	88.751860 
804.329996  	88.741820 
805.294421  	88.645801 
806.258845  	88.552500 
807.223270  	88.645307 
808.187694  	88.777413 
809.152119  	88.776369 
810.116543  	88.741643 
811.080967  	88.778902 
812.045392  	88.815388 
813.009816  	88.792368 
813.974241  	88.807055 
814.938665  	88.879749 
815.903090  	88.851238 
816.867514  	88.750073 
817.831939  	88.737489 
818.796363  	88.765146 
819.760788  	88.773150 
820.725212  	88.757779 
821.689637  	88.605707 
822.654061  	88.505959 
823.618485  	88.377990 
824.582910  	88.247494 
825.547334  	88.021979 
826.511759  	87.837580 
827.476183  	87.716625 
828.440608  	87.609915 
829.405032  	87.394604 
830.369457  	87.178801 
831.333881  	86.967442 
832.298306  	86.679656 
833.262730  	86.349138 
834.227154  	86.128080 
835.191579  	85.837574 
836.156003  	85.388785 
837.120428  	84.906133 
838.084852  	84.408452 
839.049277  	83.959199 
840.013701  	83.524898 
840.978126  	82.993356 
841.942550  	82.499379 
842.906975  	81.985309 
843.871399  	81.333327 
844.835823  	80.698919 
845.800248  	80.199116 
846.764672  	79.831568 
847.729097  	79.785938 
848.693521  	79.933866 
849.657946  	80.274435 
850.622370  	80.731485 
851.586795  	81.236295 
852.551219  	81.496800 
853.515644  	81.689135 
854.480068  	81.918914 
855.444492  	82.128820 
856.408917  	82.305816 
857.373341  	82.512401 
858.337766  	82.697826 
859.302190  	82.826754 
860.266615  	82.922545 
861.231039  	82.973052 
862.195464  	82.901920 
863.159888  	82.638512 
864.124313  	82.207739 
865.088737  	81.634597 
866.053161  	80.779077 
867.017586  	79.544543 
867.982010  	77.851315 
868.946435  	75.508383 
869.910859  	72.465210 
870.875284  	69.299502 
871.839708  	67.398009 
872.804133  	68.164586 
873.768557  	71.106819 
874.732982  	74.391190 
875.697406  	76.966747 
876.661831  	78.826347 
877.626255  	80.273956 
878.590679  	81.550711 
879.555104  	82.631169 
880.519528  	83.542022 
881.483953  	84.433709 
882.448377  	85.228897 
883.412802  	85.959181 
884.377226  	86.640922 
885.341651  	87.140480 
886.306075  	87.529956 
887.270500  	87.859135 
888.234924  	88.135275 
889.199348  	88.216019 
890.163773  	88.212145 
891.128197  	88.308542 
892.092622  	88.387222 
893.057046  	88.308109 
894.021471  	88.236373 
894.985895  	88.218733 
895.950320  	88.191979 
896.914744  	88.120310 
897.879169  	88.125778 
898.843593  	88.223217 
899.808017  	88.310737 
900.772442  	88.375412 
901.736866  	88.406823 
902.701291  	88.535249 
903.665715  	88.788245 
904.630140  	88.968415 
905.594564  	89.088429 
906.558989  	89.270854 
907.523413  	89.523407 
908.487838  	89.736846 
909.452262  	89.893494 
910.416686  	90.069623 
911.381111  	90.228260 
912.345535  	90.269784 
913.309960  	90.338926 
914.274384  	90.443890 
915.238809  	90.498524 
916.203233  	90.522968 
917.167658  	90.605166 
918.132082  	90.667851 
919.096507  	90.689235 
920.060931  	90.723262 
921.025355  	90.745959 
921.989780  	90.730679 
922.954204  	90.700094 
923.918629  	90.659432 
924.883053  	90.640464 
925.847478  	90.616032 
926.811902  	90.573634 
927.776327  	90.548160 
928.740751  	90.504188 
929.705176  	90.480604 
930.669600  	90.431384 
931.634024  	90.353187 
932.598449  	90.344609 
933.562873  	90.324916 
934.527298  	90.274833 
935.491722  	90.159981 
936.456147  	90.107950 
937.420571  	90.137811 
938.384996  	90.069412 
939.349420  	89.924675 
940.313845  	89.843254 
941.278269  	89.799716 
942.242694  	89.694454 
943.207118  	89.581661 
944.171542  	89.519281 
945.135967  	89.450467 
946.100391  	89.332098 
947.064816  	89.178963 
948.029240  	89.068417 
948.993665  	88.975259 
949.958089  	88.866285 
950.922514  	88.715642 
951.886938  	88.591723 
952.851363  	88.403206 
953.815787  	88.160446 
954.780211  	87.990335 
955.744636  	87.857435 
956.709060  	87.650331 
957.673485  	87.404906 
958.637909  	87.145212 
959.602334  	86.840275 
960.566758  	86.504641 
961.531183  	86.173552 
962.495607  	85.814545 
963.460032  	85.504333 
964.424456  	85.122869 
965.388880  	84.615741 
966.353305  	84.152092 
967.317729  	83.811848 
968.282154  	83.434036 
969.246578  	83.036211 
970.211003  	82.735348 
971.175427  	82.557323 
972.139852  	82.535490 
973.104276  	82.708410 
974.068701  	83.013845 
975.033125  	83.422378 
975.997549  	83.855658 
976.961974  	84.286715 
977.926398  	84.732677 
978.890823  	85.144552 
979.855247  	85.469625 
980.819672  	85.736705 
981.784096  	86.002404 
982.748521  	86.239295 
983.712945  	86.362209 
984.677370  	86.401336 
985.641794  	86.435929 
986.606218  	86.438316 
987.570643  	86.395194 
988.535067  	86.370714 
989.499492  	86.402081 
990.463916  	86.484605 
991.428341  	86.578316 
992.392765  	86.597275 
993.357190  	86.608143 
994.321614  	86.603917 
995.286039  	86.574502 
996.250463  	86.536518 
997.214888  	86.439429 
998.179312  	86.308771 
999.143736  	86.123577 
1000.108161  	85.942445 
1001.072585  	85.761942 
1002.037010  	85.565319 
1003.001434  	85.308659 
1003.965859  	85.005381 
1004.930283  	84.679003 
1005.894708  	84.242016 
1006.859132  	83.649255 
1007.823557  	82.954540 
1008.787981  	82.161538 
1009.752405  	81.201660 
1010.716830  	79.984522 
1011.681254  	78.455542 
1012.645679  	76.543114 
1013.610103  	74.198702 
1014.574528  	71.595963 
1015.538952  	69.225284 
1016.503377  	67.573122 
1017.467801  	66.828758 
1018.432226  	66.975954 
1019.396650  	67.837518 
1020.361074  	69.132153 
1021.325499  	70.567317 
1022.289923  	71.848279 
1023.254348  	73.000628 
1024.218772  	74.395862 
1025.183197  	76.150406 
1026.147621  	78.072193 
1027.112046  	79.789186 
1028.076470  	81.030163 
1029.040895  	81.798265 
1030.005319  	82.190378 
1030.969743  	82.353459 
1031.934168  	82.424848 
1032.898592  	82.383236 
1033.863017  	82.240422 
1034.827441  	82.042765 
1035.791866  	81.860797 
1036.756290  	81.666017 
1037.720715  	81.460682 
1038.685139  	81.254868 
1039.649564  	81.108887 
1040.613988  	80.943227 
1041.578412  	80.764130 
1042.542837  	80.689909 
1043.507261  	80.684664 
1044.471686  	80.684246 
1045.436110  	80.703819 
1046.400535  	80.833483 
1047.364959  	80.991312 
1048.329384  	81.088502 
1049.293808  	81.226866 
1050.258233  	81.441160 
1051.222657  	81.624425 
1052.187081  	81.739338 
1053.151506  	81.826830 
1054.115930  	81.963124 
1055.080355  	82.031060 
1056.044779  	81.962842 
1057.009204  	81.850933 
1057.973628  	81.734061 
1058.938053  	81.619415 
1059.902477  	81.370380 
1060.866902  	81.009482 
1061.831326  	80.747914 
1062.795751  	80.406785 
1063.760175  	79.898533 
1064.724599  	79.359948 
1065.689024  	78.834917 
1066.653448  	78.282157 
1067.617873  	77.652712 
1068.582297  	76.978797 
1069.546722  	76.304226 
1070.511146  	75.523939 
1071.475571  	74.626677 
1072.439995  	73.712875 
1073.404420  	72.769569 
1074.368844  	71.683212 
1075.333268  	70.446684 
1076.297693  	69.167025 
1077.262117  	67.881926 
1078.226542  	66.559591 
1079.190966  	65.208694 
1080.155391  	63.855634 
1081.119815  	62.610263 
1082.084240  	61.459134 
1083.048664  	60.411353 
1084.013089  	59.539086 
1084.977513  	58.748738 
1085.941937  	57.993174 
1086.906362  	57.341853 
1087.870786  	56.770397 
1088.835211  	56.217104 
1089.799635  	55.664953 
1090.764060  	55.184744 
1091.728484  	54.815417 
1092.692909  	54.471744 
1093.657333  	54.128004 
1094.621758  	53.859766 
1095.586182  	53.719006 
1096.550606  	53.660112 
1097.515031  	53.697430 
1098.479455  	53.865512 
1099.443880  	54.099627 
1100.408304  	54.425352 
1101.372729  	54.842189 
1102.337153  	55.351038 
1103.301578  	55.912669 
1104.266002  	56.535950 
1105.230427  	57.180692 
1106.194851  	57.866946 
1107.159275  	58.576859 
1108.123700  	59.274333 
1109.088124  	59.931089 
1110.052549  	60.496218 
1111.016973  	60.937025 
1111.981398  	61.274862 
1112.945822  	61.581949 
1113.910247  	61.838063 
1114.874671  	61.919564 
1115.839096  	61.833202 
1116.803520  	61.680097 
1117.767945  	61.508972 
1118.732369  	61.328640 
1119.696793  	61.262396 
1120.661218  	61.272757 
1121.625642  	61.284140 
1122.590067  	61.419129 
1123.554491  	61.666908 
1124.518916  	61.949045 
1125.483340  	62.309081 
1126.447765  	62.763344 
1127.412189  	63.320310 
1128.376614  	63.955179 
1129.341038  	64.685527 
1130.305462  	65.562648 
1131.269887  	66.556026 
1132.234311  	67.636189 
1133.198736  	68.846046 
1134.163160  	70.142149 
1135.127585  	71.483431 
1136.092009  	72.816941 
1137.056434  	74.140475 
1138.020858  	75.491230 
1138.985283  	76.768119 
1139.949707  	77.922642 
1140.914131  	79.033366 
1141.878556  	80.079844 
1142.842980  	81.003214 
1143.807405  	81.886021 
1144.771829  	82.744933 
1145.736254  	83.515510 
1146.700678  	84.221863 
1147.665103  	84.818190 
1148.629527  	85.394828 
1149.593952  	85.960050 
1150.558376  	86.460408 
1151.522800  	86.875712 
1152.487225  	87.245382 
1153.451649  	87.596580 
1154.416074  	87.915111 
1155.380498  	88.170560 
1156.344923  	88.380057 
1157.309347  	88.594754 
1158.273772  	88.788152 
1159.238196  	88.880489 
1160.202621  	88.992310 
1161.167045  	89.094416 
1162.131469  	89.119965 
1163.095894  	89.084584 
1164.060318  	89.051451 
1165.024743  	89.000550 
1165.989167  	88.883343 
1166.953592  	88.690915 
1167.918016  	88.433007 
1168.882441  	88.122961 
1169.846865  	87.737370 
1170.811290  	87.323100 
1171.775714  	86.997470 
1172.740138  	86.773485 
1173.704563  	86.570850 
1174.668987  	86.412545 
1175.633412  	86.446253 
1176.597836  	86.569961 
1177.562261  	86.692428 
1178.526685  	86.833056 
1179.491110  	87.018726 
1180.455534  	87.174581 
1181.419959  	87.384607 
1182.384383  	87.568564 
1183.348808  	87.703176 
1184.313232  	87.808210 
1185.277656  	87.829851 
1186.242081  	87.837082 
1187.206505  	87.866923 
1188.170930  	87.854931 
1189.135354  	87.768342 
1190.099779  	87.623455 
1191.064203  	87.487305 
1192.028628  	87.294834 
1192.993052  	87.010796 
1193.957477  	86.718356 
1194.921901  	86.454639 
1195.886325  	86.139404 
1196.850750  	85.765381 
1197.815174  	85.417453 
1198.779599  	85.108396 
1199.744023  	84.776470 
1200.708448  	84.376761 
1201.672872  	83.988063 
1202.637297  	83.636961 
1203.601721  	83.262630 
1204.566146  	82.860649 
1205.530570  	82.447331 
1206.494994  	82.072645 
1207.459419  	81.670075 
1208.423843  	81.219452 
1209.388268  	80.788120 
1210.352692  	80.341347 
1211.317117  	79.810916 
1212.281541  	79.244894 
1213.245966  	78.706800 
1214.210390  	78.118002 
1215.174815  	77.445203 
1216.139239  	76.718491 
1217.103663  	75.945318 
1218.068088  	75.152001 
1219.032512  	74.309068 
1219.996937  	73.459973 
1220.961361  	72.634890 
1221.925786  	71.836300 
1222.890210  	71.064442 
1223.854635  	70.313316 
1224.819059  	69.549520 
1225.783484  	68.785884 
1226.747908  	67.964200 
1227.712332  	67.008429 
1228.676757  	65.922180 
1229.641181  	64.711103 
1230.605606  	63.382644 
1231.570030  	61.961630 
1232.534455  	60.484566 
1233.498879  	59.012552 
1234.463304  	57.560585 
1235.427728  	56.164200 
1236.392153  	54.897377 
1237.356577  	53.795559 
1238.321002  	52.871557 
1239.285426  	52.093606 
1240.249850  	51.441808 
1241.214275  	50.958207 
1242.178699  	50.618608 
1243.143124  	50.390183 
1244.107548  	50.271364 
1245.071973  	50.244696 
1246.036397  	50.267175 
1247.000822  	50.320494 
1247.965246  	50.447277 
1248.929671  	50.630880 
1249.894095  	50.814251 
1250.858519  	50.999823 
1251.822944  	51.207523 
1252.787368  	51.414245 
1253.751793  	51.596005 
1254.716217  	51.734377 
1255.680642  	51.894929 
1256.645066  	52.099995 
1257.609491  	52.271184 
1258.573915  	52.409852 
1259.538340  	52.572314 
1260.502764  	52.820148 
1261.467188  	53.187806 
1262.431613  	53.594651 
1263.396037  	54.078593 
1264.360462  	54.637285 
1265.324886  	55.217748 
1266.289311  	55.837983 
1267.253735  	56.525075 
1268.218160  	57.277457 
1269.182584  	58.023314 
1270.147009  	58.776551 
1271.111433  	59.573930 
1272.075857  	60.342477 
1273.040282  	61.124844 
1274.004706  	61.869755 
1274.969131  	62.619566 
1275.933555  	63.354761 
1276.897980  	64.072164 
1277.862404  	64.787423 
1278.826829  	65.506516 
1279.791253  	66.194027 
1280.755678  	66.872847 
1281.720102  	67.581079 
1282.684526  	68.300479 
1283.648951  	68.978786 
1284.613375  	69.649377 
1285.577800  	70.343727 
1286.542224  	71.027495 
1287.506649  	71.632791 
1288.471073  	72.300400 
1289.435498  	73.063396 
1290.399922  	73.793867 
1291.364347  	74.507105 
1292.328771  	75.269816 
1293.293195  	76.056353 
1294.257620  	76.819529 
1295.222044  	77.559755 
1296.186469  	78.306150 
1297.150893  	79.093986 
1298.115318  	79.957398 
1299.079742  	80.715923 
1300.044167  	81.439015 
1301.008591  	82.177956 
1301.973016  	82.837620 
1302.937440  	83.406907 
1303.901865  	83.934487 
1304.866289  	84.438238 
1305.830713  	84.873903 
1306.795138  	85.266096 
1307.759562  	85.627715 
1308.723987  	86.030020 
1309.688411  	86.502615 
1310.652836  	86.866879 
1311.617260  	87.146703 
1312.581685  	87.301170 
1313.546109  	87.647850 
1314.510534  	88.020240 
1315.474958  	88.392848 
1316.439382  	88.616235 
1317.403807  	88.752922 
1318.368231  	88.931982 
1319.332656  	89.060696 
1320.297080  	89.448907 
1321.261505  	89.775352 
1322.225929  	90.035953 
1323.190354  	90.195930 
1324.154778  	90.345062 
1325.119203  	90.477236 
1326.083627  	90.537406 
1327.048051  	90.522705 
1328.012476  	90.431408 
1328.976900  	90.219786 
1329.941325  	89.810888 
1330.905749  	89.274818 
1331.870174  	88.550778 
1332.834598  	87.586040 
1333.799023  	86.420314 
1334.763447  	85.069607 
1335.727872  	83.465354 
1336.692296  	81.652241 
1337.656720  	80.140309 
1338.621145  	78.582333 
1339.585569  	77.198464 
1340.549994  	76.796925 
1341.514418  	77.412401 
1342.478843  	78.254889 
1343.443267  	79.253246 
1344.407692  	80.670526 
1345.372116  	82.310133 
1346.336541  	83.973864 
1347.300965  	85.513600 
1348.265389  	86.840416 
1349.229814  	87.871272 
1350.194238  	88.814927 
1351.158663  	89.604661 
1352.123087  	90.191243 
1353.087512  	90.637835 
1354.051936  	90.867452 
1355.016361  	90.943877 
1355.980785  	91.256635 
1356.945210  	91.459646 
1357.909634  	91.464756 
1358.874059  	91.515737 
1359.838483  	91.497995 
1360.802907  	91.063400 
1361.767332  	90.655369 
1362.731756  	90.044906 
1363.696181  	89.805540 
1364.660605  	90.378989 
1365.625030  	90.324131 
1366.589454  	90.033799 
1367.553879  	89.613138 
1368.518303  	89.090447 
1369.482728  	88.953648 
1370.447152  	89.161686 
1371.411576  	89.150752 
1372.376001  	89.059848 
1373.340425  	88.675002 
1374.304850  	88.387381 
1375.269274  	88.736828 
1376.233699  	89.361823 
1377.198123  	89.539627 
1378.162548  	89.434422 
1379.126972  	89.492714 
1380.091397  	89.627857 
1381.055821  	89.756337 
1382.020245  	89.785184 
1382.984670  	89.734119 
1383.949094  	89.679156 
1384.913519  	89.649409 
1385.877943  	89.402414 
1386.842368  	88.774676 
1387.806792  	88.573415 
1388.771217  	89.218275 
1389.735641  	89.549428 
1390.700066  	89.496732 
1391.664490  	89.449383 
1392.628914  	89.398802 
1393.593339  	89.001804 
1394.557763  	88.043506 
1395.522188  	87.678897 
1396.486612  	87.938089 
1397.451037  	87.729694 
1398.415461  	86.985129 
1399.379886  	86.294645 
1400.344310  	86.125891 
1401.308735  	85.775497 
1402.273159  	84.872517 
1403.237583  	83.768746 
1404.202008  	82.282686 
1405.166432  	80.421016 
1406.130857  	79.264981 
1407.095281  	78.428938 
1408.059706  	77.456366 
1409.024130  	76.987590 
1409.988555  	76.979576 
1410.952979  	77.692064 
1411.917404  	78.960784 
1412.881828  	80.916693 
1413.846252  	82.889021 
1414.810677  	84.773333 
1415.775101  	86.225902 
1416.739526  	87.330414 
1417.703950  	88.219713 
1418.668375  	88.739915 
1419.632799  	89.258836 
1420.597224  	91.003935 
1421.561648  	91.855404 
1422.526073  	92.225616 
1423.490497  	91.864199 
1424.454922  	91.748451 
1425.419346  	92.556970 
1426.383770  	92.896278 
1427.348195  	92.904335 
1428.312619  	92.718783 
1429.277044  	92.371197 
1430.241468  	91.996669 
1431.205893  	92.212241 
1432.170317  	92.162432 
1433.134742  	91.840410 
1434.099166  	91.754990 
1435.063591  	91.504246 
1436.028015  	90.622754 
1436.992439  	89.677635 
1437.956864  	90.530894 
1438.921288  	91.030603 
1439.885713  	91.043877 
1440.850137  	90.960996 
1441.814562  	90.885922 
1442.778986  	90.840897 
1443.743411  	90.751595 
1444.707835  	90.654603 
1445.672260  	90.536809 
1446.636684  	90.341315 
1447.601108  	89.731838 
1448.565533  	89.530983 
1449.529957  	90.042428 
1450.494382  	90.146408 
1451.458806  	89.815683 
1452.423231  	89.478953 
1453.387655  	89.670972 
1454.352080  	89.453916 
1455.316504  	88.758672 
1456.280929  	88.185443 
1457.245353  	87.567331 
1458.209777  	87.773469 
1459.174202  	88.518225 
1460.138626  	89.609747 
1461.103051  	90.276255 
1462.067475  	90.467540 
1463.031900  	90.501495 
1463.996324  	90.226007 
1464.960749  	89.526374 
1465.925173  	89.805499 
1466.889598  	90.150166 
1467.854022  	89.921002 
1468.818446  	89.470045 
1469.782871  	88.781495 
1470.747295  	87.978625 
1471.711720  	86.811230 
1472.676144  	86.293486 
1473.640569  	87.171221 
1474.604993  	88.724533 
1475.569418  	89.194219 
1476.533842  	89.223537 
1477.498267  	90.298591 
1478.462691  	91.055219 
1479.427116  	91.387446 
1480.391540  	91.512603 
1481.355964  	91.399152 
1482.320389  	91.952198 
1483.284813  	92.503629 
1484.249238  	92.817397 
1485.213662  	92.921424 
1486.178087  	92.755987 
1487.142511  	92.388082 
1488.106936  	92.529841 
1489.071360  	92.180276 
1490.035785  	91.372124 
1491.000209  	92.140212 
1491.964633  	93.392882 
1492.929058  	93.935373 
1493.893482  	93.973346 
1494.857907  	93.734862 
1495.822331  	93.023514 
1496.786756  	92.340386 
1497.751180  	92.675288 
1498.715605  	92.203745 
1499.680029  	91.915369 
1500.644454  	91.892403 
1501.608878  	91.084867 
1502.573302  	90.175375 
1503.537727  	89.413761 
1504.502151  	88.378218 
1505.466576  	86.861251 
1506.431000  	84.471234 
1507.395425  	84.897196 
1508.359849  	87.293754 
1509.324274  	89.117206 
1510.288698  	90.618722 
1511.253123  	91.865842 
1512.217547  	92.057935 
1513.181971  	92.651310 
1514.146396  	93.101944 
1515.110820  	92.678842 
1516.075245  	92.098706 
1517.039669  	91.187863 
1518.004094  	92.094516 
1518.968518  	93.063309 
1519.932943  	92.545977 
1520.897367  	90.922128 
1521.861792  	90.881818 
1522.826216  	91.770977 
1523.790640  	92.580373 
1524.755065  	92.449050 
1525.719489  	91.995976 
1526.683914  	92.381391 
1527.648338  	92.279647 
1528.612763  	92.571283 
1529.577187  	93.300887 
1530.541612  	93.591597 
1531.506036  	93.134547 
1532.470461  	92.810815 
1533.434885  	92.173217 
1534.399309  	92.294946 
1535.363734  	93.057973 
1536.328158  	93.435555 
1537.292583  	93.540512 
1538.257007  	92.912676 
1539.221432  	90.964776 
1540.185856  	90.407321 
1541.150281  	91.574072 
1542.114705  	91.734733 
1543.079130  	91.769445 
1544.043554  	92.026061 
1545.007979  	91.854145 
1545.972403  	92.462938 
1546.936827  	93.438002 
1547.901252  	93.709212 
1548.865676  	93.408834 
1549.830101  	92.215847 
1550.794525  	92.363042 
1551.758950  	93.369129 
1552.723374  	93.499707 
1553.687799  	92.956347 
1554.652223  	92.032147 
1555.616648  	92.647794 
1556.581072  	92.897254 
1557.545496  	92.104489 
1558.509921  	89.238904 
1559.474345  	89.005497 
1560.438770  	90.797669 
1561.403194  	92.460290 
1562.367619  	93.153563 
1563.332043  	93.332375 
1564.296468  	93.044928 
1565.260892  	92.678983 
1566.225317  	93.009885 
1567.189741  	93.163136 
1568.154165  	92.902052 
1569.118590  	91.943552 
1570.083014  	91.365391 
1571.047439  	92.226680 
1572.011863  	92.492047 
1572.976288  	92.307945 
1573.940712  	92.041458 
1574.905137  	91.627203 
1575.869561  	90.715395 
1576.833986  	89.821353 
1577.798410  	90.476799 
1578.762834  	91.021681 
1579.727259  	91.300160 
1580.691683  	91.541536 
1581.656108  	91.804189 
1582.620532  	92.082753 
1583.584957  	92.355682 
1584.549381  	92.647727 
1585.513806  	92.850792 
1586.478230  	92.980195 
1587.442655  	93.087144 
1588.407079  	93.161087 
1589.371503  	93.100943 
1590.335928  	93.114951 
1591.300352  	93.158309 
1592.264777  	93.184520 
1593.229201  	93.182868 
1594.193626  	93.005655 
1595.158050  	92.925494 
1596.122475  	93.018492 
1597.086899  	93.060192 
1598.051324  	93.087210 
1599.015748  	93.016727 
1599.980173  	92.956468 
1600.944597  	92.768271 
1601.909021  	92.610189 
1602.873446  	92.418058 
1603.837870  	92.358748 
1604.802295  	92.433822 
1605.766719  	92.354613 
1606.731144  	92.038280 
1607.695568  	91.801640 
1608.659993  	91.684069 
1609.624417  	91.390170 
1610.588842  	91.477069 
1611.553266  	91.515971 
1612.517690  	91.370307 
1613.482115  	91.214156 
1614.446539  	91.082667 
1615.410964  	90.855390 
1616.375388  	90.186040 
1617.339813  	90.029233 
1618.304237  	90.891472 
1619.268662  	91.304106 
1620.233086  	91.356404 
1621.197511  	91.355184 
1622.161935  	91.112530 
1623.126359  	90.511641 
1624.090784  	90.409752 
1625.055208  	91.031680 
1626.019633  	91.228614 
1626.984057  	91.080639 
1627.948482  	90.618756 
1628.912906  	90.829962 
1629.877331  	91.093916 
1630.841755  	91.117736 
1631.806180  	91.024603 
1632.770604  	90.915203 
1633.735028  	90.653273 
1634.699453  	90.015114 
1635.663877  	88.557853 
1636.628302  	89.167563 
1637.592726  	89.466919 
1638.557151  	89.977658 
1639.521575  	90.307766 
1640.486000  	90.273626 
1641.450424  	90.202378 
1642.414849  	90.088716 
1643.379273  	90.028992 
1644.343697  	89.909724 
1645.308122  	89.310366 
1646.272546  	88.194769 
1647.236971  	87.728214 
1648.201395  	87.951486 
1649.165820  	88.780279 
1650.130244  	89.109655 
1651.094669  	88.816869 
1652.059093  	88.105867 
1653.023518  	85.620424 
1653.987942  	85.079110 
1654.952366  	86.826377 
1655.916791  	87.842959 
1656.881215  	87.975991 
1657.845640  	87.947098 
1658.810064  	87.803950 
1659.774489  	87.567972 
1660.738913  	87.091285 
1661.703338  	86.514515 
1662.667762  	85.715065 
1663.632187  	85.511257 
1664.596611  	85.566000 
1665.561036  	85.302623 
1666.525460  	84.858648 
1667.489884  	84.196742 
1668.454309  	82.981980 
1669.418733  	81.911897 
1670.383158  	81.987717 
1671.347582  	81.622320 
1672.312007  	81.392286 
1673.276431  	81.331713 
1674.240856  	80.726147 
1675.205280  	79.546288 
1676.169705  	79.108207 
1677.134129  	79.185487 
1678.098553  	78.727136 
1679.062978  	77.908334 
1680.027402  	76.533698 
1680.991827  	75.902307 
1681.956251  	75.665205 
1682.920676  	74.577187 
1683.885100  	72.108384 
1684.849525  	71.666115 
1685.813949  	73.363081 
1686.778374  	73.524337 
1687.742798  	72.812819 
1688.707222  	71.940795 
1689.671647  	71.289487 
1690.636071  	70.554914 
1691.600496  	69.895638 
1692.564920  	68.947288 
1693.529345  	67.716932 
1694.493769  	66.343281 
1695.458194  	64.436455 
1696.422618  	62.184712 
1697.387043  	61.450211 
1698.351467  	60.484618 
1699.315891  	59.010672 
1700.280316  	56.116304 
1701.244740  	54.731589 
1702.209165  	54.494094 
1703.173589  	53.483328 
1704.138014  	51.984425 
1705.102438  	50.520269 
1706.066863  	49.457129 
1707.031287  	48.443738 
1707.995712  	48.048257 
1708.960136  	47.654877 
1709.924560  	47.088689 
1710.888985  	46.791676 
1711.853409  	46.933294 
1712.817834  	47.113034 
1713.782258  	47.228225 
1714.746683  	47.546231 
1715.711107  	48.876890 
1716.675532  	49.807648 
1717.639956  	50.324773 
1718.604381  	52.434017 
1719.568805  	54.788122 
1720.533230  	56.323893 
1721.497654  	57.654923 
1722.462078  	58.921330 
1723.426503  	60.030256 
1724.390927  	61.528058 
1725.355352  	62.880132 
1726.319776  	64.122803 
1727.284201  	65.436137 
1728.248625  	66.772780 
1729.213050  	67.598540 
1730.177474  	68.464248 
1731.141899  	70.321325 
1732.106323  	71.528997 
1733.070747  	71.919820 
1734.035172  	72.144208 
1734.999596  	74.950808 
1735.964021  	77.237639 
1736.928445  	78.588835 
1737.892870  	79.893979 
1738.857294  	80.829415 
1739.821719  	81.678711 
1740.786143  	83.617160 
1741.750568  	85.051407 
1742.714992  	85.691152 
1743.679416  	86.344705 
1744.643841  	87.787120 
1745.608265  	88.946979 
1746.572690  	89.546924 
1747.537114  	89.951807 
1748.501539  	90.256589 
1749.465963  	90.885444 
1750.430388  	91.495612 
1751.394812  	91.403662 
1752.359237  	92.402298 
1753.323661  	93.376131 
1754.288085  	93.848343 
1755.252510  	94.050651 
1756.216934  	93.772558 
1757.181359  	93.464485 
1758.145783  	93.925773 
1759.110208  	94.339908 
1760.074632  	94.581728 
1761.039057  	94.325634 
1762.003481  	93.624553 
1762.967906  	94.279069 
1763.932330  	94.900138 
1764.896754  	95.097513 
1765.861179  	95.163709 
1766.825603  	95.136285 
1767.790028  	94.562131 
1768.754452  	94.263368 
1769.718877  	94.922216 
1770.683301  	94.908281 
1771.647726  	94.216761 
1772.612150  	93.754967 
1773.576575  	94.358258 
1774.540999  	95.025882 
1775.505423  	94.910829 
1776.469848  	95.064598 
1777.434272  	95.446879 
1778.398697  	95.395719 
1779.363121  	95.238308 
1780.327546  	94.966926 
1781.291970  	94.837009 
1782.256395  	95.323347 
1783.220819  	95.620576 
1784.185244  	95.458304 
1785.149668  	95.037146 
1786.114093  	95.365835 
1787.078517  	95.676704 
1788.042941  	95.705137 
1789.007366  	95.640477 
1789.971790  	95.445645 
1790.936215  	94.839075 
1791.900639  	94.510333 
1792.865064  	94.376782 
1793.829488  	94.984977 
1794.793913  	95.406739 
1795.758337  	95.070739 
1796.722762  	95.035484 
1797.687186  	95.497893 
1798.651610  	95.556552 
1799.616035  	95.159510 
1800.580459  	95.120613 
1801.544884  	95.074721 
1802.509308  	94.914427 
1803.473733  	95.389831 
1804.438157  	95.746990 
1805.402582  	95.768904 
1806.367006  	95.716733 
1807.331431  	95.558331 
1808.295855  	95.464404 
1809.260279  	95.665602 
1810.224704  	95.393961 
1811.189128  	95.084206 
1812.153553  	95.301449 
1813.117977  	95.610739 
1814.082402  	95.860013 
1815.046826  	95.906515 
1816.011251  	95.913481 
1816.975675  	95.734123 
1817.940100  	95.568563 
1818.904524  	95.792452 
1819.868948  	95.913625 
1820.833373  	95.867535 
1821.797797  	95.762043 
1822.762222  	95.602348 
1823.726646  	95.645119 
1824.691071  	95.367155 
1825.655495  	94.858331 
1826.619920  	95.478940 
1827.584344  	95.814255 
1828.548769  	95.580422 
1829.513193  	94.829463 
1830.477617  	94.736960 
1831.442042  	95.572113 
1832.406466  	95.930190 
1833.370891  	95.861726 
1834.335315  	95.990469 
1835.299740  	96.137046 
1836.264164  	96.069725 
1837.228589  	95.701725 
1838.193013  	95.817887 
1839.157438  	96.071808 
1840.121862  	96.137284 
1841.086287  	96.145841 
1842.050711  	95.980821 
1843.015135  	95.794310 
1843.979560  	95.296584 
1844.943984  	95.024585 
1845.908409  	95.712924 
1846.872833  	96.020647 
1847.837258  	95.774992 
1848.801682  	95.858882 
1849.766107  	96.246913 
1850.730531  	96.434828 
1851.694956  	96.466982 
1852.659380  	96.467345 
1853.623804  	96.540967 
1854.588229  	96.485200 
1855.552653  	96.487186 
1856.517078  	96.481001 
1857.481502  	96.450792 
1858.445927  	96.390588 
1859.410351  	96.347991 
1860.374776  	96.417215 
1861.339200  	96.389117 
1862.303625  	96.369596 
1863.268049  	96.451949 
1864.232473  	96.473304 
1865.196898  	96.475924 
1866.161322  	96.267536 
1867.125747  	96.075158 
1868.090171  	95.749925 
1869.054596  	95.392696 
1870.019020  	95.602245 
1870.983445  	96.188539 
1871.947869  	96.552222 
1872.912294  	96.658885 
1873.876718  	96.658389 
1874.841142  	96.663430 
1875.805567  	96.656082 
1876.769991  	96.641473 
1877.734416  	96.657520 
1878.698840  	96.661367 
1879.663265  	96.580017 
1880.627689  	96.602008 
1881.592114  	96.597836 
1882.556538  	96.583269 
1883.520963  	96.628391 
1884.485387  	96.637067 
1885.449811  	96.487144 
1886.414236  	96.572140 
1887.378660  	96.637464 
1888.343085  	96.506316 
1889.307509  	95.967542 
1890.271934  	95.889460 
1891.236358  	96.390109 
1892.200783  	96.560560 
1893.165207  	96.595664 
1894.129632  	96.508786 
1895.094056  	96.149687 
1896.058480  	96.169077 
1897.022905  	96.475388 
1897.987329  	96.520005 
1898.951754  	96.493658 
1899.916178  	96.604413 
1900.880603  	96.656870 
1901.845027  	96.542386 
1902.809452  	96.549393 
1903.773876  	96.580839 
1904.738301  	96.557998 
1905.702725  	96.539781 
1906.667150  	96.507385 
1907.631574  	96.357787 
1908.595998  	96.256984 
1909.560423  	96.177618 
1910.524847  	96.160510 
1911.489272  	96.480575 
1912.453696  	96.517120 
1913.418121  	96.469776 
1914.382545  	96.410605 
1915.346970  	96.503612 
1916.311394  	96.550043 
1917.275819  	96.215255 
1918.240243  	95.644212 
1919.204667  	96.056778 
1920.169092  	96.420276 
1921.133516  	96.407122 
1922.097941  	96.088238 
1923.062365  	95.759827 
1924.026790  	96.175658 
1924.991214  	96.536748 
1925.955639  	96.510161 
1926.920063  	96.509925 
1927.884488  	96.507668 
1928.848912  	96.536799 
1929.813336  	96.473130 
1930.777761  	96.508029 
1931.742185  	96.506298 
1932.706610  	96.553808 
1933.671034  	96.604086 
1934.635459  	96.613978 
1935.599883  	96.554673 
1936.564308  	96.486652 
1937.528732  	96.344083 
1938.493157  	96.393060 
1939.457581  	96.572632 
1940.422005  	96.618047 
1941.386430  	96.238008 
1942.350854  	95.582916 
1943.315279  	95.506125 
1944.279703  	95.999610 
1945.244128  	96.097318 
1946.208552  	96.200799 
1947.172977  	96.239466 
1948.137401  	96.231685 
1949.101826  	96.093301 
1950.066250  	96.307569 
1951.030674  	96.393748 
1951.995099  	96.111157 
1952.959523  	96.098892 
1953.923948  	96.192405 
1954.888372  	96.090523 
1955.852797  	96.160038 
1956.817221  	96.381972 
1957.781646  	96.544788 
1958.746070  	96.450228 
1959.710495  	96.387670 
1960.674919  	96.063095 
1961.639344  	95.894621 
1962.603768  	95.745843 
1963.568192  	95.925346 
1964.532617  	96.324555 
1965.497041  	96.640249 
1966.461466  	96.512170 
1967.425890  	96.309774 
1968.390315  	96.483825 
1969.354739  	96.590354 
1970.319164  	96.492925 
1971.283588  	96.720431 
1972.248013  	96.751960 
1973.212437  	96.821803 
1974.176861  	96.688419 
1975.141286  	96.330104 
1976.105710  	96.487635 
1977.070135  	97.150057 
1978.034559  	97.276077 
1978.998984  	96.643080 
1979.963408  	96.326468 
1980.927833  	96.341592 
1981.892257  	96.516937 
1982.856682  	96.385170 
1983.821106  	96.187152 
1984.785530  	96.359414 
1985.749955  	96.303195 
1986.714379  	96.484994 
1987.678804  	96.480038 
1988.643228  	96.272415 
1989.607653  	96.422882 
1990.572077  	96.488594 
1991.536502  	96.220572 
1992.500926  	96.029310 
1993.465351  	96.061013 
1994.429775  	96.629654 
1995.394199  	96.860568 
1996.358624  	96.600975 
1997.323048  	96.480986 
1998.287473  	96.737544 
1999.251897  	96.855450 
2000.216322  	96.884543 
2001.180746  	97.192481 
2002.145171  	97.249852 
2003.109595  	97.258589 
2004.074020  	97.399442 
2005.038444  	97.417291 
2006.002868  	97.347604 
2006.967293  	97.153782 
2007.931717  	96.911718 
2008.896142  	96.903193 
2009.860566  	97.009653 
2010.824991  	96.886851 
2011.789415  	96.847526 
2012.753840  	96.948268 
2013.718264  	96.837822 
2014.682689  	96.728621 
2015.647113  	96.795819 
2016.611537  	96.776987 
2017.575962  	96.658849 
2018.540386  	96.901711 
2019.504811  	97.173450 
2020.469235  	97.200635 
2021.433660  	97.379294 
2022.398084  	97.355413 
2023.362509  	97.476183 
2024.326933  	97.457825 
2025.291358  	97.090391 
2026.255782  	97.004839 
2027.220207  	97.101435 
2028.184631  	97.228214 
2029.149055  	97.666770 
2030.113480  	97.756863 
2031.077904  	97.407816 
2032.042329  	96.986599 
2033.006753  	97.053315 
2033.971178  	97.369488 
2034.935602  	97.460179 
2035.900027  	97.255359 
2036.864451  	97.267996 
2037.828876  	97.246552 
2038.793300  	97.158108 
2039.757724  	96.839209 
2040.722149  	96.662529 
2041.686573  	96.461473 
2042.650998  	96.522776 
2043.615422  	96.639750 
2044.579847  	96.923729 
2045.544271  	97.305248 
2046.508696  	97.244682 
2047.473120  	96.767778 
2048.437545  	96.807675 
2049.401969  	96.850643 
2050.366393  	96.507389 
2051.330818  	96.373969 
2052.295242  	96.816997 
2053.259667  	97.129876 
2054.224091  	96.817367 
2055.188516  	96.434345 
2056.152940  	96.350850 
2057.117365  	96.302881 
2058.081789  	96.593034 
2059.046214  	96.749888 
2060.010638  	96.593585 
2060.975062  	96.343968 
2061.939487  	96.384513 
2062.903911  	96.397185 
2063.868336  	96.346079 
2064.832760  	96.224638 
2065.797185  	96.526268 
2066.761609  	96.625305 
2067.726034  	96.628337 
2068.690458  	96.595730 
2069.654883  	96.695202 
2070.619307  	96.724735 
2071.583731  	96.687624 
2072.548156  	96.479954 
2073.512580  	96.315006 
2074.477005  	96.186036 
2075.441429  	96.421269 
2076.405854  	96.531464 
2077.370278  	96.495122 
2078.334703  	96.411629 
2079.299127  	96.329562 
2080.263552  	96.353740 
2081.227976  	96.458797 
2082.192401  	96.464303 
2083.156825  	96.312243 
2084.121249  	96.160698 
2085.085674  	96.321816 
2086.050098  	96.434310 
2087.014523  	96.356665 
2087.978947  	96.348975 
2088.943372  	96.379761 
2089.907796  	96.397139 
2090.872221  	96.507437 
2091.836645  	96.624610 
2092.801070  	96.629205 
2093.765494  	96.624753 
2094.729918  	96.546140 
2095.694343  	96.463906 
2096.658767  	96.432120 
2097.623192  	96.322822 
2098.587616  	96.323238 
2099.552041  	96.475037 
2100.516465  	96.536157 
2101.480890  	96.468263 
2102.445314  	96.394141 
2103.409739  	96.399852 
2104.374163  	96.421526 
2105.338587  	96.322321 
2106.303012  	96.317257 
2107.267436  	96.332214 
2108.231861  	96.326174 
2109.196285  	96.364179 
2110.160710  	96.395120 
2111.125134  	96.461161 
2112.089559  	96.438309 
2113.053983  	96.409671 
2114.018408  	96.441981 
2114.982832  	96.429449 
2115.947256  	96.315210 
2116.911681  	96.391853 
2117.876105  	96.639629 
2118.840530  	96.617038 
2119.804954  	96.575047 
2120.769379  	96.515340 
2121.733803  	96.534817 
2122.698228  	96.666434 
2123.662652  	96.693709 
2124.627077  	96.489641 
2125.591501  	96.553754 
2126.555925  	96.787495 
2127.520350  	96.836068 
2128.484774  	96.816177 
2129.449199  	97.006189 
2130.413623  	97.070728 
2131.378048  	96.987546 
2132.342472  	97.064215 
2133.306897  	97.060203 
2134.271321  	96.829550 
2135.235746  	96.759429 
2136.200170  	96.849977 
2137.164594  	96.925657 
2138.129019  	96.964735 
2139.093443  	97.052174 
2140.057868  	97.153449 
2141.022292  	97.250842 
2141.986717  	97.165454 
2142.951141  	97.137878 
2143.915566  	97.336231 
2144.879990  	97.080287 
2145.844415  	96.953967 
2146.808839  	97.185202 
2147.773264  	97.394806 
2148.737688  	97.511304 
2149.702112  	97.558357 
2150.666537  	97.533738 
2151.630961  	97.513517 
2152.595386  	97.604969 
2153.559810  	97.541363 
2154.524235  	97.818859 
2155.488659  	98.041761 
2156.453084  	98.239483 
2157.417508  	98.108787 
2158.381933  	97.599731 
2159.346357  	96.757377 
2160.310781  	96.548048 
2161.275206  	96.556477 
2162.239630  	96.652921 
2163.204055  	96.700458 
2164.168479  	96.872935 
2165.132904  	96.826257 
2166.097328  	96.560458 
2167.061753  	96.815372 
2168.026177  	97.020584 
2168.990602  	96.896529 
2169.955026  	96.913918 
2170.919450  	97.218174 
2171.883875  	97.091889 
2172.848299  	96.963335 
2173.812724  	96.972482 
2174.777148  	96.966899 
2175.741573  	97.073554 
2176.705997  	97.038210 
2177.670422  	97.117501 
2178.634846  	97.227177 
2179.599271  	97.422114 
2180.563695  	97.345544 
2181.528119  	97.192027 
2182.492544  	96.961707 
2183.456968  	96.754047 
2184.421393  	96.626660 
2185.385817  	97.075581 
2186.350242  	97.224272 
2187.314666  	96.934598 
2188.279091  	96.961292 
2189.243515  	97.036619 
2190.207940  	96.925359 
2191.172364  	97.055213 
2192.136788  	97.181834 
2193.101213  	97.078497 
2194.065637  	96.816867 
2195.030062  	96.603685 
2195.994486  	96.619312 
2196.958911  	96.821967 
2197.923335  	96.951213 
2198.887760  	96.841034 
2199.852184  	96.828125 
2200.816609  	96.819409 
2201.781033  	96.811914 
2202.745458  	96.988290 
2203.709882  	97.075429 
2204.674306  	97.011933 
2205.638731  	96.871929 
2206.603155  	96.863531 
2207.567580  	96.883055 
2208.532004  	96.774143 
2209.496429  	96.698382 
2210.460853  	96.825454 
2211.425278  	96.823724 
2212.389702  	96.585236 
2213.354127  	96.391965 
2214.318551  	96.475195 
2215.282975  	96.552645 
2216.247400  	96.640859 
2217.211824  	96.640737 
2218.176249  	96.739583 
2219.140673  	96.714155 
2220.105098  	96.606970 
2221.069522  	96.665756 
2222.033947  	96.796178 
2222.998371  	96.647465 
2223.962796  	96.612596 
2224.927220  	96.824497 
2225.891644  	96.696109 
2226.856069  	96.496198 
2227.820493  	96.543661 
2228.784918  	96.521070 
2229.749342  	96.462577 
2230.713767  	96.539306 
2231.678191  	96.518688 
2232.642616  	96.522101 
2233.607040  	96.754478 
2234.571465  	96.683778 
2235.535889  	96.541544 
2236.500313  	96.419865 
2237.464738  	96.490179 
2238.429162  	96.559805 
2239.393587  	96.407483 
2240.358011  	96.439677 
2241.322436  	96.702407 
2242.286860  	96.563968 
2243.251285  	96.443306 
2244.215709  	96.429608 
2245.180134  	96.362942 
2246.144558  	96.315191 
2247.108982  	96.409359 
2248.073407  	96.412838 
2249.037831  	96.437010 
2250.002256  	96.387394 
2250.966680  	96.386448 
2251.931105  	96.449732 
2252.895529  	96.579247 
2253.859954  	96.506021 
2254.824378  	96.418207 
2255.788803  	96.329091 
2256.753227  	96.279700 
2257.717651  	96.260265 
2258.682076  	96.185994 
2259.646500  	96.179532 
2260.610925  	96.214913 
2261.575349  	96.152502 
2262.539774  	96.130359 
2263.504198  	96.291132 
2264.468623  	96.367019 
2265.433047  	96.361931 
2266.397472  	96.444843 
2267.361896  	96.386520 
2268.326321  	96.294279 
2269.290745  	96.222163 
2270.255169  	96.282306 
2271.219594  	96.307360 
2272.184018  	96.295039 
2273.148443  	96.257869 
2274.112867  	96.239242 
2275.077292  	96.203579 
2276.041716  	96.167869 
2277.006141  	96.127852 
2277.970565  	96.192512 
2278.934990  	96.118899 
2279.899414  	96.072183 
2280.863838  	96.114009 
2281.828263  	96.165957 
2282.792687  	96.063789 
2283.757112  	95.978566 
2284.721536  	95.999639 
2285.685961  	96.040170 
2286.650385  	96.052928 
2287.614810  	96.023822 
2288.579234  	95.951406 
2289.543659  	95.987402 
2290.508083  	96.059748 
2291.472507  	96.098415 
2292.436932  	96.078387 
2293.401356  	96.082453 
2294.365781  	96.034320 
2295.330205  	96.059277 
2296.294630  	96.065529 
2297.259054  	96.052953 
2298.223479  	96.070297 
2299.187903  	96.149781 
2300.152328  	96.183876 
2301.116752  	96.168471 
2302.081176  	96.198753 
2303.045601  	96.159309 
2304.010025  	96.181662 
2304.974450  	96.161536 
2305.938874  	96.084592 
2306.903299  	96.066851 
2307.867723  	96.084273 
2308.832148  	96.137305 
2309.796572  	96.100535 
2310.760997  	96.176101 
2311.725421  	96.127951 
2312.689845  	96.251118 
2313.654270  	96.228596 
2314.618694  	96.225791 
2315.583119  	96.278957 
2316.547543  	96.350823 
2317.511968  	96.348958 
2318.476392  	96.391240 
2319.440817  	96.372477 
2320.405241  	96.287561 
2321.369666  	96.349575 
2322.334090  	96.444484 
2323.298515  	96.417195 
2324.262939  	96.304489 
2325.227363  	96.591889 
2326.191788  	96.933790 
2327.156212  	97.180695 
2328.120637  	97.206778 
2329.085061  	97.267449 
2330.049486  	97.277765 
2331.013910  	97.288864 
2331.978335  	97.283264 
2332.942759  	97.429764 
2333.907184  	97.491508 
2334.871608  	97.596415 
2335.836032  	97.786662 
2336.800457  	97.848556 
2337.764881  	97.740202 
2338.729306  	97.710499 
2339.693730  	97.612539 
2340.658155  	97.694473 
2341.622579  	97.858413 
2342.587004  	97.822878 
2343.551428  	97.661069 
2344.515853  	97.525062 
2345.480277  	97.368175 
2346.444701  	97.190817 
2347.409126  	96.965244 
2348.373550  	96.692641 
2349.337975  	96.660582 
2350.302399  	96.909498 
2351.266824  	97.153255 
2352.231248  	97.477718 
2353.195673  	97.618619 
2354.160097  	97.661510 
2355.124522  	97.734434 
2356.088946  	97.953861 
2357.053370  	97.994883 
2358.017795  	98.130746 
2358.982219  	98.209636 
2359.946644  	98.341895 
2360.911068  	98.314641 
2361.875493  	98.087859 
2362.839917  	97.957818 
2363.804342  	98.026476 
2364.768766  	97.937988 
2365.733191  	98.033539 
2366.697615  	97.940579 
2367.662039  	97.731143 
2368.626464  	97.555290 
2369.590888  	97.437007 
2370.555313  	97.354125 
2371.519737  	97.199149 
2372.484162  	96.987617 
2373.448586  	96.853961 
2374.413011  	96.684584 
2375.377435  	96.538463 
2376.341860  	96.452145 
2377.306284  	96.423490 
2378.270708  	96.331299 
2379.235133  	96.203636 
2380.199557  	96.183081 
2381.163982  	96.210852 
2382.128406  	96.236727 
2383.092831  	96.256980 
2384.057255  	96.222054 
2385.021680  	96.243771 
2385.986104  	96.270173 
2386.950529  	96.282427 
2387.914953  	96.314703 
2388.879378  	96.330966 
2389.843802  	96.363984 
2390.808226  	96.369337 
2391.772651  	96.325888 
2392.737075  	96.325182 
2393.701500  	96.339666 
2394.665924  	96.384592 
2395.630349  	96.387425 
2396.594773  	96.355207 
2397.559198  	96.365151 
2398.523622  	96.427177 
2399.488047  	96.426530 
2400.452471  	96.378655 
2401.416895  	96.340486 
2402.381320  	96.343867 
2403.345744  	96.384457 
2404.310169  	96.406579 
2405.274593  	96.391457 
2406.239018  	96.347755 
2407.203442  	96.341468 
2408.167867  	96.361597 
2409.132291  	96.360863 
2410.096716  	96.364295 
2411.061140  	96.323127 
2412.025564  	96.314880 
2412.989989  	96.346521 
2413.954413  	96.345897 
2414.918838  	96.408894 
2415.883262  	96.430630 
2416.847687  	96.340427 
2417.812111  	96.347340 
2418.776536  	96.396498 
2419.740960  	96.416893 
2420.705385  	96.405499 
2421.669809  	96.336841 
2422.634233  	96.358083 
2423.598658  	96.365508 
2424.563082  	96.348845 
2425.527507  	96.398715 
2426.491931  	96.401296 
2427.456356  	96.312693 
2428.420780  	96.358663 
2429.385205  	96.394512 
2430.349629  	96.400226 
2431.314054  	96.378421 
2432.278478  	96.382278 
2433.242902  	96.392698 
2434.207327  	96.383929 
2435.171751  	96.376123 
2436.136176  	96.375219 
2437.100600  	96.399159 
2438.065025  	96.372942 
2439.029449  	96.426485 
2439.993874  	96.441015 
2440.958298  	96.370604 
2441.922723  	96.359091 
2442.887147  	96.414558 
2443.851572  	96.446782 
2444.815996  	96.463621 
2445.780420  	96.413516 
2446.744845  	96.332843 
2447.709269  	96.338018 
2448.673694  	96.375199 
2449.638118  	96.366556 
2450.602543  	96.331126 
2451.566967  	96.266421 
2452.531392  	96.256513 
2453.495816  	96.283634 
2454.460241  	96.342379 
2455.424665  	96.336232 
2456.389089  	96.296593 
2457.353514  	96.294983 
2458.317938  	96.349645 
2459.282363  	96.391362 
2460.246787  	96.368907 
2461.211212  	96.318294 
2462.175636  	96.340564 
2463.140061  	96.398607 
2464.104485  	96.424672 
2465.068910  	96.415517 
2466.033334  	96.400440 
2466.997758  	96.419030 
2467.962183  	96.457495 
2468.926607  	96.435760 
2469.891032  	96.387112 
2470.855456  	96.413906 
2471.819881  	96.421563 
2472.784305  	96.409603 
2473.748730  	96.425240 
2474.713154  	96.471680 
2475.677579  	96.450862 
2476.642003  	96.393431 
2477.606427  	96.384674 
2478.570852  	96.408839 
2479.535276  	96.402356 
2480.499701  	96.367690 
2481.464125  	96.365480 
2482.428550  	96.422389 
2483.392974  	96.470909 
2484.357399  	96.487263 
2485.321823  	96.408365 
2486.286248  	96.346236 
2487.250672  	96.343498 
2488.215096  	96.379189 
2489.179521  	96.351531 
2490.143945  	96.296151 
2491.108370  	96.212679 
2492.072794  	96.204011 
2493.037219  	96.275904 
2494.001643  	96.308653 
2494.966068  	96.358607 
2495.930492  	96.397274 
2496.894917  	96.333509 
2497.859341  	96.281077 
2498.823765  	96.284506 
2499.788190  	96.320353 
2500.752614  	96.311737 
2501.717039  	96.269232 
2502.681463  	96.242275 
2503.645888  	96.259095 
2504.610312  	96.213256 
2505.574737  	96.206418 
2506.539161  	96.276179 
2507.503586  	96.319025 
2508.468010  	96.289637 
2509.432435  	96.262375 
2510.396859  	96.301675 
2511.361283  	96.318026 
2512.325708  	96.294604 
2513.290132  	96.267910 
2514.254557  	96.291611 
2515.218981  	96.264274 
2516.183406  	96.266157 
2517.147830  	96.314827 
2518.112255  	96.266082 
2519.076679  	96.277041 
2520.041104  	96.297257 
2521.005528  	96.291534 
2521.969952  	96.203330 
2522.934377  	96.187332 
2523.898801  	96.196250 
2524.863226  	96.212372 
2525.827650  	96.173649 
2526.792075  	96.179263 
2527.756499  	96.221828 
2528.720924  	96.215806 
2529.685348  	96.131772 
2530.649773  	96.179765 
2531.614197  	96.268351 
2532.578621  	96.295328 
2533.543046  	96.271554 
2534.507470  	96.229614 
2535.471895  	96.220011 
2536.436319  	96.212300 
2537.400744  	96.212692 
2538.365168  	96.180677 
2539.329593  	96.159024 
2540.294017  	96.166432 
2541.258442  	96.203488 
2542.222866  	96.230142 
2543.187290  	96.211785 
2544.151715  	96.194881 
2545.116139  	96.187674 
2546.080564  	96.184794 
2547.044988  	96.154057 
2548.009413  	96.111397 
2548.973837  	96.154768 
2549.938262  	96.199951 
2550.902686  	96.230300 
2551.867111  	96.229730 
2552.831535  	96.175196 
2553.795959  	96.141241 
2554.760384  	96.137561 
2555.724808  	96.137072 
2556.689233  	96.117794 
2557.653657  	96.100871 
2558.618082  	96.111473 
2559.582506  	96.180571 
2560.546931  	96.168963 
2561.511355  	96.088453 
2562.475780  	96.088912 
2563.440204  	96.131480 
2564.404629  	96.174051 
2565.369053  	96.169471 
2566.333477  	96.174852 
2567.297902  	96.182473 
2568.262326  	96.161083 
2569.226751  	96.087315 
2570.191175  	96.076361 
2571.155600  	96.163363 
2572.120024  	96.192701 
2573.084449  	96.211166 
2574.048873  	96.139555 
2575.013298  	96.068908 
2575.977722  	96.120091 
2576.942146  	96.177342 
2577.906571  	96.160532 
2578.870995  	96.171455 
2579.835420  	96.118659 
2580.799844  	96.095781 
2581.764269  	96.058258 
2582.728693  	96.076383 
2583.693118  	96.125899 
2584.657542  	96.095925 
2585.621967  	96.101052 
2586.586391  	96.115799 
2587.550815  	96.157858 
2588.515240  	96.158780 
2589.479664  	96.116240 
2590.444089  	96.111101 
2591.408513  	96.123078 
2592.372938  	96.138899 
2593.337362  	96.130462 
2594.301787  	96.109883 
2595.266211  	96.105110 
2596.230636  	96.096985 
2597.195060  	96.154968 
2598.159484  	96.166721 
2599.123909  	96.158857 
2600.088333  	96.167570 
2601.052758  	96.157250 
2602.017182  	96.127625 
2602.981607  	96.117652 
2603.946031  	96.132462 
2604.910456  	96.132264 
2605.874880  	96.129453 
2606.839305  	96.121345 
2607.803729  	96.121490 
2608.768153  	96.125059 
2609.732578  	96.117534 
2610.697002  	96.123492 
2611.661427  	96.149318 
2612.625851  	96.165237 
2613.590276  	96.166170 
2614.554700  	96.144215 
2615.519125  	96.097150 
2616.483549  	96.067295 
2617.447974  	96.045663 
2618.412398  	96.079334 
2619.376822  	96.098096 
2620.341247  	96.095052 
2621.305671  	96.095863 
2622.270096  	96.077657 
2623.234520  	96.069225 
2624.198945  	96.069774 
2625.163369  	96.061537 
2626.127794  	96.051773 
2627.092218  	96.041881 
2628.056643  	96.029162 
2629.021067  	96.029127 
2629.985492  	96.057337 
2630.949916  	96.090298 
2631.914340  	96.084565 
2632.878765  	96.060721 
2633.843189  	96.081023 
2634.807614  	96.087993 
2635.772038  	96.086786 
2636.736463  	96.041486 
2637.700887  	96.032169 
2638.665312  	96.067416 
2639.629736  	96.064286 
2640.594161  	96.074774 
2641.558585  	96.084231 
2642.523009  	96.067473 
2643.487434  	96.090324 
2644.451858  	96.125342 
2645.416283  	96.116251 
2646.380707  	96.100460 
2647.345132  	96.117309 
2648.309556  	96.140331 
2649.273981  	96.143773 
2650.238405  	96.179679 
2651.202830  	96.189887 
2652.167254  	96.152505 
2653.131678  	96.126739 
2654.096103  	96.097919 
2655.060527  	96.094862 
2656.024952  	96.139921 
2656.989376  	96.156630 
2657.953801  	96.122914 
2658.918225  	96.129699 
2659.882650  	96.143671 
2660.847074  	96.139290 
2661.811499  	96.174901 
2662.775923  	96.178334 
2663.740347  	96.173000 
2664.704772  	96.172268 
2665.669196  	96.229345 
2666.633621  	96.256220 
2667.598045  	96.256749 
2668.562470  	96.251373 
2669.526894  	96.217585 
2670.491319  	96.204271 
2671.455743  	96.245522 
2672.420168  	96.269907 
2673.384592  	96.249639 
2674.349016  	96.235651 
2675.313441  	96.245466 
2676.277865  	96.241863 
2677.242290  	96.227358 
2678.206714  	96.228725 
2679.171139  	96.247697 
2680.135563  	96.246783 
2681.099988  	96.259386 
2682.064412  	96.269997 
2683.028837  	96.267855 
2683.993261  	96.255144 
2684.957686  	96.240389 
2685.922110  	96.224719 
2686.886534  	96.218535 
2687.850959  	96.209080 
2688.815383  	96.219952 
2689.779808  	96.242495 
2690.744232  	96.237669 
2691.708657  	96.233763 
2692.673081  	96.271767 
2693.637506  	96.290701 
2694.601930  	96.295281 
2695.566355  	96.289232 
2696.530779  	96.268397 
2697.495203  	96.279448 
2698.459628  	96.292218 
2699.424052  	96.270872 
2700.388477  	96.259986 
2701.352901  	96.242327 
2702.317326  	96.230117 
2703.281750  	96.252785 
2704.246175  	96.264887 
2705.210599  	96.255754 
2706.175024  	96.257741 
2707.139448  	96.250567 
2708.103872  	96.232125 
2709.068297  	96.244689 
2710.032721  	96.249224 
2710.997146  	96.238398 
2711.961570  	96.244608 
2712.925995  	96.268940 
2713.890419  	96.264608 
2714.854844  	96.253559 
2715.819268  	96.271390 
2716.783693  	96.296334 
2717.748117  	96.283118 
2718.712541  	96.260434 
2719.676966  	96.261658 
2720.641390  	96.263067 
2721.605815  	96.260141 
2722.570239  	96.251238 
2723.534664  	96.264536 
2724.499088  	96.241330 
2725.463513  	96.219216 
2726.427937  	96.222260 
2727.392362  	96.240631 
2728.356786  	96.226658 
2729.321210  	96.198369 
2730.285635  	96.215464 
2731.250059  	96.218848 
2732.214484  	96.217541 
2733.178908  	96.203525 
2734.143333  	96.200077 
2735.107757  	96.198491 
2736.072182  	96.211713 
2737.036606  	96.219633 
2738.001031  	96.181546 
2738.965455  	96.147844 
2739.929879  	96.172885 
2740.894304  	96.179468 
2741.858728  	96.184078 
2742.823153  	96.179102 
2743.787577  	96.191101 
2744.752002  	96.196297 
2745.716426  	96.160132 
2746.680851  	96.138813 
2747.645275  	96.140817 
2748.609700  	96.142988 
2749.574124  	96.158316 
2750.538549  	96.157695 
2751.502973  	96.120674 
2752.467397  	96.142075 
2753.431822  	96.157849 
2754.396246  	96.163371 
2755.360671  	96.166603 
2756.325095  	96.174788 
2757.289520  	96.166605 
2758.253944  	96.156847 
2759.218369  	96.138985 
2760.182793  	96.148761 
2761.147218  	96.152510 
2762.111642  	96.147531 
2763.076066  	96.159859 
2764.040491  	96.186140 
2765.004915  	96.181919 
2765.969340  	96.173948 
2766.933764  	96.157007 
2767.898189  	96.135622 
2768.862613  	96.146735 
2769.827038  	96.143683 
2770.791462  	96.129945 
2771.755887  	96.096404 
2772.720311  	96.092396 
2773.684735  	96.120342 
2774.649160  	96.103860 
2775.613584  	96.085469 
2776.578009  	96.109046 
2777.542433  	96.142586 
2778.506858  	96.140121 
2779.471282  	96.120488 
2780.435707  	96.102568 
2781.400131  	96.093445 
2782.364556  	96.079147 
2783.328980  	96.082416 
2784.293404  	96.082411 
2785.257829  	96.074052 
2786.222253  	96.095140 
2787.186678  	96.101481 
2788.151102  	96.092405 
2789.115527  	96.142885 
2790.079951  	96.106335 
2791.044376  	96.043963 
2792.008800  	96.033376 
2792.973225  	96.027046 
2793.937649  	96.029027 
2794.902073  	96.024812 
2795.866498  	96.043646 
2796.830922  	96.068681 
2797.795347  	96.052933 
2798.759771  	96.022726 
2799.724196  	95.989252 
2800.688620  	95.981189 
2801.653045  	95.969235 
2802.617469  	95.985986 
2803.581894  	96.027500 
2804.546318  	96.040747 
2805.510743  	96.015357 
2806.475167  	95.969858 
2807.439591  	95.948488 
2808.404016  	95.960340 
2809.368440  	95.986720 
2810.332865  	96.006440 
2811.297289  	95.963010 
2812.261714  	95.938407 
2813.226138  	95.970992 
2814.190563  	95.958571 
2815.154987  	95.972326 
2816.119412  	96.001168 
2817.083836  	95.956031 
2818.048260  	95.940804 
2819.012685  	95.970587 
2819.977109  	96.006748 
2820.941534  	96.009193 
2821.905958  	95.995333 
2822.870383  	95.974656 
2823.834807  	95.984898 
2824.799232  	95.985898 
2825.763656  	95.984243 
2826.728081  	95.987459 
2827.692505  	95.981765 
2828.656929  	95.999498 
2829.621354  	96.022989 
2830.585778  	95.994113 
2831.550203  	95.954932 
2832.514627  	95.928111 
2833.479052  	95.929225 
2834.443476  	95.948138 
2835.407901  	95.960258 
2836.372325  	95.958357 
2837.336750  	95.959502 
2838.301174  	95.920715 
2839.265598  	95.871374 
2840.230023  	95.869102 
2841.194447  	95.887227 
2842.158872  	95.861954 
2843.123296  	95.830705 
2844.087721  	95.793115 
2845.052145  	95.780626 
2846.016570  	95.751505 
2846.980994  	95.721811 
2847.945419  	95.717632 
2848.909843  	95.691816 
2849.874267  	95.632750 
2850.838692  	95.629958 
2851.803116  	95.653491 
2852.767541  	95.638017 
2853.731965  	95.629357 
2854.696390  	95.633266 
2855.660814  	95.645345 
2856.625239  	95.658225 
2857.589663  	95.654473 
2858.554088  	95.661819 
2859.518512  	95.655610 
2860.482936  	95.657643 
2861.447361  	95.648638 
2862.411785  	95.655630 
2863.376210  	95.661708 
2864.340634  	95.637143 
2865.305059  	95.640287 
2866.269483  	95.670091 
2867.233908  	95.633544 
2868.198332  	95.604473 
2869.162757  	95.606057 
2870.127181  	95.612084 
2871.091606  	95.613563 
2872.056030  	95.609242 
2873.020454  	95.608360 
2873.984879  	95.599474 
2874.949303  	95.571393 
2875.913728  	95.557906 
2876.878152  	95.579994 
2877.842577  	95.565769 
2878.807001  	95.537040 
2879.771426  	95.559830 
2880.735850  	95.529116 
2881.700275  	95.482773 
2882.664699  	95.475373 
2883.629123  	95.471236 
2884.593548  	95.459416 
2885.557972  	95.446632 
2886.522397  	95.404883 
2887.486821  	95.382334 
2888.451246  	95.367746 
2889.415670  	95.396179 
2890.380095  	95.402067 
2891.344519  	95.385989 
2892.308944  	95.375015 
2893.273368  	95.339788 
2894.237792  	95.332808 
2895.202217  	95.292937 
2896.166641  	95.277306 
2897.131066  	95.276472 
2898.095490  	95.282019 
2899.059915  	95.258070 
2900.024339  	95.209339 
2900.988764  	95.172832 
2901.953188  	95.160824 
2902.917613  	95.114891 
2903.882037  	95.057356 
2904.846461  	95.020634 
2905.810886  	94.980028 
2906.775310  	94.953273 
2907.739735  	94.913937 
2908.704159  	94.866880 
2909.668584  	94.881429 
2910.633008  	94.906412 
2911.597433  	94.922838 
2912.561857  	94.953112 
2913.526282  	94.994702 
2914.490706  	95.018092 
2915.455130  	95.047359 
2916.419555  	95.096372 
2917.383979  	95.117001 
2918.348404  	95.122943 
2919.312828  	95.149727 
2920.277253  	95.150450 
2921.241677  	95.122450 
2922.206102  	95.170717 
2923.170526  	95.207395 
2924.134951  	95.218101 
2925.099375  	95.209461 
2926.063800  	95.211810 
2927.028224  	95.208379 
2927.992648  	95.223787 
2928.957073  	95.286751 
2929.921497  	95.292171 
2930.885922  	95.277910 
2931.850346  	95.294658 
2932.814771  	95.310802 
2933.779195  	95.310195 
2934.743620  	95.285223 
2935.708044  	95.258170 
2936.672469  	95.252593 
2937.636893  	95.280442 
2938.601317  	95.248422 
2939.565742  	95.225843 
2940.530166  	95.201023 
2941.494591  	95.165265 
2942.459015  	95.126559 
2943.423440  	95.075091 
2944.387864  	95.024313 
2945.352289  	94.994975 
2946.316713  	94.991507 
2947.281138  	94.949958 
2948.245562  	94.893549 
2949.209986  	94.797738 
2950.174411  	94.711430 
2951.138835  	94.712578 
2952.103260  	94.650386 
2953.067684  	94.566426 
2954.032109  	94.516434 
2954.996533  	94.487804 
2955.960958  	94.421539 
2956.925382  	94.322628 
2957.889807  	94.271066 
2958.854231  	94.239775 
2959.818655  	94.185525 
2960.783080  	94.158329 
2961.747504  	94.124652 
2962.711929  	94.065274 
2963.676353  	93.972325 
2964.640778  	93.871476 
2965.605202  	93.804671 
2966.569627  	93.774261 
2967.534051  	93.802348 
2968.498476  	93.818910 
2969.462900  	93.777156 
2970.427324  	93.751897 
2971.391749  	93.747572 
2972.356173  	93.805540 
2973.320598  	93.890797 
2974.285022  	93.946597 
2975.249447  	93.997246 
2976.213871  	94.062303 
2977.178296  	94.125815 
2978.142720  	94.191810 
2979.107145  	94.285233 
2980.071569  	94.409851 
2981.035993  	94.455039 
2982.000418  	94.505104 
2982.964842  	94.575199 
2983.929267  	94.617378 
2984.893691  	94.664068 
2985.858116  	94.689860 
2986.822540  	94.782941 
2987.786965  	94.838125 
2988.751389  	94.822286 
2989.715814  	94.825173 
2990.680238  	94.896120 
2991.644663  	94.968650 
2992.609087  	94.970725 
2993.573511  	94.962434 
2994.537936  	94.968953 
2995.502360  	95.032568 
2996.466785  	95.047320 
2997.431209  	95.006283 
2998.395634  	95.027649 
2999.360058  	95.075183 
3000.324483  	95.119179 
3001.288907  	95.101453 
3002.253332  	95.052289 
3003.217756  	95.022633 
3004.182180  	94.998106 
3005.146605  	95.032162 
3006.111029  	95.101044 
3007.075454  	95.149399 
3008.039878  	95.158733 
3009.004303  	95.203353 
3009.968727  	95.212290 
3010.933152  	95.178733 
3011.897576  	95.185102 
3012.862001  	95.167636 
3013.826425  	95.245163 
3014.790849  	95.325022 
3015.755274  	95.300232 
3016.719698  	95.322605 
3017.684123  	95.388116 
3018.648547  	95.428469 
3019.612972  	95.456898 
3020.577396  	95.488048 
3021.541821  	95.518442 
3022.506245  	95.551491 
3023.470670  	95.559666 
3024.435094  	95.599459 
3025.399518  	95.637899 
3026.363943  	95.673181 
3027.328367  	95.708674 
3028.292792  	95.706043 
3029.257216  	95.723721 
3030.221641  	95.724356 
3031.186065  	95.647434 
3032.150490  	95.609913 
3033.114914  	95.677854 
3034.079339  	95.706933 
3035.043763  	95.698566 
3036.008187  	95.713116 
3036.972612  	95.726581 
3037.937036  	95.725814 
3038.901461  	95.759887 
3039.865885  	95.770174 
3040.830310  	95.764148 
3041.794734  	95.738732 
3042.759159  	95.718299 
3043.723583  	95.749548 
3044.688008  	95.737810 
3045.652432  	95.732696 
3046.616857  	95.703366 
3047.581281  	95.672574 
3048.545705  	95.602949 
3049.510130  	95.554564 
3050.474554  	95.548501 
3051.438979  	95.516362 
3052.403403  	95.512850 
3053.367828  	95.475386 
3054.332252  	95.409491 
3055.296677  	95.401173 
3056.261101  	95.362742 
3057.225526  	95.363769 
3058.189950  	95.472674 
3059.154374  	95.556176 
3060.118799  	95.574506 
3061.083223  	95.576903 
3062.047648  	95.539378 
3063.012072  	95.508084 
3063.976497  	95.431967 
3064.940921  	95.367396 
3065.905346  	95.431494 
3066.869770  	95.438834 
3067.834195  	95.391354 
3068.798619  	95.439811 
3069.763043  	95.446494 
3070.727468  	95.441229 
3071.691892  	95.469759 
3072.656317  	95.465545 
3073.620741  	95.457866 
3074.585166  	95.494460 
3075.549590  	95.501774 
3076.514015  	95.453210 
3077.478439  	95.394290 
3078.442864  	95.408361 
3079.407288  	95.429776 
3080.371712  	95.433527 
3081.336137  	95.484762 
3082.300561  	95.458785 
3083.264986  	95.489718 
3084.229410  	95.566327 
3085.193835  	95.553608 
3086.158259  	95.564049 
3087.122684  	95.539966 
3088.087108  	95.556097 
3089.051533  	95.583188 
3090.015957  	95.572766 
3090.980381  	95.596583 
3091.944806  	95.651542 
3092.909230  	95.687584 
3093.873655  	95.666328 
3094.838079  	95.622520 
3095.802504  	95.624328 
3096.766928  	95.632529 
3097.731353  	95.595005 
3098.695777  	95.613051 
3099.660202  	95.625392 
3100.624626  	95.527624 
3101.589050  	95.441220 
3102.553475  	95.471085 
3103.517899  	95.515759 
3104.482324  	95.550983 
3105.446748  	95.556543 
3106.411173  	95.534230 
3107.375597  	95.526022 
3108.340022  	95.577782 
3109.304446  	95.626151 
3110.268871  	95.610813 
3111.233295  	95.597328 
3112.197720  	95.583354 
3113.162144  	95.601474 
3114.126568  	95.638248 
3115.090993  	95.647436 
3116.055417  	95.678996 
3117.019842  	95.714903 
3117.984266  	95.703090 
3118.948691  	95.669089 
3119.913115  	95.750641 
3120.877540  	95.801978 
3121.841964  	95.721274 
3122.806389  	95.657229 
3123.770813  	95.660446 
3124.735237  	95.703311 
3125.699662  	95.698788 
3126.664086  	95.663577 
3127.628511  	95.717428 
3128.592935  	95.777455 
3129.557360  	95.744649 
3130.521784  	95.699413 
3131.486209  	95.719939 
3132.450633  	95.691545 
3133.415058  	95.700831 
3134.379482  	95.811870 
3135.343906  	95.846008 
3136.308331  	95.840080 
3137.272755  	95.788159 
3138.237180  	95.773666 
3139.201604  	95.790788 
3140.166029  	95.783451 
3141.130453  	95.820547 
3142.094878  	95.784256 
3143.059302  	95.737972 
3144.023727  	95.774679 
3144.988151  	95.833116 
3145.952575  	95.817297 
3146.917000  	95.771125 
3147.881424  	95.801840 
3148.845849  	95.873739 
3149.810273  	95.852594 
3150.774698  	95.856258 
3151.739122  	95.855682 
3152.703547  	95.840241 
3153.667971  	95.828267 
3154.632396  	95.843468 
3155.596820  	95.855471 
3156.561244  	95.800748 
3157.525669  	95.804096 
3158.490093  	95.828658 
3159.454518  	95.857359 
3160.418942  	95.854291 
3161.383367  	95.815376 
3162.347791  	95.758349 
3163.312216  	95.753348 
3164.276640  	95.795431 
3165.241065  	95.850619 
3166.205489  	95.839921 
3167.169914  	95.840273 
3168.134338  	95.810825 
3169.098762  	95.784769 
3170.063187  	95.745708 
3171.027611  	95.739467 
3171.992036  	95.820762 
3172.956460  	95.858043 
3173.920885  	95.824764 
3174.885309  	95.776273 
3175.849734  	95.789269 
3176.814158  	95.807659 
3177.778583  	95.738627 
3178.743007  	95.706238 
3179.707431  	95.728889 
3180.671856  	95.790821 
3181.636280  	95.852832 
3182.600705  	95.859982 
3183.565129  	95.798262 
3184.529554  	95.769476 
3185.493978  	95.767207 
3186.458403  	95.760723 
3187.422827  	95.740208 
3188.387252  	95.680938 
3189.351676  	95.742430 
3190.316100  	95.778405 
3191.280525  	95.754020 
3192.244949  	95.808821 
3193.209374  	95.868567 
3194.173798  	95.795963 
3195.138223  	95.743443 
3196.102647  	95.695673 
3197.067072  	95.672674 
3198.031496  	95.656013 
3198.995921  	95.726772 
3199.960345  	95.792704 
3200.924769  	95.771861 
3201.889194  	95.745435 
3202.853618  	95.739936 
3203.818043  	95.773224 
3204.782467  	95.776965 
3205.746892  	95.725214 
3206.711316  	95.674904 
3207.675741  	95.675296 
3208.640165  	95.675955 
3209.604590  	95.661609 
3210.569014  	95.671561 
3211.533438  	95.728310 
3212.497863  	95.753707 
3213.462287  	95.739217 
3214.426712  	95.699687 
3215.391136  	95.662955 
3216.355561  	95.637729 
3217.319985  	95.666098 
3218.284410  	95.683016 
3219.248834  	95.665240 
3220.213259  	95.708322 
3221.177683  	95.782231 
3222.142107  	95.740690 
3223.106532  	95.739919 
3224.070956  	95.785983 
3225.035381  	95.755728 
3225.999805  	95.766073 
3226.964230  	95.749041 
3227.928654  	95.685117 
3228.893079  	95.684340 
3229.857503  	95.721452 
3230.821928  	95.705277 
3231.786352  	95.681310 
3232.750777  	95.710224 
3233.715201  	95.713340 
3234.679625  	95.690582 
3235.644050  	95.680240 
3236.608474  	95.714082 
3237.572899  	95.719108 
3238.537323  	95.716363 
3239.501748  	95.688120 
3240.466172  	95.664607 
3241.430597  	95.704920 
3242.395021  	95.698354 
3243.359446  	95.630372 
3244.323870  	95.610713 
3245.288294  	95.569436 
3246.252719  	95.628520 
3247.217143  	95.687320 
3248.181568  	95.664824 
3249.145992  	95.668046 
3250.110417  	95.698666 
3251.074841  	95.738202 
3252.039266  	95.732575 
3253.003690  	95.696702 
3253.968115  	95.636911 
3254.932539  	95.592281 
3255.896963  	95.627192 
3256.861388  	95.652667 
3257.825812  	95.691516 
3258.790237  	95.645662 
3259.754661  	95.606170 
3260.719086  	95.615180 
3261.683510  	95.658529 
3262.647935  	95.653691 
3263.612359  	95.660703 
3264.576784  	95.715750 
3265.541208  	95.732045 
3266.505632  	95.703370 
3267.470057  	95.715386 
3268.434481  	95.728047 
3269.398906  	95.678032 
3270.363330  	95.643144 
3271.327755  	95.664542 
3272.292179  	95.711106 
3273.256604  	95.681485 
3274.221028  	95.608177 
3275.185453  	95.660603 
3276.149877  	95.681419 
3277.114301  	95.641592 
3278.078726  	95.667539 
3279.043150  	95.678317 
3280.007575  	95.639068 
3280.971999  	95.605234 
3281.936424  	95.635946 
3282.900848  	95.655972 
3283.865273  	95.614283 
3284.829697  	95.588574 
3285.794122  	95.598238 
3286.758546  	95.590977 
3287.722971  	95.548187 
3288.687395  	95.563701 
3289.651819  	95.631046 
3290.616244  	95.637502 
3291.580668  	95.575453 
3292.545093  	95.538905 
3293.509517  	95.556853 
3294.473942  	95.542712 
3295.438366  	95.528183 
3296.402791  	95.567614 
3297.367215  	95.589901 
3298.331640  	95.599744 
3299.296064  	95.678135 
3300.260488  	95.683270 
3301.224913  	95.606695 
3302.189337  	95.651273 
3303.153762  	95.685446 
3304.118186  	95.678697 
3305.082611  	95.685882 
3306.047035  	95.691334 
3307.011460  	95.715714 
3307.975884  	95.646614 
3308.940309  	95.579670 
3309.904733  	95.617657 
3310.869157  	95.619404 
3311.833582  	95.570778 
3312.798006  	95.619069 
3313.762431  	95.653608 
3314.726855  	95.635276 
3315.691280  	95.618447 
3316.655704  	95.623589 
3317.620129  	95.631237 
3318.584553  	95.615185 
3319.548978  	95.616993 
3320.513402  	95.606437 
3321.477826  	95.635793 
3322.442251  	95.645816 
3323.406675  	95.675632 
3324.371100  	95.679295 
3325.335524  	95.654544 
3326.299949  	95.670327 
3327.264373  	95.651310 
3328.228798  	95.603625 
3329.193222  	95.616570 
3330.157647  	95.617658 
3331.122071  	95.603410 
3332.086495  	95.684359 
3333.050920  	95.682712 
3334.015344  	95.544955 
3334.979769  	95.468109 
3335.944193  	95.545916 
3336.908618  	95.603347 
3337.873042  	95.631271 
3338.837467  	95.649720 
3339.801891  	95.682476 
3340.766316  	95.748853 
3341.730740  	95.665350 
3342.695164  	95.550643 
3343.659589  	95.649157 
3344.624013  	95.793505 
3345.588438  	95.793327 
3346.552862  	95.693494 
3347.517287  	95.653578 
3348.481711  	95.663198 
3349.446136  	95.696552 
3350.410560  	95.719400 
3351.374985  	95.741238 
3352.339409  	95.808338 
3353.303834  	95.771794 
3354.268258  	95.719441 
3355.232682  	95.708817 
3356.197107  	95.593662 
3357.161531  	95.606418 
3358.125956  	95.663347 
3359.090380  	95.678732 
3360.054805  	95.624963 
3361.019229  	95.567624 
3361.983654  	95.604793 
3362.948078  	95.696407 
3363.912503  	95.706795 
3364.876927  	95.610724 
3365.841351  	95.667733 
3366.805776  	95.723300 
3367.770200  	95.642771 
3368.734625  	95.569015 
3369.699049  	95.656587 
3370.663474  	95.731761 
3371.627898  	95.714757 
3372.592323  	95.669307 
3373.556747  	95.617629 
3374.521172  	95.675118 
3375.485596  	95.705170 
3376.450020  	95.663968 
3377.414445  	95.612168 
3378.378869  	95.637813 
3379.343294  	95.752952 
3380.307718  	95.750088 
3381.272143  	95.762138 
3382.236567  	95.707444 
3383.200992  	95.658027 
3384.165416  	95.599025 
3385.129841  	95.595130 
3386.094265  	95.674076 
3387.058689  	95.732639 
3388.023114  	95.745854 
3388.987538  	95.704266 
3389.951963  	95.642489 
3390.916387  	95.646205 
3391.880812  	95.621356 
3392.845236  	95.516253 
3393.809661  	95.525115 
3394.774085  	95.676445 
3395.738510  	95.672502 
3396.702934  	95.570844 
3397.667358  	95.471405 
3398.631783  	95.633756 
3399.596207  	95.850335 
3400.560632  	95.833681 
3401.525056  	95.733330 
3402.489481  	95.699965 
3403.453905  	95.625667 
3404.418330  	95.582648 
3405.382754  	95.648981 
3406.347179  	95.665554 
3407.311603  	95.603331 
3408.276028  	95.582246 
3409.240452  	95.505895 
3410.204876  	95.441931 
3411.169301  	95.458254 
3412.133725  	95.506659 
3413.098150  	95.587269 
3414.062574  	95.592865 
3415.026999  	95.493514 
3415.991423  	95.373598 
3416.955848  	95.358324 
3417.920272  	95.354246 
3418.884697  	95.335469 
3419.849121  	95.224501 
3420.813545  	95.042581 
3421.777970  	95.009201 
3422.742394  	95.051173 
3423.706819  	95.154457 
3424.671243  	95.239288 
3425.635668  	95.250852 
3426.600092  	95.240514 
3427.564517  	95.195009 
3428.528941  	95.167205 
3429.493366  	95.164594 
3430.457790  	95.135657 
3431.422214  	95.090271 
3432.386639  	95.088425 
3433.351063  	95.139857 
3434.315488  	95.231635 
3435.279912  	95.246641 
3436.244337  	95.289960 
3437.208761  	95.293358 
3438.173186  	95.255747 
3439.137610  	95.232445 
3440.102035  	95.275746 
3441.066459  	95.317688 
3442.030883  	95.325439 
3442.995308  	95.210323 
3443.959732  	95.254703 
3444.924157  	95.306119 
3445.888581  	95.317695 
3446.853006  	95.121515 
3447.817430  	94.825214 
3448.781855  	95.164066 
3449.746279  	95.435885 
3450.710704  	95.475196 
3451.675128  	95.460060 
3452.639552  	95.456866 
3453.603977  	95.496625 
3454.568401  	95.551098 
3455.532826  	95.540618 
3456.497250  	95.540926 
3457.461675  	95.471902 
3458.426099  	95.450562 
3459.390524  	95.514242 
3460.354948  	95.550169 
3461.319373  	95.477677 
3462.283797  	95.414185 
3463.248221  	95.406053 
3464.212646  	95.542871 
3465.177070  	95.575734 
3466.141495  	95.526779 
3467.105919  	95.379707 
3468.070344  	95.499085 
3469.034768  	95.716246 
3469.999193  	95.737503 
3470.963617  	95.681156 
3471.928042  	95.642928 
3472.892466  	95.627453 
3473.856891  	95.621702 
3474.821315  	95.603479 
3475.785739  	95.689674 
3476.750164  	95.707026 
3477.714588  	95.714848 
3478.679013  	95.736475 
3479.643437  	95.695532 
3480.607862  	95.528651 
3481.572286  	95.387248 
3482.536711  	95.301506 
3483.501135  	95.505031 
3484.465560  	95.708972 
3485.429984  	95.676172 
3486.394408  	95.703874 
3487.358833  	95.701872 
3488.323257  	95.462558 
3489.287682  	95.410499 
3490.252106  	95.582191 
3491.216531  	95.638386 
3492.180955  	95.678405 
3493.145380  	95.732574 
3494.109804  	95.781128 
3495.074229  	95.666889 
3496.038653  	95.507488 
3497.003077  	95.492764 
3497.967502  	95.579176 
3498.931926  	95.663695 
3499.896351  	95.598094 
3500.860775  	95.532274 
3501.825200  	95.443909 
3502.789624  	95.155308 
3503.754049  	95.009670 
3504.718473  	95.250930 
3505.682898  	95.449228 
3506.647322  	95.626196 
3507.611746  	95.701974 
3508.576171  	95.531857 
3509.540595  	95.137268 
3510.505020  	95.168169 
3511.469444  	95.399980 
3512.433869  	95.483063 
3513.398293  	95.551337 
3514.362718  	95.624164 
3515.327142  	95.739735 
3516.291567  	95.737674 
3517.255991  	95.601152 
3518.220415  	95.537189 
3519.184840  	95.535148 
3520.149264  	95.522291 
3521.113689  	95.609236 
3522.078113  	95.586282 
3523.042538  	95.118284 
3524.006962  	94.810350 
3524.971387  	95.114928 
3525.935811  	95.241452 
3526.900236  	95.199291 
3527.864660  	95.072397 
3528.829085  	95.064021 
3529.793509  	95.161489 
3530.757933  	95.361270 
3531.722358  	95.386942 
3532.686782  	95.565254 
3533.651207  	95.693734 
3534.615631  	95.661269 
3535.580056  	95.495881 
3536.544480  	95.144625 
3537.508905  	95.207151 
3538.473329  	95.557748 
3539.437754  	95.597529 
3540.402178  	95.605040 
3541.366602  	95.574320 
3542.331027  	95.612147 
3543.295451  	95.489507 
3544.259876  	95.187711 
3545.224300  	94.583974 
3546.188725  	94.446618 
3547.153149  	94.579757 
3548.117574  	94.779873 
3549.081998  	95.278374 
3550.046423  	95.510198 
3551.010847  	95.482895 
3551.975271  	95.137685 
3552.939696  	94.858550 
3553.904120  	95.121425 
3554.868545  	95.429936 
3555.832969  	95.670532 
3556.797394  	95.567341 
3557.761818  	95.526452 
3558.726243  	95.619681 
3559.690667  	95.464078 
3560.655092  	95.153956 
3561.619516  	95.352825 
3562.583940  	95.403167 
3563.548365  	95.281792 
3564.512789  	95.194017 
3565.477214  	94.805505 
3566.441638  	93.419192 
3567.406063  	93.219341 
3568.370487  	93.517579 
3569.334912  	94.369825 
3570.299336  	95.313705 
3571.263761  	95.488887 
3572.228185  	95.643531 
3573.192609  	95.625255 
3574.157034  	95.530688 
3575.121458  	95.532716 
3576.085883  	95.632475 
3577.050307  	95.572180 
3578.014732  	95.541383 
3578.979156  	95.615447 
3579.943581  	95.385110 
3580.908005  	95.284427 
3581.872430  	95.613349 
3582.836854  	95.718755 
3583.801278  	95.529759 
3584.765703  	95.459890 
3585.730127  	95.325407 
3586.694552  	94.424372 
3587.658976  	93.626244 
3588.623401  	93.890580 
3589.587825  	94.443219 
3590.552250  	95.345921 
3591.516674  	95.656492 
3592.481099  	95.690215 
3593.445523  	95.246603 
3594.409948  	95.096076 
3595.374372  	94.950754 
3596.338796  	94.798091 
3597.303221  	95.357140 
3598.267645  	95.417625 
3599.232070  	95.158333 
3600.196494  	95.196163 
3601.160919  	95.024157 
3602.125343  	95.172486 
3603.089768  	95.450909 
3604.054192  	95.613970 
3605.018617  	95.689827 
3605.983041  	95.609018 
3606.947465  	95.032312 
3607.911890  	94.547278 
3608.876314  	94.880004 
3609.840739  	94.588620 
3610.805163  	95.083431 
3611.769588  	95.384605 
3612.734012  	94.587711 
3613.698437  	94.295228 
3614.662861  	94.564614 
3615.627286  	94.570608 
3616.591710  	95.229499 
3617.556134  	95.090205 
3618.520559  	94.395292 
3619.484983  	94.340003 
3620.449408  	94.245750 
3621.413832  	94.777482 
3622.378257  	95.386588 
3623.342681  	95.728132 
3624.307106  	95.810077 
3625.271530  	95.679412 
3626.235955  	95.304821 
3627.200379  	95.152578 
3628.164803  	94.870855 
3629.129228  	93.066100 
3630.093652  	92.916872 
3631.058077  	94.564642 
3632.022501  	95.442236 
3632.986926  	95.576196 
3633.951350  	95.069426 
3634.915775  	95.064065 
3635.880199  	95.617851 
3636.844624  	95.870833 
3637.809048  	95.802606 
3638.773472  	95.623547 
3639.737897  	95.733598 
3640.702321  	95.821538 
3641.666746  	95.745319 
3642.631170  	95.489710 
3643.595595  	95.470558 
3644.560019  	95.710487 
3645.524444  	95.652606 
3646.488868  	95.105957 
3647.453293  	93.803609 
3648.417717  	93.515035 
3649.382142  	93.625711 
3650.346566  	93.199634 
3651.310990  	93.313233 
3652.275415  	94.413490 
3653.239839  	95.448934 
3654.204264  	95.796542 
3655.168688  	95.823796 
3656.133113  	95.319545 
3657.097537  	94.721328 
3658.061962  	95.488838 
3659.026386  	95.979309 
3659.990811  	95.936309 
3660.955235  	95.928706 
3661.919659  	96.057376 
3662.884084  	96.079340 
3663.848508  	96.099596 
3664.812933  	96.160992 
3665.777357  	96.144651 
3666.741782  	96.148245 
3667.706206  	96.100528 
3668.670631  	95.552251 
3669.635055  	94.700463 
3670.599480  	94.473129 
3671.563904  	94.371611 
3672.528328  	95.356765 
3673.492753  	95.855253 
3674.457177  	95.373947 
3675.421602  	93.400751 
3676.386026  	92.804263 
3677.350451  	94.273395 
3678.314875  	95.252685 
3679.279300  	95.468181 
3680.243724  	95.246666 
3681.208149  	95.758438 
3682.172573  	96.132023 
3683.136997  	96.195268 
3684.101422  	96.190168 
3685.065846  	96.018418 
3686.030271  	96.055415 
3686.994695  	96.020854 
3687.959120  	95.658647 
3688.923544  	94.535460 
3689.887969  	94.744744 
3690.852393  	94.954938 
3691.816818  	94.681762 
3692.781242  	95.495412 
3693.745666  	95.965807 
3694.710091  	96.144083 
3695.674515  	96.283883 
3696.638940  	96.185983 
3697.603364  	96.216255 
3698.567789  	96.336448 
3699.532213  	96.285341 
3700.496638  	96.290808 
3701.461062  	95.942649 
3702.425487  	95.277540 
3703.389911  	95.808527 
3704.354335  	96.331356 
3705.318760  	96.311296 
3706.283184  	96.234437 
3707.247609  	96.274564 
3708.212033  	96.316771 
3709.176458  	95.950817 
3710.140882  	95.170443 
3711.105307  	95.109649 
3712.069731  	94.697426 
3713.034156  	94.266445 
3713.998580  	95.364036 
3714.963005  	95.732221 
3715.927429  	95.907613 
3716.891853  	96.298674 
3717.856278  	96.413520 
3718.820702  	96.006029 
3719.785127  	95.604685 
3720.749551  	96.086738 
3721.713976  	96.114551 
3722.678400  	95.187880 
3723.642825  	95.278593 
3724.607249  	95.692713 
3725.571674  	95.336133 
3726.536098  	95.178597 
3727.500522  	95.191755 
3728.464947  	95.822381 
3729.429371  	96.261917 
3730.393796  	96.245756 
3731.358220  	96.065999 
3732.322645  	95.352262 
3733.287069  	94.945747 
3734.251494  	95.087372 
3735.215918  	93.345823 
3736.180343  	92.995445 
3737.144767  	94.064028 
3738.109191  	94.800543 
3739.073616  	95.196009 
3740.038040  	95.712352 
3741.002465  	95.585382 
3741.966889  	95.323138 
3742.931314  	95.789760 
3743.895738  	95.715794 
3744.860163  	93.330242 
3745.824587  	93.588980 
3746.789012  	94.969103 
3747.753436  	95.411828 
3748.717860  	95.534350 
3749.682285  	94.924376 
3750.646709  	94.148801 
3751.611134  	94.583382 
3752.575558  	93.878553 
3753.539983  	94.394064 
3754.504407  	95.425167 
3755.468832  	95.975636 
3756.433256  	95.798527 
3757.397681  	95.466063 
3758.362105  	95.732062 
3759.326529  	95.436776 
3760.290954  	94.813298 
3761.255378  	95.605841 
3762.219803  	96.150341 
3763.184227  	96.216952 
3764.148652  	96.209797 
3765.113076  	96.052065 
3766.077501  	95.402541 
3767.041925  	95.592793 
3768.006350  	96.164483 
3768.970774  	96.189723 
3769.935199  	95.526186 
3770.899623  	95.098025 
3771.864047  	95.767672 
3772.828472  	96.245000 
3773.792896  	96.401045 
3774.757321  	96.405464 
3775.721745  	96.421934 
3776.686170  	96.435617 
3777.650594  	96.424863 
3778.615019  	96.302232 
3779.579443  	95.739558 
3780.543868  	95.438186 
3781.508292  	96.071406 
3782.472716  	96.299359 
3783.437141  	96.382379 
3784.401565  	96.188623 
3785.365990  	95.749050 
3786.330414  	95.903141 
3787.294839  	96.205973 
3788.259263  	96.379322 
3789.223688  	96.449126 
3790.188112  	96.421252 
3791.152537  	96.476604 
3792.116961  	96.479895 
3793.081385  	96.466836 
3794.045810  	96.469421 
3795.010234  	96.454259 
3795.974659  	96.243285 
3796.939083  	95.519709 
3797.903508  	95.410787 
3798.867932  	95.911475 
3799.832357  	96.142353 
3800.796781  	95.737867 
3801.761206  	94.408018 
3802.725630  	94.270385 
3803.690054  	95.196292 
3804.654479  	96.047927 
3805.618903  	96.327081 
3806.583328  	95.982862 
3807.547752  	94.981130 
3808.512177  	95.520158 
3809.476601  	96.244386 
3810.441026  	96.413515 
3811.405450  	96.464099 
3812.369875  	96.400059 
3813.334299  	96.297005 
3814.298723  	96.242724 
3815.263148  	96.182210 
3816.227572  	95.300255 
3817.191997  	94.702347 
3818.156421  	95.576263 
3819.120846  	95.874590 
3820.085270  	95.659104 
3821.049695  	94.672692 
3822.014119  	93.837735 
3822.978544  	94.988615 
3823.942968  	95.757143 
3824.907392  	96.048630 
3825.871817  	96.074532 
3826.836241  	95.691745 
3827.800666  	95.482975 
3828.765090  	95.965089 
3829.729515  	96.299352 
3830.693939  	96.343086 
3831.658364  	95.827632 
3832.622788  	95.395001 
3833.587213  	95.970978 
3834.551637  	96.074439 
3835.516062  	95.424748 
3836.480486  	95.616311 
3837.444910  	95.708875 
3838.409335  	94.521764 
3839.373759  	94.777372 
3840.338184  	94.911447 
3841.302608  	94.762170 
3842.267033  	95.533923 
3843.231457  	95.890665 
3844.195882  	95.290681 
3845.160306  	95.549696 
3846.124731  	96.169662 
3847.089155  	96.347369 
3848.053579  	96.371184 
3849.018004  	96.190475 
3849.982428  	95.810247 
3850.946853  	95.829406 
3851.911277  	95.488597 
3852.875702  	94.101381 
3853.840126  	93.883852 
3854.804551  	93.365493 
3855.768975  	94.764122 
3856.733400  	95.565466 
3857.697824  	95.409376 
3858.662248  	95.863826 
3859.626673  	96.341305 
3860.591097  	96.386019 
3861.555522  	96.025393 
3862.519946  	95.380083 
3863.484371  	95.620272 
3864.448795  	95.492925 
3865.413220  	94.594669 
3866.377644  	95.094663 
3867.342069  	95.986370 
3868.306493  	96.239405 
3869.270917  	95.648906 
3870.235342  	94.023443 
3871.199766  	94.281695 
3872.164191  	95.396119 
3873.128615  	96.004744 
3874.093040  	95.471516 
3875.057464  	94.899137 
3876.021889  	95.883170 
3876.986313  	96.387110 
3877.950738  	96.469867 
3878.915162  	96.475131 
3879.879586  	96.062547 
3880.844011  	94.616102 
3881.808435  	94.968748 
3882.772860  	95.865710 
3883.737284  	95.788025 
3884.701709  	95.843947 
3885.666133  	95.545370 
3886.630558  	94.714253 
3887.594982  	95.708036 
3888.559407  	96.349736 
3889.523831  	96.409799 
3890.488256  	96.198623 
3891.452680  	95.409174 
3892.417104  	94.929841 
3893.381529  	95.763564 
3894.345953  	95.982433 
3895.310378  	96.107433 
3896.274802  	96.359412 
3897.239227  	96.375833 
3898.203651  	96.060296 
3899.168076  	95.407442 
3900.132500  	94.958476 
3901.096925  	95.603973 
3902.061349  	95.058899 
3903.025773  	94.629013 
3903.990198  	95.179381 
3904.954622  	94.859643 
3905.919047  	95.020351 
3906.883471  	95.601129 
3907.847896  	96.283625 
3908.812320  	96.512072 
3909.776745  	96.499652 
3910.741169  	96.440505 
3911.705594  	96.436542 
3912.670018  	96.467431 
3913.634442  	96.475355 
3914.598867  	96.496787 
3915.563291  	96.459547 
3916.527716  	95.950253 
3917.492140  	95.289928 
3918.456565  	95.644011 
3919.420989  	96.130306 
3920.385414  	95.811869 
3921.349838  	95.909725 
3922.314263  	96.372812 
3923.278687  	96.299076 
3924.243111  	95.858103 
3925.207536  	95.443851 
3926.171960  	95.753453 
3927.136385  	96.359304 
3928.100809  	96.489713 
3929.065234  	96.337791 
3930.029658  	96.074601 
3930.994083  	95.946289 
3931.958507  	95.779609 
3932.922932  	95.435145 
3933.887356  	95.801970 
3934.851780  	96.147554 
3935.816205  	96.377926 
3936.780629  	96.549695 
3937.745054  	96.507950 
3938.709478  	96.339997 
3939.673903  	96.376566 
3940.638327  	96.435306 
3941.602752  	96.387791 
3942.567176  	95.961290 
3943.531601  	95.529059 
3944.496025  	96.005705 
3945.460449  	96.344103 
3946.424874  	96.424337 
3947.389298  	96.105221 
3948.353723  	95.835058 
3949.318147  	95.999664 
3950.282572  	95.813199 
3951.246996  	95.958341 
3952.211421  	96.395955 
3953.175845  	96.348181 
3954.140270  	96.358160 
3955.104694  	96.448978 
3956.069119  	96.469370 
3957.033543  	96.380825 
3957.997967  	96.365070 
3958.962392  	96.392471 
3959.926816  	96.376899 
3960.891241  	96.347174 
3961.855665  	96.152575 
3962.820090  	96.106892 
3963.784514  	96.425493 
3964.748939  	96.480060 
3965.713363  	96.479304 
3966.677788  	96.496473 
3967.642212  	96.470595 
3968.606636  	96.405861 
3969.571061  	96.343556 
3970.535485  	96.385639 
3971.499910  	96.441088 
3972.464334  	96.290421 
3973.428759  	96.353895 
3974.393183  	96.465491 
3975.357608  	96.386127 
3976.322032  	96.266591 
3977.286457  	96.358218 
3978.250881  	96.493490 
3979.215305  	96.526637 
3980.179730  	96.502231 
3981.144154  	96.461650 
3982.108579  	96.432498 
3983.073003  	96.437378 
3984.037428  	96.515339 
3985.001852  	96.530663 
3985.966277  	96.488404 
3986.930701  	96.522022 
3987.895126  	96.550652 
3988.859550  	96.563065 
3989.823974  	96.499001 
3990.788399  	96.365673 
3991.752823  	96.411352 
3992.717248  	96.518662 
3993.681672  	96.476523 
3994.646097  	96.385368 
3995.610521  	96.315310 
3996.574946  	96.429501 
3997.539370  	96.542975 
3998.503795  	96.572754 
3999.468219  	96.567389 
4000.432643  	96.603298 
4001.397068  	96.576968 
4002.361492  	96.545996 
4003.325917  	96.524422 
4004.290341  	96.536394 
4005.254766  	96.564271 
4006.219190  	96.555093 
4007.183615  	96.510287 
4008.148039  	96.435634 
4009.112464  	96.342852 
4010.076888  	96.439936 
4011.041313  	96.536183 
4012.005737  	96.548376 
4012.970161  	96.528714 
4013.934586  	96.540046 
4014.899010  	96.532036 
4015.863435  	96.509910 
4016.827859  	96.500841 
4017.792284  	96.509977 
4018.756708  	96.564435 
4019.721133  	96.526068 
4020.685557  	96.449442 
4021.649982  	96.490732 
4022.614406  	96.537085 
4023.578830  	96.531710 
4024.543255  	96.522296 
4025.507679  	96.473328 
4026.472104  	96.479608 
4027.436528  	96.567490 
4028.400953  	96.553215 
4029.365377  	96.531740 
4030.329802  	96.554972 
4031.294226  	96.565855 
4032.258651  	96.540161 
4033.223075  	96.587295 
4034.187499  	96.606155 
4035.151924  	96.536870 
4036.116348  	96.497357 
4037.080773  	96.547630 
4038.045197  	96.579916 
4039.009622  	96.554261 
4039.974046  	96.528041 
4040.938471  	96.560845 
4041.902895  	96.553924 
4042.867320  	96.544961 
4043.831744  	96.514556 
4044.796168  	96.430080 
4045.760593  	96.387440 
4046.725017  	96.480601 
4047.689442  	96.556263 
4048.653866  	96.548647 
4049.618291  	96.527460 
4050.582715  	96.545012 
4051.547140  	96.548645 
4052.511564  	96.544566 
4053.475989  	96.572115 
4054.440413  	96.543042 
4055.404837  	96.475286 
4056.369262  	96.485609 
4057.333686  	96.552291 
4058.298111  	96.562811 
4059.262535  	96.581611 
4060.226960  	96.551802 
4061.191384  	96.498878 
4062.155809  	96.528720 
4063.120233  	96.538314 
4064.084658  	96.533246 
4065.049082  	96.522660 
4066.013506  	96.528808 
4066.977931  	96.500679 
4067.942355  	96.500318 
4068.906780  	96.499805 
4069.871204  	96.520251 
4070.835629  	96.546600 
4071.800053  	96.546688 
4072.764478  	96.539019 
4073.728902  	96.531793 
4074.693327  	96.533462 
4075.657751  	96.546444 
4076.622176  	96.481477 
4077.586600  	96.505302 
4078.551024  	96.558150 
4079.515449  	96.531711 
4080.479873  	96.503350 
4081.444298  	96.505233 
4082.408722  	96.463184 
4083.373147  	96.416151 
4084.337571  	96.389842 
4085.301996  	96.410467 
4086.266420  	96.397918 
4087.230845  	96.414412 
4088.195269  	96.450000 
4089.159693  	96.444615 
4090.124118  	96.446785 
4091.088542  	96.451193 
4092.052967  	96.469346 
4093.017391  	96.477572 
4093.981816  	96.460819 
4094.946240  	96.429643 
4095.910665  	96.440000 
4096.875089  	96.515758 
4097.839514  	96.467916 
4098.803938  	96.388183 
4099.768362  	96.413330 
4100.732787  	96.452433 
4101.697211  	96.453166 
4102.661636  	96.464176 
4103.626060  	96.494690 
4104.590485  	96.456908 
4105.554909  	96.435383 
4106.519334  	96.455224 
4107.483758  	96.418766 
4108.448183  	96.454470 
4109.412607  	96.499392 
4110.377031  	96.476168 
4111.341456  	96.523087 
4112.305880  	96.539140 
4113.270305  	96.496321 
4114.234729  	96.550676 
4115.199154  	96.571878 
4116.163578  	96.531544 
4117.128003  	96.518195 
4118.092427  	96.536973 
4119.056852  	96.533696 
4120.021276  	96.502000 
4120.985700  	96.513051 
4121.950125  	96.566933 
4122.914549  	96.545875 
4123.878974  	96.531636 
4124.843398  	96.531588 
4125.807823  	96.557152 
4126.772247  	96.545975 
4127.736672  	96.519526 
4128.701096  	96.506751 
4129.665521  	96.519195 
4130.629945  	96.535056 
4131.594370  	96.571746 
4132.558794  	96.595988 
4133.523218  	96.575346 
4134.487643  	96.561872 
4135.452067  	96.543634 
4136.416492  	96.542870 
4137.380916  	96.570462 
4138.345341  	96.536882 
4139.309765  	96.482134 
4140.274190  	96.490726 
4141.238614  	96.519556 
4142.203039  	96.526967 
4143.167463  	96.598354 
4144.131887  	96.602396 
4145.096312  	96.582117 
4146.060736  	96.579705 
4147.025161  	96.582950 
4147.989585  	96.535934 
4148.954010  	96.480364 
4149.918434  	96.514042 
4150.882859  	96.534980 
4151.847283  	96.526176 
4152.811708  	96.552281 
4153.776132  	96.599086 
4154.740556  	96.576478 
4155.704981  	96.509956 
4156.669405  	96.516421 
4157.633830  	96.539878 
4158.598254  	96.527115 
4159.562679  	96.514188 
4160.527103  	96.471252 
4161.491528  	96.497025 
4162.455952  	96.572200 
4163.420377  	96.606782 
4164.384801  	96.605775 
4165.349225  	96.586708 
4166.313650  	96.575991 
4167.278074  	96.552504 
4168.242499  	96.565918 
4169.206923  	96.611729 
4170.171348  	96.641694 
4171.135772  	96.602827 
4172.100197  	96.597813 
4173.064621  	96.584061 
4174.029046  	96.565164 
4174.993470  	96.560177 
4175.957894  	96.596115 
4176.922319  	96.640394 
4177.886743  	96.640850 
4178.851168  	96.583277 
4179.815592  	96.509509 
4180.780017  	96.507760 
4181.744441  	96.603103 
4182.708866  	96.612392 
4183.673290  	96.609542 
4184.637715  	96.588887 
4185.602139  	96.615930 
4186.566563  	96.631591 
4187.530988  	96.598864 
4188.495412  	96.605984 
4189.459837  	96.643806 
4190.424261  	96.614078 
4191.388686  	96.571252 
4192.353110  	96.622357 
4193.317535  	96.621908 
4194.281959  	96.546754 
4195.246384  	96.552972 
4196.210808  	96.578249 
4197.175233  	96.581983 
4198.139657  	96.592407 
4199.104081  	96.624036 
4200.068506  	96.619276 
4201.032930  	96.604619 
4201.997355  	96.604904 
4202.961779  	96.644170 
4203.926204  	96.637790 
4204.890628  	96.612032 
4205.855053  	96.608965 
4206.819477  	96.599026 
4207.783902  	96.561552 
4208.748326  	96.535706 
4209.712750  	96.576702 
4210.677175  	96.615496 
4211.641599  	96.580310 
4212.606024  	96.579293 
4213.570448  	96.635933 
4214.534873  	96.631357 
4215.499297  	96.562311 
4216.463722  	96.593576 
4217.428146  	96.556974 
4218.392571  	96.505410 
4219.356995  	96.550140 
4220.321419  	96.592581 
4221.285844  	96.605937 
4222.250268  	96.639765 
4223.214693  	96.538185 
4224.179117  	96.476453 
4225.143542  	96.530902 
4226.107966  	96.626443 
4227.072391  	96.690595 
4228.036815  	96.617662 
4229.001240  	96.573412 
4229.965664  	96.566187 
4230.930088  	96.543677 
4231.894513  	96.546149 
4232.858937  	96.547815 
4233.823362  	96.577450 
4234.787786  	96.594211 
4235.752211  	96.591579 
4236.716635  	96.611313 
4237.681060  	96.658017 
4238.645484  	96.615001 
4239.609909  	96.560165 
4240.574333  	96.522609 
4241.538757  	96.582870 
4242.503182  	96.650269 
4243.467606  	96.640937 
4244.432031  	96.551747 
4245.396455  	96.553776 
4246.360880  	96.591046 
4247.325304  	96.620705 
4248.289729  	96.614518 
4249.254153  	96.605598 
4250.218578  	96.673097 
4251.183002  	96.685949 
4252.147427  	96.638389 
4253.111851  	96.614482 
4254.076275  	96.529266 
4255.040700  	96.547843 
4256.005124  	96.595870 
4256.969549  	96.659173 
4257.933973  	96.675178 
4258.898398  	96.614067 
4259.862822  	96.578648 
4260.827247  	96.592219 
4261.791671  	96.610035 
4262.756096  	96.658991 
4263.720520  	96.628091 
4264.684944  	96.585482 
4265.649369  	96.584502 
4266.613793  	96.622071 
4267.578218  	96.541416 
4268.542642  	96.517528 
4269.507067  	96.571107 
4270.471491  	96.611662 
4271.435916  	96.612748 
4272.400340  	96.515403 
4273.364765  	96.457983 
4274.329189  	96.533423 
4275.293613  	96.608543 
4276.258038  	96.613980 
4277.222462  	96.629297 
4278.186887  	96.554657 
4279.151311  	96.441798 
4280.115736  	96.450574 
4281.080160  	96.540116 
4282.044585  	96.589457 
4283.009009  	96.532803 
4283.973434  	96.542933 
4284.937858  	96.589272 
4285.902282  	96.544395 
4286.866707  	96.514499 
4287.831131  	96.554667 
4288.795556  	96.619352 
4289.759980  	96.599530 
4290.724405  	96.514506 
4291.688829  	96.484025 
4292.653254  	96.512750 
4293.617678  	96.607959 
4294.582103  	96.673203 
4295.546527  	96.657917 
4296.510951  	96.608262 
4297.475376  	96.620382 
4298.439800  	96.607794 
4299.404225  	96.585354 
4300.368649  	96.621486 
4301.333074  	96.592031 
4302.297498  	96.482082 
4303.261923  	96.476946 
4304.226347  	96.547173 
4305.190772  	96.646809 
4306.155196  	96.668517 
4307.119620  	96.695736 
4308.084045  	96.628200 
4309.048469  	96.609853 
4310.012894  	96.665041 
4310.977318  	96.707699 
4311.941743  	96.647220 
4312.906167  	96.585362 
4313.870592  	96.578400 
4314.835016  	96.610059 
4315.799441  	96.618555 
4316.763865  	96.625275 
4317.728290  	96.676611 
4318.692714  	96.708314 
4319.657138  	96.625546 
4320.621563  	96.578666 
4321.585987  	96.579994 
4322.550412  	96.596544 
4323.514836  	96.587498 
4324.479261  	96.601807 
4325.443685  	96.604551 
4326.408110  	96.638571 
4327.372534  	96.650673 
4328.336959  	96.624891 
4329.301383  	96.596671 
4330.265807  	96.612746 
4331.230232  	96.614925 
4332.194656  	96.589666 
4333.159081  	96.619788 
4334.123505  	96.648252 
4335.087930  	96.626585 
4336.052354  	96.618278 
4337.016779  	96.627861 
4337.981203  	96.635508 
4338.945628  	96.604786 
4339.910052  	96.575333 
4340.874476  	96.587242 
4341.838901  	96.610364 
4342.803325  	96.581659 
4343.767750  	96.553623 
4344.732174  	96.566818 
4345.696599  	96.589898 
4346.661023  	96.594327 
4347.625448  	96.563586 
4348.589872  	96.536897 
4349.554297  	96.563559 
4350.518721  	96.632275 
4351.483145  	96.710067 
4352.447570  	96.655232 
4353.411994  	96.642282 
4354.376419  	96.618133 
4355.340843  	96.627253 
4356.305268  	96.700276 
4357.269692  	96.722490 
4358.234117  	96.712216 
4359.198541  	96.656556 
4360.162966  	96.650434 
4361.127390  	96.635858 
4362.091814  	96.590580 
4363.056239  	96.562422 
4364.020663  	96.603676 
4364.985088  	96.670485 
4365.949512  	96.671382 
4366.913937  	96.616736 
4367.878361  	96.570403 
4368.842786  	96.583035 
4369.807210  	96.641837 
4370.771635  	96.657961 
4371.736059  	96.613941 
4372.700484  	96.602287 
4373.664908  	96.676744 
4374.629332  	96.718980 
4375.593757  	96.670615 
4376.558181  	96.674931 
4377.522606  	96.707641 
4378.487030  	96.663013 
4379.451455  	96.605715 
4380.415879  	96.622945 
4381.380304  	96.593256 
4382.344728  	96.599550 
4383.309153  	96.637749 
4384.273577  	96.643025 
4385.238001  	96.650020 
4386.202426  	96.690663 
4387.166850  	96.726166 
4388.131275  	96.702651 
4389.095699  	96.596192 
4390.060124  	96.579766 
4391.024548  	96.611260 
4391.988973  	96.662645 
4392.953397  	96.688594 
4393.917822  	96.677711 
4394.882246  	96.617446 
4395.846670  	96.582831 
4396.811095  	96.595395 
4397.775519  	96.650138 
4398.739944  	96.674243 
4399.704368  	96.714264 
4400.668793  	96.711166 
4401.633217  	96.583220 
4402.597642  	96.528879 
4403.562066  	96.599221 
4404.526491  	96.672768 
4405.490915  	96.675237 
4406.455339  	96.592517 
4407.419764  	96.581061 
4408.384188  	96.641119 
4409.348613  	96.685705 
4410.313037  	96.650688 
4411.277462  	96.589906 
4412.241886  	96.590196 
4413.206311  	96.633614 
4414.170735  	96.665754 
4415.135160  	96.638218 
4416.099584  	96.575320 
4417.064008  	96.497490 
4418.028433  	96.456881 
4418.992857  	96.501445 
4419.957282  	96.600207 
4420.921706  	96.584196 
4421.886131  	96.537085 
4422.850555  	96.562376 
4423.814980  	96.546616 
4424.779404  	96.520162 
4425.743829  	96.503903 
4426.708253  	96.518587 
4427.672677  	96.490579 
4428.637102  	96.512094 
4429.601526  	96.571927 
4430.565951  	96.568343 
4431.530375  	96.533656 
4432.494800  	96.526238 
4433.459224  	96.483423 
4434.423649  	96.500992 
4435.388073  	96.513789 
4436.352498  	96.549929 
4437.316922  	96.594889 
4438.281347  	96.591646 
4439.245771  	96.518535 
4440.210195  	96.557451 
4441.174620  	96.560912 
4442.139044  	96.564083 
4443.103469  	96.562188 
4444.067893  	96.517962 
4445.032318  	96.562601 
4445.996742  	96.656733 
4446.961167  	96.623928 
4447.925591  	96.533860 
4448.890016  	96.493860 
4449.854440  	96.463704 
4450.818864  	96.522344 
4451.783289  	96.566337 
4452.747713  	96.539032 
4453.712138  	96.565493 
4454.676562  	96.555311 
4455.640987  	96.523047 
4456.605411  	96.573375 
4457.569836  	96.588402 
4458.534260  	96.530057 
4459.498685  	96.490846 
4460.463109  	96.469961 
4461.427533  	96.514141 
4462.391958  	96.511068 
4463.356382  	96.541622 
4464.320807  	96.654038 
4465.285231  	96.683245 
4466.249656  	96.582180 
4467.214080  	96.543060 
4468.178505  	96.595537 
4469.142929  	96.632203 
4470.107354  	96.612885 
4471.071778  	96.629694 
4472.036202  	96.666128 
4473.000627  	96.616199 
4473.965051  	96.539448 
4474.929476  	96.539030 
4475.893900  	96.568154 
4476.858325  	96.586326 
4477.822749  	96.579389 
4478.787174  	96.590279 
4479.751598  	96.594693 
4480.716023  	96.622794 
4481.680447  	96.635446 
4482.644871  	96.618369 
4483.609296  	96.594095 
4484.573720  	96.626625 
4485.538145  	96.623781 
4486.502569  	96.628576 
4487.466994  	96.648044 
4488.431418  	96.657842 
4489.395843  	96.608807 
4490.360267  	96.581638 
4491.324692  	96.600226 
4492.289116  	96.577739 
4493.253541  	96.566040 
4494.217965  	96.658835 
4495.182389  	96.695682 
4496.146814  	96.661582 
4497.111238  	96.621507 
4498.075663  	96.647498 
4499.040087  	96.666187 
4500.004512  	96.615272 
4500.968936  	96.635648 
4501.933361  	96.665778 
4502.897785  	96.621886 
4503.862210  	96.585015 
4504.826634  	96.597190 
4505.791058  	96.633953 
4506.755483  	96.633291 
4507.719907  	96.595981 
4508.684332  	96.645398 
4509.648756  	96.582102 
4510.613181  	96.501846 
4511.577605  	96.638923 
4512.542030  	96.710393 
4513.506454  	96.685494 
4514.470879  	96.631729 
4515.435303  	96.597825 
4516.399727  	96.665113 
4517.364152  	96.639867 
4518.328576  	96.574610 
4519.293001  	96.623080 
4520.257425  	96.658723 
4521.221850  	96.577161 
4522.186274  	96.602526 
4523.150699  	96.696698 
4524.115123  	96.704497 
4525.079548  	96.643436 
4526.043972  	96.592268 
4527.008396  	96.603487 
4527.972821  	96.674618 
4528.937245  	96.697649 
4529.901670  	96.669363 
4530.866094  	96.652713 
4531.830519  	96.631227 
4532.794943  	96.586987 
4533.759368  	96.629160 
4534.723792  	96.662567 
4535.688217  	96.584015 
4536.652641  	96.664165 
4537.617065  	96.727433 
4538.581490  	96.703097 
4539.545914  	96.621837 
4540.510339  	96.607073 
4541.474763  	96.565207 
4542.439188  	96.593441 
4543.403612  	96.621275 
4544.368037  	96.618882 
4545.332461  	96.603897 
4546.296886  	96.648751 
4547.261310  	96.669009 
4548.225734  	96.702291 
4549.190159  	96.758834 
4550.154583  	96.783911 
4551.119008  	96.692520 
4552.083432  	96.631906 
4553.047857  	96.622107 
4554.012281  	96.698703 
4554.976706  	96.690015 
4555.941130  	96.671164 
4556.905555  	96.636554 
4557.869979  	96.619187 
4558.834404  	96.642895 
4559.798828  	96.632465 
4560.763252  	96.570898 
4561.727677  	96.541566 
4562.692101  	96.578410 
4563.656526  	96.656526 
4564.620950  	96.680741 
4565.585375  	96.606000 
4566.549799  	96.600380 
4567.514224  	96.654343 
4568.478648  	96.644590 
4569.443073  	96.677781 
4570.407497  	96.710678 
4571.371921  	96.775794 
4572.336346  	96.755872 
4573.300770  	96.655039 
4574.265195  	96.609785 
4575.229619  	96.624905 
4576.194044  	96.625711 
4577.158468  	96.612926 
4578.122893  	96.631520 
4579.087317  	96.640408 
4580.051742  	96.645750 
4581.016166  	96.743251 
4581.980590  	96.841685 
4582.945015  	96.784715 
4583.909439  	96.707564 
4584.873864  	96.638828 
4585.838288  	96.571164 
4586.802713  	96.679256 
4587.767137  	96.676146 
4588.731562  	96.572165 
4589.695986  	96.623510 
4590.660411  	96.675091 
4591.624835  	96.661048 
4592.589259  	96.718791 
4593.553684  	96.688669 
4594.518108  	96.576974 
4595.482533  	96.612377 
4596.446957  	96.676852 
4597.411382  	96.603735 
4598.375806  	96.561968 
4599.340231  	96.639257 
4600.304655  	96.693532 
4601.269080  	96.694890 
4602.233504  	96.683566 
4603.197928  	96.667772 
4604.162353  	96.684421 
4605.126777  	96.727561 
4606.091202  	96.730071 
4607.055626  	96.736115 
4608.020051  	96.748872 
4608.984475  	96.689823 
4609.948900  	96.715816 
4610.913324  	96.732957 
4611.877749  	96.711703 
4612.842173  	96.674937 
4613.806598  	96.682311 
4614.771022  	96.735562 
4615.735446  	96.751076 
4616.699871  	96.705441 
4617.664295  	96.636579 
4618.628720  	96.637386 
4619.593144  	96.650780 
4620.557569  	96.689676 
4621.521993  	96.697831 
4622.486418  	96.589513 
4623.450842  	96.586819 
4624.415267  	96.601169 
4625.379691  	96.660959 
4626.344115  	96.672648 
4627.308540  	96.668458 
4628.272964  	96.644474 
4629.237389  	96.610010 
4630.201813  	96.627403 
4631.166238  	96.666779 
4632.130662  	96.617885 
4633.095087  	96.536717 
4634.059511  	96.594865 
4635.023936  	96.726070 
4635.988360  	96.804421 
4636.952784  	96.731803 
4637.917209  	96.630041 
4638.881633  	96.563417 
4639.846058  	96.499739 
4640.810482  	96.528075 
4641.774907  	96.583780 
4642.739331  	96.559463 
4643.703756  	96.534144 
4644.668180  	96.570993 
4645.632605  	96.572407 
4646.597029  	96.649773 
4647.561453  	96.630799 
4648.525878  	96.616123 
4649.490302  	96.731309 
4650.454727  	96.763265 
4651.419151  	96.695664 
4652.383576  	96.635988 
4653.348000  	96.647154 
4654.312425  	96.700870 
4655.276849  	96.733174 
4656.241274  	96.665374 
4657.205698  	96.635675 
4658.170122  	96.646037 
4659.134547  	96.597976 
4660.098971  	96.540585 
4661.063396  	96.596058 
4662.027820  	96.726348 
4662.992245  	96.718231 
4663.956669  	96.623193 
4664.921094  	96.573381 
4665.885518  	96.556830 
4666.849943  	96.608963 
4667.814367  	96.665552 
4668.778791  	96.671633 
4669.743216  	96.635108 
4670.707640  	96.657988 
4671.672065  	96.701121 
4672.636489  	96.634256 
4673.600914  	96.607806 
4674.565338  	96.627935 
4675.529763  	96.651385 
4676.494187  	96.702677 
4677.458612  	96.729884 
4678.423036  	96.699449 
4679.387461  	96.702319 
4680.351885  	96.714185 
4681.316309  	96.663455 
4682.280734  	96.581955 
4683.245158  	96.526289 
4684.209583  	96.529421 
4685.174007  	96.608787 
4686.138432  	96.628338 
4687.102856  	96.651443 
4688.067281  	96.632484 
4689.031705  	96.660162 
4689.996130  	96.752191 
4690.960554  	96.768123 
4691.924978  	96.656952 
4692.889403  	96.533636 
4693.853827  	96.541664 
4694.818252  	96.614582 
4695.782676  	96.645980 
4696.747101  	96.656727 
4697.711525  	96.717271 
4698.675950  	96.675369 
4699.640374  	96.533331 