##TITLE=No Description
##DATA TYPE=INFRARED SPECTRUM
##XUNITS=1/CM
##YUNITS=%T
400.236149  	128.089967 
401.200574  	106.971997 
402.164998  	94.697791 
403.129423  	80.257178 
404.093847  	85.239454 
405.058272  	103.202569 
406.022696  	102.270369 
406.987120  	97.292457 
407.951545  	103.795402 
408.915969  	99.323541 
409.880394  	101.400199 
410.844818  	104.178766 
411.809243  	103.306952 
412.773667  	94.918174 
413.738092  	86.215886 
414.702516  	78.540721 
415.666941  	80.148754 
416.631365  	85.244011 
417.595789  	89.880445 
418.560214  	91.753182 
419.524638  	86.738703 
420.489063  	85.815579 
421.453487  	86.422213 
422.417912  	87.824863 
423.382336  	88.664604 
424.346761  	87.079401 
425.311185  	83.724437 
426.275610  	83.683060 
427.240034  	85.580893 
428.204458  	86.141280 
429.168883  	86.268723 
430.133307  	86.859055 
431.097732  	85.549351 
432.062156  	83.106792 
433.026581  	80.767184 
433.991005  	82.655303 
434.955430  	83.527331 
435.919854  	82.779549 
436.884279  	83.289667 
437.848703  	84.661315 
438.813127  	84.611148 
439.777552  	84.137948 
440.741976  	84.074768 
441.706401  	84.888435 
442.670825  	86.132316 
443.635250  	86.068241 
444.599674  	85.989699 
445.564099  	85.894561 
446.528523  	86.374464 
447.492948  	86.605118 
448.457372  	87.620485 
449.421796  	88.107431 
450.386221  	87.503746 
451.350645  	86.581654 
452.315070  	85.776042 
453.279494  	86.437907 
454.243919  	87.204686 
455.208343  	86.534854 
456.172768  	86.287982 
457.137192  	87.013225 
458.101617  	86.670545 
459.066041  	86.512360 
460.030466  	86.741458 
460.994890  	86.196423 
461.959314  	86.184351 
462.923739  	86.462631 
463.888163  	86.227945 
464.852588  	85.840273 
465.817012  	86.520485 
466.781437  	86.898091 
467.745861  	85.821189 
468.710286  	85.441606 
469.674710  	85.096834 
470.639135  	84.983188 
471.603559  	85.501828 
472.567983  	85.763298 
473.532408  	85.470976 
474.496832  	85.390223 
475.461257  	85.767189 
476.425681  	85.686261 
477.390106  	85.209449 
478.354530  	84.845288 
479.318955  	84.573271 
480.283379  	84.673931 
481.247804  	85.588336 
482.212228  	85.165726 
483.176652  	85.798843 
484.141077  	86.747164 
485.105501  	85.228952 
486.069926  	84.340077 
487.034350  	85.281610 
487.998775  	85.359607 
488.963199  	85.119342 
489.927624  	84.896387 
490.892048  	84.128420 
491.856473  	83.640875 
492.820897  	84.282696 
493.785321  	84.235697 
494.749746  	83.442639 
495.714170  	82.943565 
496.678595  	82.654250 
497.643019  	82.678074 
498.607444  	82.913006 
499.571868  	82.188580 
500.536293  	81.742256 
501.500717  	81.608911 
502.465142  	80.693543 
503.429566  	80.625545 
504.393990  	80.710509 
505.358415  	80.126067 
506.322839  	79.419931 
507.287264  	79.852711 
508.251688  	81.247155 
509.216113  	82.516053 
510.180537  	83.012301 
511.144962  	83.606666 
512.109386  	84.442558 
513.073811  	85.106819 
514.038235  	85.121369 
515.002660  	84.811045 
515.967084  	84.515647 
516.931508  	84.612447 
517.895933  	85.347296 
518.860357  	85.337612 
519.824782  	84.774130 
520.789206  	84.970644 
521.753631  	85.443054 
522.718055  	85.478911 
523.682480  	85.119821 
524.646904  	84.955094 
525.611329  	85.123091 
526.575753  	85.084502 
527.540177  	85.599822 
528.504602  	86.222898 
529.469026  	86.059724 
530.433451  	85.806957 
531.397875  	86.110970 
532.362300  	86.523292 
533.326724  	86.973502 
534.291149  	86.672054 
535.255573  	86.590923 
536.219998  	87.185710 
537.184422  	87.840879 
538.148846  	87.539504 
539.113271  	87.105164 
540.077695  	87.352178 
541.042120  	87.609558 
542.006544  	87.765286 
542.970969  	87.699279 
543.935393  	87.804465 
544.899818  	87.637437 
545.864242  	87.778191 
546.828667  	87.742276 
547.793091  	87.655906 
548.757515  	87.746871 
549.721940  	88.296780 
550.686364  	88.467791 
551.650789  	88.347958 
552.615213  	88.187333 
553.579638  	88.491576 
554.544062  	88.454029 
555.508487  	88.479601 
556.472911  	88.573801 
557.437336  	88.372467 
558.401760  	88.261380 
559.366184  	88.555126 
560.330609  	88.437818 
561.295033  	88.371979 
562.259458  	88.484975 
563.223882  	88.238952 
564.188307  	88.124114 
565.152731  	88.551236 
566.117156  	88.753117 
567.081580  	88.350008 
568.046005  	88.213971 
569.010429  	88.264972 
569.974853  	88.372835 
570.939278  	88.473639 
571.903702  	88.348427 
572.868127  	88.218997 
573.832551  	88.219380 
574.796976  	88.320176 
575.761400  	87.880840 
576.725825  	87.920185 
577.690249  	88.111035 
578.654674  	88.326759 
579.619098  	88.364492 
580.583523  	88.197531 
581.547947  	88.467554 
582.512371  	88.510700 
583.476796  	88.377232 
584.441220  	88.344438 
585.405645  	88.343596 
586.370069  	88.508904 
587.334494  	88.650272 
588.298918  	88.747305 
589.263343  	88.592167 
590.227767  	88.567587 
591.192192  	88.171877 
592.156616  	87.994836 
593.121040  	88.401750 
594.085465  	88.719203 
595.049889  	88.684145 
596.014314  	88.500654 
596.978738  	88.380941 
597.943163  	88.438439 
598.907587  	88.394559 
599.872012  	88.263831 
600.836436  	88.391907 
601.800861  	88.424830 
602.765285  	88.336896 
603.729709  	88.341085 
604.694134  	88.301863 
605.658558  	88.340209 
606.622983  	88.337612 
607.587407  	88.182670 
608.551832  	88.235684 
609.516256  	88.393456 
610.480681  	88.278463 
611.445105  	88.167153 
612.409530  	88.316126 
613.373954  	88.466081 
614.338378  	88.306441 
615.302803  	88.108357 
616.267227  	88.085400 
617.231652  	88.195689 
618.196076  	88.152337 
619.160501  	88.058491 
620.124925  	87.897428 
621.089350  	87.917174 
622.053774  	87.876725 
623.018199  	87.822569 
623.982623  	87.815822 
624.947047  	87.809320 
625.911472  	87.904507 
626.875896  	87.772041 
627.840321  	87.534968 
628.804745  	87.272262 
629.769170  	86.897703 
630.733594  	86.295424 
631.698019  	86.004690 
632.662443  	86.109993 
633.626868  	86.520233 
634.591292  	86.965828 
635.555717  	87.145264 
636.520141  	87.408932 
637.484565  	87.522812 
638.448990  	87.547093 
639.413414  	87.532472 
640.377839  	87.574537 
641.342263  	87.494861 
642.306688  	87.178396 
643.271112  	87.079408 
644.235537  	87.070737 
645.199961  	86.988608 
646.164386  	87.038018 
647.128810  	87.056097 
648.093234  	86.993893 
649.057659  	86.894660 
650.022083  	86.862873 
650.986508  	86.797841 
651.950932  	86.602156 
652.915357  	86.483155 
653.879781  	86.448810 
654.844206  	86.531345 
655.808630  	86.511834 
656.773055  	86.324538 
657.737479  	86.256848 
658.701903  	86.060748 
659.666328  	85.823264 
660.630752  	85.758347 
661.595177  	85.713083 
662.559601  	85.516593 
663.524026  	85.409811 
664.488450  	85.405385 
665.452875  	85.300568 
666.417299  	85.194698 
667.381724  	85.461638 
668.346148  	85.556672 
669.310572  	84.665278 
670.274997  	84.143144 
671.239421  	83.940121 
672.203846  	83.842225 
673.168270  	83.583518 
674.132695  	83.160124 
675.097119  	82.859469 
676.061544  	82.528509 
677.025968  	82.111596 
677.990393  	81.788744 
678.954817  	81.543657 
679.919241  	81.260932 
680.883666  	81.139127 
681.848090  	81.192198 
682.812515  	81.199596 
683.776939  	80.985536 
684.741364  	80.748143 
685.705788  	80.429090 
686.670213  	80.317932 
687.634637  	80.083068 
688.599062  	79.654377 
689.563486  	79.135237 
690.527910  	78.647891 
691.492335  	78.145491 
692.456759  	77.421855 
693.421184  	76.577950 
694.385608  	75.881318 
695.350033  	75.091037 
696.314457  	74.099646 
697.278882  	72.987507 
698.243306  	71.799121 
699.207731  	70.637901 
700.172155  	69.405361 
701.136580  	68.057873 
702.101004  	66.898676 
703.065428  	65.949817 
704.029853  	64.964134 
704.994277  	63.795569 
705.958702  	62.597708 
706.923126  	61.302579 
707.887551  	59.887714 
708.851975  	58.361881 
709.816400  	56.708374 
710.780824  	55.067466 
711.745249  	53.217880 
712.709673  	51.204086 
713.674097  	49.168702 
714.638522  	47.068773 
715.602946  	44.849200 
716.567371  	42.510116 
717.531795  	40.368154 
718.496220  	38.462721 
719.460644  	36.898198 
720.425069  	36.006902 
721.389493  	35.847566 
722.353918  	36.259761 
723.318342  	37.438990 
724.282766  	39.515193 
725.247191  	42.208836 
726.211615  	45.274204 
727.176040  	48.528378 
728.140464  	51.688119 
729.104889  	54.747096 
730.069313  	57.673494 
731.033738  	60.666319 
731.998162  	63.672041 
732.962587  	66.677666 
733.927011  	69.778526 
734.891435  	72.767859 
735.855860  	75.657345 
736.820284  	78.474938 
737.784709  	81.069842 
738.749133  	83.363757 
739.713558  	85.337288 
740.677982  	87.069668 
741.642407  	88.395937 
742.606831  	89.446788 
743.571256  	90.306016 
744.535680  	90.926098 
745.500104  	91.429946 
746.464529  	91.680205 
747.428953  	91.827626 
748.393378  	92.029202 
749.357802  	92.145986 
750.322227  	92.195842 
751.286651  	92.222343 
752.251076  	92.219678 
753.215500  	92.222492 
754.179925  	92.147118 
755.144349  	92.032975 
756.108774  	92.006294 
757.073198  	92.052359 
758.037622  	91.997621 
759.002047  	91.815437 
759.966471  	91.747048 
760.930896  	91.724277 
761.895320  	91.756119 
762.859745  	91.880543 
763.824169  	91.789423 
764.788594  	91.616126 
765.753018  	91.415250 
766.717443  	91.179769 
767.681867  	90.959344 
768.646291  	90.776995 
769.610716  	90.717959 
770.575140  	90.705505 
771.539565  	90.610482 
772.503989  	90.417730 
773.468414  	90.352705 
774.432838  	90.372935 
775.397263  	90.232623 
776.361687  	90.165774 
777.326112  	90.057071 
778.290536  	89.884230 
779.254960  	89.750857 
780.219385  	89.586422 
781.183809  	89.460805 
782.148234  	89.387456 
783.112658  	89.336381 
784.077083  	88.937951 
785.041507  	88.588871 
786.005932  	88.350448 
786.970356  	87.823447 
787.934781  	87.215539 
788.899205  	86.856708 
789.863629  	86.451018 
790.828054  	85.972218 
791.792478  	85.478906 
792.756903  	85.340199 
793.721327  	85.516185 
794.685752  	85.893166 
795.650176  	86.537727 
796.614601  	87.310440 
797.579025  	87.946997 
798.543450  	88.281595 
799.507874  	88.362927 
800.472298  	88.556763 
801.436723  	88.684126 
802.401147  	88.603160 
803.365572  	88.552620 
804.329996  	88.541572 
805.294421  	88.538629 
806.258845  	88.517111 
807.223270  	88.556770 
808.187694  	88.559407 
809.152119  	88.585907 
810.116543  	88.649778 
811.080967  	88.661033 
812.045392  	88.600214 
813.009816  	88.647471 
813.974241  	88.703431 
814.938665  	88.716504 
815.903090  	88.703096 
816.867514  	88.625582 
817.831939  	88.649886 
818.796363  	88.717349 
819.760788  	88.747147 
820.725212  	88.739431 
821.689637  	88.594447 
822.654061  	88.448103 
823.618485  	88.312099 
824.582910  	88.159506 
825.547334  	87.978624 
826.511759  	87.887766 
827.476183  	87.713330 
828.440608  	87.498078 
829.405032  	87.295778 
830.369457  	87.115492 
831.333881  	86.928510 
832.298306  	86.643722 
833.262730  	86.331538 
834.227154  	86.020030 
835.191579  	85.679356 
836.156003  	85.281657 
837.120428  	84.831863 
838.084852  	84.383734 
839.049277  	83.979679 
840.013701  	83.452139 
840.978126  	82.900079 
841.942550  	82.433598 
842.906975  	81.836977 
843.871399  	81.137064 
844.835823  	80.472744 
845.800248  	79.953269 
846.764672  	79.634405 
847.729097  	79.680382 
848.693521  	79.777347 
849.657946  	79.989188 
850.622370  	80.471513 
851.586795  	81.004822 
852.551219  	81.291780 
853.515644  	81.617339 
854.480068  	81.914178 
855.444492  	81.998051 
856.408917  	82.143295 
857.373341  	82.390805 
858.337766  	82.640807 
859.302190  	82.757130 
860.266615  	82.779178 
861.231039  	82.802790 
862.195464  	82.732764 
863.159888  	82.493361 
864.124313  	82.098343 
865.088737  	81.490138 
866.053161  	80.660610 
867.017586  	79.412449 
867.982010  	77.590086 
868.946435  	75.146217 
869.910859  	71.985931 
870.875284  	68.657116 
871.839708  	66.692716 
872.804133  	67.536745 
873.768557  	70.688879 
874.732982  	74.141193 
875.697406  	76.822934 
876.661831  	78.745958 
877.626255  	80.256550 
878.590679  	81.542819 
879.555104  	82.661626 
880.519528  	83.607060 
881.483953  	84.457604 
882.448377  	85.323390 
883.412802  	86.123837 
884.377226  	86.682413 
885.341651  	87.146109 
886.306075  	87.535578 
887.270500  	87.883216 
888.234924  	88.212722 
889.199348  	88.338352 
890.163773  	88.381867 
891.128197  	88.441404 
892.092622  	88.511604 
893.057046  	88.481284 
894.021471  	88.429147 
894.985895  	88.423356 
895.950320  	88.332658 
896.914744  	88.233848 
897.879169  	88.228630 
898.843593  	88.247721 
899.808017  	88.336976 
900.772442  	88.464416 
901.736866  	88.535432 
902.701291  	88.665076 
903.665715  	88.888068 
904.630140  	89.069066 
905.594564  	89.203226 
906.558989  	89.442922 
907.523413  	89.725701 
908.487838  	89.878250 
909.452262  	90.025834 
910.416686  	90.233215 
911.381111  	90.414228 
912.345535  	90.470128 
913.309960  	90.518556 
914.274384  	90.606763 
915.238809  	90.679140 
916.203233  	90.725116 
917.167658  	90.765570 
918.132082  	90.818628 
919.096507  	90.867597 
920.060931  	90.913750 
921.025355  	90.944913 
921.989780  	90.920796 
922.954204  	90.871848 
923.918629  	90.807198 
924.883053  	90.789020 
925.847478  	90.839356 
926.811902  	90.809584 
927.776327  	90.738053 
928.740751  	90.673092 
929.705176  	90.669705 
930.669600  	90.662531 
931.634024  	90.608219 
932.598449  	90.551917 
933.562873  	90.499024 
934.527298  	90.497657 
935.491722  	90.410441 
936.456147  	90.301310 
937.420571  	90.262089 
938.384996  	90.190790 
939.349420  	90.123001 
940.313845  	90.088933 
941.278269  	90.060206 
942.242694  	89.951847 
943.207118  	89.826337 
944.171542  	89.747660 
945.135967  	89.665086 
946.100391  	89.534626 
947.064816  	89.398783 
948.029240  	89.299580 
948.993665  	89.185789 
949.958089  	89.041137 
950.922514  	88.923214 
951.886938  	88.839976 
952.851363  	88.618517 
953.815787  	88.382491 
954.780211  	88.236608 
955.744636  	88.091601 
956.709060  	87.877958 
957.673485  	87.618234 
958.637909  	87.354070 
959.602334  	87.058020 
960.566758  	86.739443 
961.531183  	86.390890 
962.495607  	86.019306 
963.460032  	85.674486 
964.424456  	85.274324 
965.388880  	84.784247 
966.353305  	84.307101 
967.317729  	83.924035 
968.282154  	83.516996 
969.246578  	83.099997 
970.211003  	82.788365 
971.175427  	82.621626 
972.139852  	82.594649 
973.104276  	82.730168 
974.068701  	83.034903 
975.033125  	83.456723 
975.997549  	83.918501 
976.961974  	84.394139 
977.926398  	84.855668 
978.890823  	85.253000 
979.855247  	85.584912 
980.819672  	85.899530 
981.784096  	86.182451 
982.748521  	86.427885 
983.712945  	86.573434 
984.677370  	86.617725 
985.641794  	86.638484 
986.606218  	86.636982 
987.570643  	86.594411 
988.535067  	86.563080 
989.499492  	86.629670 
990.463916  	86.686297 
991.428341  	86.731502 
992.392765  	86.788500 
993.357190  	86.838124 
994.321614  	86.847830 
995.286039  	86.825459 
996.250463  	86.774539 
997.214888  	86.683922 
998.179312  	86.571180 
999.143736  	86.362287 
1000.108161  	86.143264 
1001.072585  	85.990085 
1002.037010  	85.818647 
1003.001434  	85.558290 
1003.965859  	85.265096 
1004.930283  	84.923533 
1005.894708  	84.479613 
1006.859132  	83.923189 
1007.823557  	83.224235 
1008.787981  	82.418335 
1009.752405  	81.478226 
1010.716830  	80.253551 
1011.681254  	78.678265 
1012.645679  	76.762276 
1013.610103  	74.373034 
1014.574528  	71.674801 
1015.538952  	69.212282 
1016.503377  	67.499877 
1017.467801  	66.730965 
1018.432226  	66.831619 
1019.396650  	67.671991 
1020.361074  	68.972300 
1021.325499  	70.362904 
1022.289923  	71.583199 
1023.254348  	72.657529 
1024.218772  	73.933338 
1025.183197  	75.685575 
1026.147621  	77.676700 
1027.112046  	79.424755 
1028.076470  	80.711271 
1029.040895  	81.500125 
1030.005319  	81.923195 
1030.969743  	82.136553 
1031.934168  	82.249716 
1032.898592  	82.272802 
1033.863017  	82.186899 
1034.827441  	81.993061 
1035.791866  	81.782329 
1036.756290  	81.597768 
1037.720715  	81.401817 
1038.685139  	81.229983 
1039.649564  	81.108972 
1040.613988  	80.976847 
1041.578412  	80.796764 
1042.542837  	80.669563 
1043.507261  	80.697524 
1044.471686  	80.747626 
1045.436110  	80.819673 
1046.400535  	80.939021 
1047.364959  	81.075638 
1048.329384  	81.158312 
1049.293808  	81.265091 
1050.258233  	81.466912 
1051.222657  	81.680186 
1052.187081  	81.834924 
1053.151506  	81.953189 
1054.115930  	82.082774 
1055.080355  	82.084226 
1056.044779  	82.017618 
1057.009204  	81.919897 
1057.973628  	81.850101 
1058.938053  	81.716404 
1059.902477  	81.406636 
1060.866902  	81.077240 
1061.831326  	80.825645 
1062.795751  	80.467196 
1063.760175  	79.989489 
1064.724599  	79.467106 
1065.689024  	78.930001 
1066.653448  	78.385347 
1067.617873  	77.750945 
1068.582297  	77.015727 
1069.546722  	76.275613 
1070.511146  	75.498968 
1071.475571  	74.643802 
1072.439995  	73.727286 
1073.404420  	72.751104 
1074.368844  	71.656264 
1075.333268  	70.447175 
1076.297693  	69.185931 
1077.262117  	67.861754 
1078.226542  	66.494248 
1079.190966  	65.106145 
1080.155391  	63.726307 
1081.119815  	62.421178 
1082.084240  	61.211409 
1083.048664  	60.165894 
1084.013089  	59.293923 
1084.977513  	58.481592 
1085.941937  	57.699017 
1086.906362  	56.998380 
1087.870786  	56.369473 
1088.835211  	55.788268 
1089.799635  	55.230219 
1090.764060  	54.721778 
1091.728484  	54.300072 
1092.692909  	53.976099 
1093.657333  	53.649166 
1094.621758  	53.362469 
1095.586182  	53.230744 
1096.550606  	53.184284 
1097.515031  	53.206385 
1098.479455  	53.362228 
1099.443880  	53.642361 
1100.408304  	53.967124 
1101.372729  	54.335309 
1102.337153  	54.826812 
1103.301578  	55.410695 
1104.266002  	56.000950 
1105.230427  	56.634813 
1106.194851  	57.312948 
1107.159275  	58.024764 
1108.123700  	58.712170 
1109.088124  	59.340452 
1110.052549  	59.882840 
1111.016973  	60.300601 
1111.981398  	60.660929 
1112.945822  	60.958251 
1113.910247  	61.224535 
1114.874671  	61.392032 
1115.839096  	61.380397 
1116.803520  	61.223477 
1117.767945  	60.996075 
1118.732369  	60.781929 
1119.696793  	60.671170 
1120.661218  	60.619087 
1121.625642  	60.608227 
1122.590067  	60.695668 
1123.554491  	60.872189 
1124.518916  	61.109622 
1125.483340  	61.449944 
1126.447765  	61.870200 
1127.412189  	62.375956 
1128.376614  	63.010046 
1129.341038  	63.742793 
1130.305462  	64.577480 
1131.269887  	65.591558 
1132.234311  	66.710311 
1133.198736  	67.952923 
1134.163160  	69.288366 
1135.127585  	70.661293 
1136.092009  	72.037161 
1137.056434  	73.424242 
1138.020858  	74.809512 
1138.985283  	76.125009 
1139.949707  	77.330983 
1140.914131  	78.474924 
1141.878556  	79.547565 
1142.842980  	80.518508 
1143.807405  	81.427562 
1144.771829  	82.307563 
1145.736254  	83.106676 
1146.700678  	83.827811 
1147.665103  	84.477624 
1148.629527  	85.075717 
1149.593952  	85.614209 
1150.558376  	86.113792 
1151.522800  	86.571908 
1152.487225  	86.984425 
1153.451649  	87.347906 
1154.416074  	87.652596 
1155.380498  	87.899671 
1156.344923  	88.149185 
1157.309347  	88.366212 
1158.273772  	88.541277 
1159.238196  	88.645254 
1160.202621  	88.742562 
1161.167045  	88.841467 
1162.131469  	88.873792 
1163.095894  	88.860350 
1164.060318  	88.857349 
1165.024743  	88.823979 
1165.989167  	88.700000 
1166.953592  	88.514929 
1167.918016  	88.264083 
1168.882441  	87.926638 
1169.846865  	87.550311 
1170.811290  	87.170468 
1171.775714  	86.838778 
1172.740138  	86.628246 
1173.704563  	86.462078 
1174.668987  	86.306123 
1175.633412  	86.323280 
1176.597836  	86.444060 
1177.562261  	86.571919 
1178.526685  	86.713274 
1179.491110  	86.882335 
1180.455534  	87.087699 
1181.419959  	87.311171 
1182.384383  	87.497930 
1183.348808  	87.639491 
1184.313232  	87.793179 
1185.277656  	87.869508 
1186.242081  	87.883784 
1187.206505  	87.908997 
1188.170930  	87.876047 
1189.135354  	87.780393 
1190.099779  	87.665983 
1191.064203  	87.566704 
1192.028628  	87.391946 
1192.993052  	87.129584 
1193.957477  	86.845573 
1194.921901  	86.567905 
1195.886325  	86.289215 
1196.850750  	85.935776 
1197.815174  	85.581679 
1198.779599  	85.272639 
1199.744023  	84.952972 
1200.708448  	84.561168 
1201.672872  	84.151654 
1202.637297  	83.798677 
1203.601721  	83.439173 
1204.566146  	83.035338 
1205.530570  	82.630702 
1206.494994  	82.263989 
1207.459419  	81.861826 
1208.423843  	81.414766 
1209.388268  	80.965862 
1210.352692  	80.526419 
1211.317117  	80.024090 
1212.281541  	79.439386 
1213.245966  	78.868059 
1214.210390  	78.289628 
1215.174815  	77.617791 
1216.139239  	76.878797 
1217.103663  	76.108255 
1218.068088  	75.296781 
1219.032512  	74.425401 
1219.996937  	73.534897 
1220.961361  	72.711977 
1221.925786  	71.916413 
1222.890210  	71.119438 
1223.854635  	70.349792 
1224.819059  	69.579834 
1225.783484  	68.818439 
1226.747908  	67.980409 
1227.712332  	66.994316 
1228.676757  	65.884505 
1229.641181  	64.650588 
1230.605606  	63.278505 
1231.570030  	61.786078 
1232.534455  	60.254562 
1233.498879  	58.727754 
1234.463304  	57.220925 
1235.427728  	55.788070 
1236.392153  	54.507453 
1237.356577  	53.376529 
1238.321002  	52.372989 
1239.285426  	51.521353 
1240.249850  	50.850230 
1241.214275  	50.349097 
1242.178699  	49.967632 
1243.143124  	49.699234 
1244.107548  	49.560448 
1245.071973  	49.510666 
1246.036397  	49.501557 
1247.000822  	49.565321 
1247.965246  	49.692129 
1248.929671  	49.832026 
1249.894095  	49.976013 
1250.858519  	50.114624 
1251.822944  	50.269725 
1252.787368  	50.449693 
1253.751793  	50.642475 
1254.716217  	50.806100 
1255.680642  	50.963888 
1256.645066  	51.142195 
1257.609491  	51.292707 
1258.573915  	51.429200 
1259.538340  	51.587580 
1260.502764  	51.815465 
1261.467188  	52.169838 
1262.431613  	52.582433 
1263.396037  	53.040478 
1264.360462  	53.572521 
1265.324886  	54.161686 
1266.289311  	54.789182 
1267.253735  	55.496914 
1268.218160  	56.236821 
1269.182584  	56.982852 
1270.147009  	57.732304 
1271.111433  	58.521915 
1272.075857  	59.318839 
1273.040282  	60.129404 
1274.004706  	60.894187 
1274.969131  	61.662702 
1275.933555  	62.432494 
1276.897980  	63.157368 
1277.862404  	63.853787 
1278.826829  	64.583195 
1279.791253  	65.315744 
1280.755678  	66.035031 
1281.720102  	66.760550 
1282.684526  	67.506638 
1283.648951  	68.228914 
1284.613375  	68.911047 
1285.577800  	69.629211 
1286.542224  	70.346553 
1287.506649  	70.983297 
1288.471073  	71.674766 
1289.435498  	72.456133 
1290.399922  	73.216601 
1291.364347  	73.957438 
1292.328771  	74.716983 
1293.293195  	75.496202 
1294.257620  	76.284059 
1295.222044  	77.058859 
1296.186469  	77.791488 
1297.150893  	78.581637 
1298.115318  	79.465173 
1299.079742  	80.229876 
1300.044167  	80.967525 
1301.008591  	81.729971 
1301.973016  	82.416517 
1302.937440  	82.988591 
1303.901865  	83.507560 
1304.866289  	84.029985 
1305.830713  	84.499087 
1306.795138  	84.893402 
1307.759562  	85.262712 
1308.723987  	85.695331 
1309.688411  	86.182542 
1310.652836  	86.555972 
1311.617260  	86.838753 
1312.581685  	86.999108 
1313.546109  	87.353829 
1314.510534  	87.723234 
1315.474958  	88.062349 
1316.439382  	88.285859 
1317.403807  	88.470323 
1318.368231  	88.661897 
1319.332656  	88.805231 
1320.297080  	89.180022 
1321.261505  	89.490301 
1322.225929  	89.756331 
1323.190354  	89.933526 
1324.154778  	90.081755 
1325.119203  	90.199079 
1326.083627  	90.243347 
1327.048051  	90.236465 
1328.012476  	90.171223 
1328.976900  	89.992802 
1329.941325  	89.629344 
1330.905749  	89.150251 
1331.870174  	88.457686 
1332.834598  	87.510085 
1333.799023  	86.346810 
1334.763447  	84.996161 
1335.727872  	83.409968 
1336.692296  	81.580146 
1337.656720  	80.004065 
1338.621145  	78.384805 
1339.585569  	76.916691 
1340.549994  	76.427926 
1341.514418  	76.902698 
1342.478843  	77.660504 
1343.443267  	78.665947 
1344.407692  	80.085003 
1345.372116  	81.763536 
1346.336541  	83.488441 
1347.300965  	85.077134 
1348.265389  	86.449094 
1349.229814  	87.531645 
1350.194238  	88.495850 
1351.158663  	89.288956 
1352.123087  	89.857702 
1353.087512  	90.289316 
1354.051936  	90.543387 
1355.016361  	90.674993 
1355.980785  	90.983015 
1356.945210  	91.170608 
1357.909634  	91.158265 
1358.874059  	91.211258 
1359.838483  	91.197521 
1360.802907  	90.771924 
1361.767332  	90.374949 
1362.731756  	89.759415 
1363.696181  	89.550066 
1364.660605  	90.080916 
1365.625030  	90.002803 
1366.589454  	89.725772 
1367.553879  	89.300070 
1368.518303  	88.778703 
1369.482728  	88.641291 
1370.447152  	88.808776 
1371.411576  	88.765840 
1372.376001  	88.664583 
1373.340425  	88.283619 
1374.304850  	88.054395 
1375.269274  	88.382054 
1376.233699  	88.972198 
1377.198123  	89.155776 
1378.162548  	89.080407 
1379.126972  	89.173434 
1380.091397  	89.302533 
1381.055821  	89.411296 
1382.020245  	89.434026 
1382.984670  	89.390962 
1383.949094  	89.315044 
1384.913519  	89.261141 
1385.877943  	89.017810 
1386.842368  	88.399276 
1387.806792  	88.236049 
1388.771217  	88.868102 
1389.735641  	89.155457 
1390.700066  	89.113081 
1391.664490  	89.096547 
1392.628914  	89.037616 
1393.593339  	88.627765 
1394.557763  	87.740240 
1395.522188  	87.416825 
1396.486612  	87.619251 
1397.451037  	87.351977 
1398.415461  	86.593057 
1399.379886  	85.917117 
1400.344310  	85.763223 
1401.308735  	85.393417 
1402.273159  	84.475016 
1403.237583  	83.369835 
1404.202008  	81.883624 
1405.166432  	80.055748 
1406.130857  	78.880802 
1407.095281  	78.002329 
1408.059706  	77.016260 
1409.024130  	76.521891 
1409.988555  	76.505319 
1410.952979  	77.218303 
1411.917404  	78.477977 
1412.881828  	80.435312 
1413.846252  	82.448663 
1414.810677  	84.370730 
1415.775101  	85.872071 
1416.739526  	87.022691 
1417.703950  	87.926828 
1418.668375  	88.414857 
1419.632799  	89.026815 
1420.597224  	90.765467 
1421.561648  	91.523903 
1422.526073  	91.881390 
1423.490497  	91.553424 
1424.454922  	91.500900 
1425.419346  	92.257206 
1426.383770  	92.566941 
1427.348195  	92.588787 
1428.312619  	92.385056 
1429.277044  	92.026504 
1430.241468  	91.704725 
1431.205893  	91.917091 
1432.170317  	91.845316 
1433.134742  	91.563415 
1434.099166  	91.495172 
1435.063591  	91.206705 
1436.028015  	90.275109 
1436.992439  	89.514238 
1437.956864  	90.365692 
1438.921288  	90.748106 
1439.885713  	90.699140 
1440.850137  	90.607979 
1441.814562  	90.544816 
1442.778986  	90.496984 
1443.743411  	90.405729 
1444.707835  	90.315946 
1445.672260  	90.194359 
1446.636684  	89.985529 
1447.601108  	89.424453 
1448.565533  	89.314104 
1449.529957  	89.756005 
1450.494382  	89.776004 
1451.458806  	89.450913 
1452.423231  	89.170934 
1453.387655  	89.375898 
1454.352080  	89.125280 
1455.316504  	88.429925 
1456.280929  	87.886305 
1457.245353  	87.436275 
1458.209777  	87.603391 
1459.174202  	88.305830 
1460.138626  	89.340908 
1461.103051  	89.938292 
1462.067475  	90.117489 
1463.031900  	90.154109 
1463.996324  	89.841154 
1464.960749  	89.177182 
1465.925173  	89.490878 
1466.889598  	89.769163 
1467.854022  	89.520104 
1468.818446  	89.059966 
1469.782871  	88.348481 
1470.747295  	87.481957 
1471.711720  	86.291911 
1472.676144  	85.907755 
1473.640569  	86.924193 
1474.604993  	88.476310 
1475.569418  	88.831484 
1476.533842  	88.947834 
1477.498267  	90.090311 
1478.462691  	90.805517 
1479.427116  	91.137868 
1480.391540  	91.259226 
1481.355964  	91.183186 
1482.320389  	91.741784 
1483.284813  	92.249284 
1484.249238  	92.555091 
1485.213662  	92.647769 
1486.178087  	92.496708 
1487.142511  	92.216965 
1488.106936  	92.434737 
1489.071360  	92.045938 
1490.035785  	91.238763 
1491.000209  	92.058155 
1491.964633  	93.240380 
1492.929058  	93.689767 
1493.893482  	93.698819 
1494.857907  	93.458553 
1495.822331  	92.753458 
1496.786756  	92.188052 
1497.751180  	92.455290 
1498.715605  	91.920337 
1499.680029  	91.694134 
1500.644454  	91.638970 
1501.608878  	90.831760 
1502.573302  	89.964896 
1503.537727  	89.209727 
1504.502151  	88.101449 
1505.466576  	86.487832 
1506.431000  	84.244051 
1507.395425  	84.951368 
1508.359849  	87.214511 
1509.324274  	88.935855 
1510.288698  	90.419285 
1511.253123  	91.577563 
1512.217547  	91.781820 
1513.181971  	92.434901 
1514.146396  	92.826255 
1515.110820  	92.377154 
1516.075245  	91.763576 
1517.039669  	90.905275 
1518.004094  	91.936262 
1518.968518  	92.798646 
1519.932943  	92.207175 
1520.897367  	90.618812 
1521.861792  	90.709375 
1522.826216  	91.558071 
1523.790640  	92.256310 
1524.755065  	92.056615 
1525.719489  	91.717247 
1526.683914  	92.120675 
1527.648338  	91.962426 
1528.612763  	92.229109 
1529.577187  	92.949991 
1530.541612  	93.203962 
1531.506036  	92.757409 
1532.470461  	92.426263 
1533.434885  	91.763686 
1534.399309  	91.973893 
1535.363734  	92.705698 
1536.328158  	93.047114 
1537.292583  	93.120185 
1538.257007  	92.433270 
1539.221432  	90.553721 
1540.185856  	90.260666 
1541.150281  	91.283035 
1542.114705  	91.395497 
1543.079130  	91.481611 
1544.043554  	91.651109 
1545.007979  	91.478075 
1545.972403  	92.172639 
1546.936827  	93.062059 
1547.901252  	93.235338 
1548.865676  	92.894557 
1549.830101  	91.821829 
1550.794525  	92.070689 
1551.758950  	92.947183 
1552.723374  	92.967918 
1553.687799  	92.431099 
1554.652223  	91.769506 
1555.616648  	92.389185 
1556.581072  	92.464901 
1557.545496  	91.526160 
1558.509921  	88.890305 
1559.474345  	88.637940 
1560.438770  	90.580015 
1561.403194  	92.201328 
1562.367619  	92.769859 
1563.332043  	92.897112 
1564.296468  	92.599005 
1565.260892  	92.307912 
1566.225317  	92.656742 
1567.189741  	92.746265 
1568.154165  	92.407144 
1569.118590  	91.418594 
1570.083014  	91.048004 
1571.047439  	91.900408 
1572.011863  	92.073168 
1572.976288  	91.882284 
1573.940712  	91.633561 
1574.905137  	91.183867 
1575.869561  	90.227622 
1576.833986  	89.550858 
1577.798410  	90.150656 
1578.762834  	90.619720 
1579.727259  	90.883070 
1580.691683  	91.150598 
1581.656108  	91.411587 
1582.620532  	91.689395 
1583.584957  	91.938467 
1584.549381  	92.199912 
1585.513806  	92.423059 
1586.478230  	92.593705 
1587.442655  	92.698339 
1588.407079  	92.770657 
1589.371503  	92.717865 
1590.335928  	92.701233 
1591.300352  	92.736127 
1592.264777  	92.771892 
1593.229201  	92.771919 
1594.193626  	92.616879 
1595.158050  	92.547639 
1596.122475  	92.588021 
1597.086899  	92.598346 
1598.051324  	92.640249 
1599.015748  	92.562754 
1599.980173  	92.477967 
1600.944597  	92.309878 
1601.909021  	92.193726 
1602.873446  	92.005722 
1603.837870  	91.943220 
1604.802295  	91.990514 
1605.766719  	91.882193 
1606.731144  	91.563094 
1607.695568  	91.327728 
1608.659993  	91.225793 
1609.624417  	90.960455 
1610.588842  	91.027758 
1611.553266  	91.008860 
1612.517690  	90.870675 
1613.482115  	90.774484 
1614.446539  	90.659109 
1615.410964  	90.360299 
1616.375388  	89.648768 
1617.339813  	89.664448 
1618.304237  	90.426352 
1619.268662  	90.741252 
1620.233086  	90.822292 
1621.197511  	90.851253 
1622.161935  	90.625517 
1623.126359  	90.028870 
1624.090784  	90.008133 
1625.055208  	90.561632 
1626.019633  	90.646389 
1626.984057  	90.427598 
1627.948482  	90.025655 
1628.912906  	90.294859 
1629.877331  	90.482978 
1630.841755  	90.447577 
1631.806180  	90.396469 
1632.770604  	90.328498 
1633.735028  	90.048643 
1634.699453  	89.332992 
1635.663877  	88.110056 
1636.628302  	88.717382 
1637.592726  	88.843091 
1638.557151  	89.352334 
1639.521575  	89.663543 
1640.486000  	89.634812 
1641.450424  	89.562280 
1642.414849  	89.435681 
1643.379273  	89.400449 
1644.343697  	89.257319 
1645.308122  	88.590053 
1646.272546  	87.535742 
1647.236971  	87.132932 
1648.201395  	87.359958 
1649.165820  	88.135536 
1650.130244  	88.435710 
1651.094669  	88.141302 
1652.059093  	87.344061 
1653.023518  	84.926216 
1653.987942  	84.789770 
1654.952366  	86.375882 
1655.916791  	87.208122 
1656.881215  	87.277333 
1657.845640  	87.245125 
1658.810064  	87.120696 
1659.774489  	86.894237 
1660.738913  	86.401681 
1661.703338  	85.796852 
1662.667762  	85.007600 
1663.632187  	84.891146 
1664.596611  	84.907561 
1665.561036  	84.598512 
1666.525460  	84.173639 
1667.489884  	83.494612 
1668.454309  	82.240258 
1669.418733  	81.305011 
1670.383158  	81.421912 
1671.347582  	80.965821 
1672.312007  	80.745882 
1673.276431  	80.669874 
1674.240856  	80.001711 
1675.205280  	78.853786 
1676.169705  	78.555540 
1677.134129  	78.534704 
1678.098553  	78.000190 
1679.062978  	77.166819 
1680.027402  	75.897481 
1680.991827  	75.353848 
1681.956251  	75.038975 
1682.920676  	73.880546 
1683.885100  	71.355766 
1684.849525  	71.246568 
1685.813949  	72.923082 
1686.778374  	72.926251 
1687.742798  	72.153935 
1688.707222  	71.309484 
1689.671647  	70.650762 
1690.636071  	69.875533 
1691.600496  	69.204706 
1692.564920  	68.231508 
1693.529345  	66.933118 
1694.493769  	65.513781 
1695.458194  	63.621105 
1696.422618  	61.560300 
1697.387043  	60.738715 
1698.351467  	59.611621 
1699.315891  	57.992331 
1700.280316  	54.965776 
1701.244740  	53.797388 
1702.209165  	53.511219 
1703.173589  	52.461632 
1704.138014  	50.935425 
1705.102438  	49.477908 
1706.066863  	48.452524 
1707.031287  	47.520085 
1707.995712  	47.116673 
1708.960136  	46.659168 
1709.924560  	46.106824 
1710.888985  	45.982601 
1711.853409  	46.214588 
1712.817834  	46.381619 
1713.782258  	46.555159 
1714.746683  	47.043597 
1715.711107  	48.511582 
1716.675532  	49.388934 
1717.639956  	49.817617 
1718.604381  	52.177191 
1719.568805  	54.627212 
1720.533230  	56.138086 
1721.497654  	57.466165 
1722.462078  	58.764329 
1723.426503  	59.934938 
1724.390927  	61.459056 
1725.355352  	62.819287 
1726.319776  	64.121546 
1727.284201  	65.429096 
1728.248625  	66.745610 
1729.213050  	67.557061 
1730.177474  	68.485998 
1731.141899  	70.422032 
1732.106323  	71.581717 
1733.070747  	71.879630 
1734.035172  	72.159587 
1734.999596  	75.210387 
1735.964021  	77.397521 
1736.928445  	78.642001 
1737.892870  	79.931891 
1738.857294  	80.845777 
1739.821719  	81.737164 
1740.786143  	83.766993 
1741.750568  	85.098174 
1742.714992  	85.656104 
1743.679416  	86.375333 
1744.643841  	87.860109 
1745.608265  	88.989292 
1746.572690  	89.547160 
1747.537114  	89.958816 
1748.501539  	90.287937 
1749.465963  	90.964050 
1750.430388  	91.514768 
1751.394812  	91.393696 
1752.359237  	92.443201 
1753.323661  	93.351467 
1754.288085  	93.811487 
1755.252510  	93.989149 
1756.216934  	93.680410 
1757.181359  	93.456109 
1758.145783  	93.932014 
1759.110208  	94.320883 
1760.074632  	94.511749 
1761.039057  	94.202087 
1762.003481  	93.605240 
1762.967906  	94.311528 
1763.932330  	94.859986 
1764.896754  	95.050216 
1765.861179  	95.074289 
1766.825603  	94.995059 
1767.790028  	94.478673 
1768.754452  	94.336931 
1769.718877  	94.936621 
1770.683301  	94.799673 
1771.647726  	94.107547 
1772.612150  	93.766911 
1773.576575  	94.453852 
1774.540999  	94.995985 
1775.505423  	94.790998 
1776.469848  	95.022820 
1777.434272  	95.443498 
1778.398697  	95.399995 
1779.363121  	95.232798 
1780.327546  	94.948907 
1781.291970  	94.894111 
1782.256395  	95.345975 
1783.220819  	95.525712 
1784.185244  	95.331054 
1785.149668  	94.986560 
1786.114093  	95.340349 
1787.078517  	95.608084 
1788.042941  	95.617728 
1789.007366  	95.557371 
1789.971790  	95.387888 
1790.936215  	94.830938 
1791.900639  	94.513334 
1792.865064  	94.402084 
1793.829488  	95.041729 
1794.793913  	95.345513 
1795.758337  	94.983934 
1796.722762  	95.036040 
1797.687186  	95.503282 
1798.651610  	95.497031 
1799.616035  	95.100606 
1800.580459  	95.099683 
1801.544884  	95.038873 
1802.509308  	94.914914 
1803.473733  	95.398187 
1804.438157  	95.697226 
1805.402582  	95.691699 
1806.367006  	95.641382 
1807.331431  	95.513921 
1808.295855  	95.473314 
1809.260279  	95.660667 
1810.224704  	95.340995 
1811.189128  	95.091433 
1812.153553  	95.329334 
1813.117977  	95.541780 
1814.082402  	95.732362 
1815.046826  	95.756353 
1816.011251  	95.807789 
1816.975675  	95.703354 
1817.940100  	95.574885 
1818.904524  	95.746058 
1819.868948  	95.786866 
1820.833373  	95.777538 
1821.797797  	95.760025 
1822.762222  	95.647311 
1823.726646  	95.644479 
1824.691071  	95.351099 
1825.655495  	95.026848 
1826.619920  	95.637112 
1827.584344  	95.825430 
1828.548769  	95.474899 
1829.513193  	94.736812 
1830.477617  	94.792194 
1831.442042  	95.580154 
1832.406466  	95.833408 
1833.370891  	95.821391 
1834.335315  	95.990425 
1835.299740  	96.091531 
1836.264164  	96.014067 
1837.228589  	95.703716 
1838.193013  	95.833014 
1839.157438  	96.055353 
1840.121862  	96.142343 
1841.086287  	96.173313 
1842.050711  	95.965321 
1843.015135  	95.705375 
1843.979560  	95.281230 
1844.943984  	95.227515 
1845.908409  	95.775040 
1846.872833  	95.920804 
1847.837258  	95.682141 
1848.801682  	95.830928 
1849.766107  	96.205670 
1850.730531  	96.394868 
1851.694956  	96.462492 
1852.659380  	96.467820 
1853.623804  	96.473463 
1854.588229  	96.422255 
1855.552653  	96.410701 
1856.517078  	96.384320 
1857.481502  	96.427794 
1858.445927  	96.361851 
1859.410351  	96.275100 
1860.374776  	96.352395 
1861.339200  	96.352876 
1862.303625  	96.341522 
1863.268049  	96.407929 
1864.232473  	96.452048 
1865.196898  	96.455761 
1866.161322  	96.231514 
1867.125747  	95.975604 
1868.090171  	95.708031 
1869.054596  	95.512481 
1870.019020  	95.737851 
1870.983445  	96.205594 
1871.947869  	96.495788 
1872.912294  	96.652250 
1873.876718  	96.674785 
1874.841142  	96.643874 
1875.805567  	96.606922 
1876.769991  	96.617538 
1877.734416  	96.653318 
1878.698840  	96.617140 
1879.663265  	96.542892 
1880.627689  	96.595546 
1881.592114  	96.576581 
1882.556538  	96.586115 
1883.520963  	96.654937 
1884.485387  	96.588071 
1885.449811  	96.514401 
1886.414236  	96.631835 
1887.378660  	96.642705 
1888.343085  	96.463362 
1889.307509  	95.969687 
1890.271934  	95.913003 
1891.236358  	96.309347 
1892.200783  	96.489410 
1893.165207  	96.544261 
1894.129632  	96.507555 
1895.094056  	96.190084 
1896.058480  	96.258877 
1897.022905  	96.485114 
1897.987329  	96.464836 
1898.951754  	96.454569 
1899.916178  	96.568285 
1900.880603  	96.599341 
1901.845027  	96.521912 
1902.809452  	96.552110 
1903.773876  	96.561312 
1904.738301  	96.524751 
1905.702725  	96.580666 
1906.667150  	96.628031 
1907.631574  	96.402475 
1908.595998  	96.303010 
1909.560423  	96.229816 
1910.524847  	96.171401 
1911.489272  	96.468638 
1912.453696  	96.464252 
1913.418121  	96.389854 
1914.382545  	96.369848 
1915.346970  	96.459278 
1916.311394  	96.441735 
1917.275819  	96.175613 
1918.240243  	95.714170 
1919.204667  	96.115186 
1920.169092  	96.388145 
1921.133516  	96.290788 
1922.097941  	95.986371 
1923.062365  	95.682565 
1924.026790  	96.211391 
1924.991214  	96.612477 
1925.955639  	96.437246 
1926.920063  	96.402491 
1927.884488  	96.430337 
1928.848912  	96.416411 
1929.813336  	96.505021 
1930.777761  	96.618413 
1931.742185  	96.498302 
1932.706610  	96.516060 
1933.671034  	96.650322 
1934.635459  	96.650413 
1935.599883  	96.617096 
1936.564308  	96.638536 
1937.528732  	96.481026 
1938.493157  	96.462925 
1939.457581  	96.464777 
1940.422005  	96.363330 
1941.386430  	96.095334 
1942.350854  	95.581712 
1943.315279  	95.672011 
1944.279703  	96.198394 
1945.244128  	96.226421 
1946.208552  	96.248119 
1947.172977  	96.174471 
1948.137401  	96.147334 
1949.101826  	96.081483 
1950.066250  	96.227872 
1951.030674  	96.354715 
1951.995099  	96.324050 
1952.959523  	96.116427 
1953.923948  	96.004616 
1954.888372  	95.935879 
1955.852797  	95.897371 
1956.817221  	96.045576 
1957.781646  	96.509956 
1958.746070  	96.417682 
1959.710495  	96.464654 
1960.674919  	96.360179 
1961.639344  	96.172090 
1962.603768  	95.911637 
1963.568192  	95.904630 
1964.532617  	96.170572 
1965.497041  	96.538340 
1966.461466  	96.613217 
1967.425890  	96.415764 
1968.390315  	96.423080 
1969.354739  	96.545280 
1970.319164  	96.423363 
1971.283588  	96.441659 
1972.248013  	96.338738 
1973.212437  	96.594515 
1974.176861  	96.683901 
1975.141286  	96.558745 
1976.105710  	96.633552 
1977.070135  	96.995841 
1978.034559  	96.961991 
1978.998984  	96.447572 
1979.963408  	96.207240 
1980.927833  	96.281058 
1981.892257  	96.289202 
1982.856682  	96.319716 
1983.821106  	96.384191 
1984.785530  	96.448583 
1985.749955  	96.314737 
1986.714379  	96.434936 
1987.678804  	96.454811 
1988.643228  	96.391719 
1989.607653  	96.510140 
1990.572077  	96.582703 
1991.536502  	96.253551 
1992.500926  	96.146359 
1993.465351  	96.438728 
1994.429775  	96.673574 
1995.394199  	96.584893 
1996.358624  	96.411526 
1997.323048  	96.355234 
1998.287473  	96.521642 
1999.251897  	96.580668 
2000.216322  	96.754097 
2001.180746  	97.013632 
2002.145171  	97.053497 
2003.109595  	97.026741 
2004.074020  	97.218540 
2005.038444  	97.227065 
2006.002868  	97.007169 
2006.967293  	97.088993 
2007.931717  	96.868504 
2008.896142  	96.769121 
2009.860566  	96.902664 
2010.824991  	96.834311 
2011.789415  	96.721819 
2012.753840  	96.669898 
2013.718264  	96.688253 
2014.682689  	96.872984 
2015.647113  	97.087247 
2016.611537  	97.004646 
2017.575962  	96.981137 
2018.540386  	96.860756 
2019.504811  	97.186017 
2020.469235  	97.218117 
2021.433660  	97.063885 
2022.398084  	97.247540 
2023.362509  	97.165797 
2024.326933  	97.016610 
2025.291358  	96.947201 
2026.255782  	97.045841 
2027.220207  	97.013355 
2028.184631  	96.970018 
2029.149055  	97.537601 
2030.113480  	97.797927 
2031.077904  	97.831288 
2032.042329  	97.704648 
2033.006753  	97.529391 
2033.971178  	97.511247 
2034.935602  	97.499453 
2035.900027  	97.429792 
2036.864451  	97.439839 
2037.828876  	97.232674 
2038.793300  	97.042189 
2039.757724  	96.615793 
2040.722149  	96.550367 
2041.686573  	96.610395 
2042.650998  	96.663774 
2043.615422  	96.629595 
2044.579847  	96.739699 
2045.544271  	96.968557 
2046.508696  	97.104917 
2047.473120  	96.913060 
2048.437545  	96.941426 
2049.401969  	96.918814 
2050.366393  	96.426820 
2051.330818  	96.275996 
2052.295242  	96.759948 
2053.259667  	97.133296 
2054.224091  	96.886873 
2055.188516  	96.367953 
2056.152940  	96.385253 
2057.117365  	96.471221 
2058.081789  	96.512996 
2059.046214  	96.533921 
2060.010638  	96.535077 
2060.975062  	96.466224 
2061.939487  	96.543469 
2062.903911  	96.467020 
2063.868336  	96.315981 
2064.832760  	96.253128 
2065.797185  	96.380114 
2066.761609  	96.419985 
2067.726034  	96.492525 
2068.690458  	96.460277 
2069.654883  	96.480950 
2070.619307  	96.532500 
2071.583731  	96.439093 
2072.548156  	96.354432 
2073.512580  	96.347762 
2074.477005  	96.178335 
2075.441429  	96.271854 
2076.405854  	96.317754 
2077.370278  	96.219846 
2078.334703  	96.285295 
2079.299127  	96.380726 
2080.263552  	96.419487 
2081.227976  	96.371573 
2082.192401  	96.296606 
2083.156825  	96.232639 
2084.121249  	96.306201 
2085.085674  	96.527707 
2086.050098  	96.515960 
2087.014523  	96.350776 
2087.978947  	96.341273 
2088.943372  	96.391384 
2089.907796  	96.348144 
2090.872221  	96.368468 
2091.836645  	96.482887 
2092.801070  	96.509048 
2093.765494  	96.524492 
2094.729918  	96.602313 
2095.694343  	96.499201 
2096.658767  	96.399611 
2097.623192  	96.433485 
2098.587616  	96.345823 
2099.552041  	96.299398 
2100.516465  	96.359996 
2101.480890  	96.330018 
2102.445314  	96.259170 
2103.409739  	96.284995 
2104.374163  	96.315127 
2105.338587  	96.285116 
2106.303012  	96.235075 
2107.267436  	96.239085 
2108.231861  	96.275759 
2109.196285  	96.265990 
2110.160710  	96.408436 
2111.125134  	96.468129 
2112.089559  	96.348977 
2113.053983  	96.291707 
2114.018408  	96.283350 
2114.982832  	96.281102 
2115.947256  	96.274483 
2116.911681  	96.360141 
2117.876105  	96.542762 
2118.840530  	96.603552 
2119.804954  	96.559325 
2120.769379  	96.443087 
2121.733803  	96.544347 
2122.698228  	96.751667 
2123.662652  	96.792404 
2124.627077  	96.600231 
2125.591501  	96.617315 
2126.555925  	96.847485 
2127.520350  	96.927896 
2128.484774  	96.923560 
2129.449199  	97.028354 
2130.413623  	96.991398 
2131.378048  	97.009711 
2132.342472  	97.118311 
2133.306897  	97.224449 
2134.271321  	96.989296 
2135.235746  	96.638791 
2136.200170  	96.552451 
2137.164594  	96.801580 
2138.129019  	97.063526 
2139.093443  	97.137021 
2140.057868  	97.082491 
2141.022292  	97.067731 
2141.986717  	97.006576 
2142.951141  	97.065209 
2143.915566  	97.212962 
2144.879990  	97.171419 
2145.844415  	97.218055 
2146.808839  	97.243399 
2147.773264  	97.344073 
2148.737688  	97.481222 
2149.702112  	97.414215 
2150.666537  	97.280634 
2151.630961  	97.158034 
2152.595386  	97.367285 
2153.559810  	97.442905 
2154.524235  	97.502610 
2155.488659  	98.058087 
2156.453084  	98.648601 
2157.417508  	98.491264 
2158.381933  	98.216899 
2159.346357  	97.512774 
2160.310781  	96.717832 
2161.275206  	96.360343 
2162.239630  	96.641184 
2163.204055  	96.878112 
2164.168479  	96.903027 
2165.132904  	96.652353 
2166.097328  	96.700470 
2167.061753  	96.996902 
2168.026177  	97.214748 
2168.990602  	96.852682 
2169.955026  	96.780086 
2170.919450  	96.952522 
2171.883875  	96.895394 
2172.848299  	97.013918 
2173.812724  	97.206332 
2174.777148  	97.375808 
2175.741573  	97.456334 
2176.705997  	97.064973 
2177.670422  	97.083309 
2178.634846  	97.332798 
2179.599271  	97.366163 
2180.563695  	97.296403 
2181.528119  	97.195818 
2182.492544  	96.957240 
2183.456968  	96.708140 
2184.421393  	96.439767 
2185.385817  	96.867001 
2186.350242  	97.036923 
2187.314666  	96.731060 
2188.279091  	96.635757 
2189.243515  	96.614248 
2190.207940  	96.660637 
2191.172364  	97.053380 
2192.136788  	97.189125 
2193.101213  	97.195428 
2194.065637  	97.123102 
2195.030062  	96.808251 
2195.994486  	96.541043 
2196.958911  	96.766930 
2197.923335  	96.945464 
2198.887760  	96.867558 
2199.852184  	96.828728 
2200.816609  	96.937619 
2201.781033  	97.059524 
2202.745458  	97.202044 
2203.709882  	97.162390 
2204.674306  	96.835582 
2205.638731  	96.575225 
2206.603155  	96.857771 
2207.567580  	96.999137 
2208.532004  	96.839598 
2209.496429  	96.722040 
2210.460853  	96.713030 
2211.425278  	96.766794 
2212.389702  	96.858846 
2213.354127  	96.662261 
2214.318551  	96.519632 
2215.282975  	96.518028 
2216.247400  	96.666401 
2217.211824  	96.890900 
2218.176249  	96.867011 
2219.140673  	96.712375 
2220.105098  	96.485989 
2221.069522  	96.571018 
2222.033947  	96.755305 
2222.998371  	96.634593 
2223.962796  	96.675521 
2224.927220  	96.786175 
2225.891644  	96.599544 
2226.856069  	96.470888 
2227.820493  	96.627745 
2228.784918  	96.704342 
2229.749342  	96.547247 
2230.713767  	96.509418 
2231.678191  	96.465360 
2232.642616  	96.448670 
2233.607040  	96.673912 
2234.571465  	96.552559 
2235.535889  	96.491707 
2236.500313  	96.434319 
2237.464738  	96.453002 
2238.429162  	96.542281 
2239.393587  	96.504018 
2240.358011  	96.461282 
2241.322436  	96.627500 
2242.286860  	96.721638 
2243.251285  	96.758072 
2244.215709  	96.609788 
2245.180134  	96.324978 
2246.144558  	96.305015 
2247.108982  	96.551346 
2248.073407  	96.598789 
2249.037831  	96.562454 
2250.002256  	96.577649 
2250.966680  	96.581490 
2251.931105  	96.543083 
2252.895529  	96.503439 
2253.859954  	96.494430 
2254.824378  	96.449026 
2255.788803  	96.452919 
2256.753227  	96.492087 
2257.717651  	96.492862 
2258.682076  	96.286778 
2259.646500  	96.231495 
2260.610925  	96.273871 
2261.575349  	96.242924 
2262.539774  	96.244475 
2263.504198  	96.286206 
2264.468623  	96.232077 
2265.433047  	96.266036 
2266.397472  	96.352351 
2267.361896  	96.324156 
2268.326321  	96.276550 
2269.290745  	96.221254 
2270.255169  	96.257696 
2271.219594  	96.301496 
2272.184018  	96.261429 
2273.148443  	96.217002 
2274.112867  	96.233402 
2275.077292  	96.184914 
2276.041716  	96.111193 
2277.006141  	96.104811 
2277.970565  	96.143338 
2278.934990  	96.058496 
2279.899414  	96.011434 
2280.863838  	96.078518 
2281.828263  	96.088192 
2282.792687  	96.047587 
2283.757112  	96.014498 
2284.721536  	96.020208 
2285.685961  	96.009130 
2286.650385  	96.025153 
2287.614810  	95.996746 
2288.579234  	95.935495 
2289.543659  	95.925337 
2290.508083  	95.992617 
2291.472507  	96.107809 
2292.436932  	96.112959 
2293.401356  	96.030516 
2294.365781  	95.988581 
2295.330205  	96.071605 
2296.294630  	96.103511 
2297.259054  	96.073775 
2298.223479  	96.021892 
2299.187903  	96.048998 
2300.152328  	96.139373 
2301.116752  	96.152439 
2302.081176  	96.172957 
2303.045601  	96.164244 
2304.010025  	96.206451 
2304.974450  	96.176383 
2305.938874  	96.123976 
2306.903299  	96.149638 
2307.867723  	96.159327 
2308.832148  	96.093070 
2309.796572  	96.086423 
2310.760997  	96.129069 
2311.725421  	96.084194 
2312.689845  	96.203965 
2313.654270  	96.230855 
2314.618694  	96.270646 
2315.583119  	96.299518 
2316.547543  	96.312142 
2317.511968  	96.339784 
2318.476392  	96.369546 
2319.440817  	96.374032 
2320.405241  	96.418153 
2321.369666  	96.458844 
2322.334090  	96.426711 
2323.298515  	96.379600 
2324.262939  	96.291855 
2325.227363  	96.587472 
2326.191788  	96.949222 
2327.156212  	97.154080 
2328.120637  	97.140638 
2329.085061  	97.164037 
2330.049486  	97.203063 
2331.013910  	97.270142 
2331.978335  	97.304680 
2332.942759  	97.386198 
2333.907184  	97.405310 
2334.871608  	97.397054 
2335.836032  	97.514184 
2336.800457  	97.687364 
2337.764881  	97.662303 
2338.729306  	97.612155 
2339.693730  	97.567717 
2340.658155  	97.631003 
2341.622579  	97.689565 
2342.587004  	97.612618 
2343.551428  	97.497360 
2344.515853  	97.425584 
2345.480277  	97.332193 
2346.444701  	97.135853 
2347.409126  	96.882871 
2348.373550  	96.668901 
2349.337975  	96.632816 
2350.302399  	96.865581 
2351.266824  	97.186957 
2352.231248  	97.430665 
2353.195673  	97.446830 
2354.160097  	97.471102 
2355.124522  	97.648671 
2356.088946  	97.869228 
2357.053370  	98.019675 
2358.017795  	98.097368 
2358.982219  	97.988796 
2359.946644  	98.158185 
2360.911068  	98.251509 
2361.875493  	98.180210 
2362.839917  	98.086753 
2363.804342  	98.030772 
2364.768766  	98.010378 
2365.733191  	97.959650 
2366.697615  	97.809704 
2367.662039  	97.643019 
2368.626464  	97.456323 
2369.590888  	97.324434 
2370.555313  	97.155674 
2371.519737  	97.012368 
2372.484162  	96.826397 
2373.448586  	96.735710 
2374.413011  	96.686599 
2375.377435  	96.573725 
2376.341860  	96.480182 
2377.306284  	96.438485 
2378.270708  	96.355497 
2379.235133  	96.228055 
2380.199557  	96.164166 
2381.163982  	96.197546 
2382.128406  	96.242928 
2383.092831  	96.269614 
2384.057255  	96.234395 
2385.021680  	96.238818 
2385.986104  	96.273086 
2386.950529  	96.242237 
2387.914953  	96.278732 
2388.879378  	96.338213 
2389.843802  	96.375502 
2390.808226  	96.374741 
2391.772651  	96.326345 
2392.737075  	96.323013 
2393.701500  	96.329266 
2394.665924  	96.318222 
2395.630349  	96.318365 
2396.594773  	96.290967 
2397.559198  	96.303650 
2398.523622  	96.343680 
2399.488047  	96.389050 
2400.452471  	96.378284 
2401.416895  	96.360852 
2402.381320  	96.366473 
2403.345744  	96.370637 
2404.310169  	96.346295 
2405.274593  	96.307373 
2406.239018  	96.291112 
2407.203442  	96.320482 
2408.167867  	96.329915 
2409.132291  	96.294279 
2410.096716  	96.255392 
2411.061140  	96.275077 
2412.025564  	96.307728 
2412.989989  	96.278160 
2413.954413  	96.293684 
2414.918838  	96.332741 
2415.883262  	96.305831 
2416.847687  	96.279783 
2417.812111  	96.302795 
2418.776536  	96.327664 
2419.740960  	96.338864 
2420.705385  	96.340215 
2421.669809  	96.325491 
2422.634233  	96.323128 
2423.598658  	96.267752 
2424.563082  	96.283719 
2425.527507  	96.370708 
2426.491931  	96.350178 
2427.456356  	96.294132 
2428.420780  	96.331308 
2429.385205  	96.377967 
2430.349629  	96.346770 
2431.314054  	96.271764 
2432.278478  	96.302017 
2433.242902  	96.362538 
2434.207327  	96.372126 
2435.171751  	96.402326 
2436.136176  	96.471800 
2437.100600  	96.432334 
2438.065025  	96.381085 
2439.029449  	96.435646 
2439.993874  	96.420621 
2440.958298  	96.356398 
2441.922723  	96.337892 
2442.887147  	96.349883 
2443.851572  	96.384298 
2444.815996  	96.449313 
2445.780420  	96.431686 
2446.744845  	96.338557 
2447.709269  	96.333795 
2448.673694  	96.402238 
2449.638118  	96.439912 
2450.602543  	96.408798 
2451.566967  	96.318750 
2452.531392  	96.260529 
2453.495816  	96.299230 
2454.460241  	96.349301 
2455.424665  	96.313880 
2456.389089  	96.260986 
2457.353514  	96.290875 
2458.317938  	96.374307 
2459.282363  	96.386664 
2460.246787  	96.371905 
2461.211212  	96.357810 
2462.175636  	96.395622 
2463.140061  	96.415476 
2464.104485  	96.417399 
2465.068910  	96.427568 
2466.033334  	96.381314 
2466.997758  	96.346498 
2467.962183  	96.411041 
2468.926607  	96.387259 
2469.891032  	96.333804 
2470.855456  	96.363608 
2471.819881  	96.433442 
2472.784305  	96.480106 
2473.748730  	96.458139 
2474.713154  	96.433849 
2475.677579  	96.386339 
2476.642003  	96.345945 
2477.606427  	96.359699 
2478.570852  	96.426642 
2479.535276  	96.436368 
2480.499701  	96.395379 
2481.464125  	96.376145 
2482.428550  	96.394533 
2483.392974  	96.384901 
2484.357399  	96.391176 
2485.321823  	96.314479 
2486.286248  	96.234269 
2487.250672  	96.314286 
2488.215096  	96.421843 
2489.179521  	96.379363 
2490.143945  	96.289754 
2491.108370  	96.208804 
2492.072794  	96.204336 
2493.037219  	96.246920 
2494.001643  	96.338407 
2494.966068  	96.388809 
2495.930492  	96.433923 
2496.894917  	96.373742 
2497.859341  	96.288239 
2498.823765  	96.277923 
2499.788190  	96.315815 
2500.752614  	96.336202 
2501.717039  	96.294350 
2502.681463  	96.277685 
2503.645888  	96.274696 
2504.610312  	96.233156 
2505.574737  	96.230021 
2506.539161  	96.293462 
2507.503586  	96.337841 
2508.468010  	96.294108 
2509.432435  	96.239286 
2510.396859  	96.234907 
2511.361283  	96.252813 
2512.325708  	96.246975 
2513.290132  	96.263587 
2514.254557  	96.297500 
2515.218981  	96.290215 
2516.183406  	96.211131 
2517.147830  	96.234287 
2518.112255  	96.223701 
2519.076679  	96.189124 
2520.041104  	96.216618 
2521.005528  	96.206272 
2521.969952  	96.144015 
2522.934377  	96.155575 
2523.898801  	96.221787 
2524.863226  	96.289032 
2525.827650  	96.278170 
2526.792075  	96.269001 
2527.756499  	96.208433 
2528.720924  	96.181860 
2529.685348  	96.173967 
2530.649773  	96.199365 
2531.614197  	96.181791 
2532.578621  	96.176323 
2533.543046  	96.185823 
2534.507470  	96.193898 
2535.471895  	96.196417 
2536.436319  	96.195142 
2537.400744  	96.194051 
2538.365168  	96.117998 
2539.329593  	96.087338 
2540.294017  	96.142397 
2541.258442  	96.169601 
2542.222866  	96.163703 
2543.187290  	96.210337 
2544.151715  	96.233315 
2545.116139  	96.213922 
2546.080564  	96.173579 
2547.044988  	96.136390 
2548.009413  	96.088980 
2548.973837  	96.162262 
2549.938262  	96.192808 
2550.902686  	96.166448 
2551.867111  	96.171617 
2552.831535  	96.159710 
2553.795959  	96.142194 
2554.760384  	96.135867 
2555.724808  	96.095807 
2556.689233  	96.061959 
2557.653657  	96.115796 
2558.618082  	96.117926 
2559.582506  	96.118879 
2560.546931  	96.114034 
2561.511355  	96.015420 
2562.475780  	96.010080 
2563.440204  	96.092513 
2564.404629  	96.151741 
2565.369053  	96.182922 
2566.333477  	96.171012 
2567.297902  	96.127506 
2568.262326  	96.108642 
2569.226751  	96.056955 
2570.191175  	96.036671 
2571.155600  	96.057612 
2572.120024  	96.053082 
2573.084449  	96.139888 
2574.048873  	96.146645 
2575.013298  	96.056885 
2575.977722  	96.034112 
2576.942146  	96.058502 
2577.906571  	96.093010 
2578.870995  	96.131963 
2579.835420  	96.121860 
2580.799844  	96.144047 
2581.764269  	96.118486 
2582.728693  	96.153170 
2583.693118  	96.074659 
2584.657542  	96.003628 
2585.621967  	96.035577 
2586.586391  	96.058965 
2587.550815  	96.090591 
2588.515240  	96.109181 
2589.479664  	96.052768 
2590.444089  	96.032965 
2591.408513  	96.083609 
2592.372938  	96.085736 
2593.337362  	96.061929 
2594.301787  	96.066959 
2595.266211  	96.066267 
2596.230636  	96.097436 
2597.195060  	96.107904 
2598.159484  	96.106963 
2599.123909  	96.122798 
2600.088333  	96.121246 
2601.052758  	96.063155 
2602.017182  	96.019971 
2602.981607  	96.069321 
2603.946031  	96.123220 
2604.910456  	96.135216 
2605.874880  	96.110719 
2606.839305  	96.045505 
2607.803729  	96.043210 
2608.768153  	96.099959 
2609.732578  	96.101927 
2610.697002  	96.076320 
2611.661427  	96.095491 
2612.625851  	96.134204 
2613.590276  	96.139658 
2614.554700  	96.110265 
2615.519125  	96.068280 
2616.483549  	96.049431 
2617.447974  	96.051701 
2618.412398  	96.072558 
2619.376822  	96.078045 
2620.341247  	96.079220 
2621.305671  	96.046320 
2622.270096  	96.008276 
2623.234520  	96.001811 
2624.198945  	96.001147 
2625.163369  	96.016524 
2626.127794  	96.021099 
2627.092218  	96.004323 
2628.056643  	95.974185 
2629.021067  	95.951395 
2629.985492  	95.993647 
2630.949916  	96.096142 
2631.914340  	96.066524 
2632.878765  	96.017423 
2633.843189  	96.042573 
2634.807614  	96.041920 
2635.772038  	96.033054 
2636.736463  	96.003028 
2637.700887  	96.021439 
2638.665312  	96.045263 
2639.629736  	96.043325 
2640.594161  	96.051115 
2641.558585  	96.051662 
2642.523009  	96.039188 
2643.487434  	96.057738 
2644.451858  	96.069271 
2645.416283  	96.040014 
2646.380707  	96.049716 
2647.345132  	96.074392 
2648.309556  	96.078239 
2649.273981  	96.063243 
2650.238405  	96.074012 
2651.202830  	96.103101 
2652.167254  	96.089283 
2653.131678  	96.066154 
2654.096103  	96.059004 
2655.060527  	96.061826 
2656.024952  	96.051243 
2656.989376  	96.056360 
2657.953801  	96.068896 
2658.918225  	96.087263 
2659.882650  	96.096989 
2660.847074  	96.099768 
2661.811499  	96.145904 
2662.775923  	96.167869 
2663.740347  	96.184396 
2664.704772  	96.179453 
2665.669196  	96.192915 
2666.633621  	96.207278 
2667.598045  	96.187408 
2668.562470  	96.167349 
2669.526894  	96.169779 
2670.491319  	96.152219 
2671.455743  	96.193281 
2672.420168  	96.212887 
2673.384592  	96.209122 
2674.349016  	96.233593 
2675.313441  	96.231639 
2676.277865  	96.207765 
2677.242290  	96.219435 
2678.206714  	96.203447 
2679.171139  	96.180881 
2680.135563  	96.194066 
2681.099988  	96.211178 
2682.064412  	96.227203 
2683.028837  	96.221108 
2683.993261  	96.204769 
2684.957686  	96.215567 
2685.922110  	96.233734 
2686.886534  	96.210892 
2687.850959  	96.205212 
2688.815383  	96.223690 
2689.779808  	96.223070 
2690.744232  	96.216997 
2691.708657  	96.202748 
2692.673081  	96.200354 
2693.637506  	96.196034 
2694.601930  	96.221006 
2695.566355  	96.257763 
2696.530779  	96.239973 
2697.495203  	96.200587 
2698.459628  	96.221065 
2699.424052  	96.251260 
2700.388477  	96.214286 
2701.352901  	96.174064 
2702.317326  	96.178551 
2703.281750  	96.192566 
2704.246175  	96.212340 
2705.210599  	96.210906 
2706.175024  	96.207857 
2707.139448  	96.181136 
2708.103872  	96.163290 
2709.068297  	96.198527 
2710.032721  	96.207379 
2710.997146  	96.190825 
2711.961570  	96.207091 
2712.925995  	96.223607 
2713.890419  	96.231712 
2714.854844  	96.226629 
2715.819268  	96.223332 
2716.783693  	96.198561 
2717.748117  	96.204586 
2718.712541  	96.212950 
2719.676966  	96.213377 
2720.641390  	96.190962 
2721.605815  	96.193549 
2722.570239  	96.201063 
2723.534664  	96.199479 
2724.499088  	96.170264 
2725.463513  	96.164220 
2726.427937  	96.183002 
2727.392362  	96.196694 
2728.356786  	96.174548 
2729.321210  	96.134159 
2730.285635  	96.112305 
2731.250059  	96.091038 
2732.214484  	96.109762 
2733.178908  	96.147190 
2734.143333  	96.170054 
2735.107757  	96.178913 
2736.072182  	96.188203 
2737.036606  	96.197364 
2738.001031  	96.164049 
2738.965455  	96.125478 
2739.929879  	96.118725 
2740.894304  	96.123267 
2741.858728  	96.117408 
2742.823153  	96.086045 
2743.787577  	96.093335 
2744.752002  	96.122519 
2745.716426  	96.100823 
2746.680851  	96.085486 
2747.645275  	96.073853 
2748.609700  	96.067954 
2749.574124  	96.105714 
2750.538549  	96.141963 
2751.502973  	96.103077 
2752.467397  	96.076968 
2753.431822  	96.073069 
2754.396246  	96.080004 
2755.360671  	96.103186 
2756.325095  	96.132072 
2757.289520  	96.109591 
2758.253944  	96.109349 
2759.218369  	96.116435 
2760.182793  	96.109199 
2761.147218  	96.088078 
2762.111642  	96.069889 
2763.076066  	96.065238 
2764.040491  	96.097304 
2765.004915  	96.117179 
2765.969340  	96.110400 
2766.933764  	96.104731 
2767.898189  	96.096208 
2768.862613  	96.087049 
2769.827038  	96.083339 
2770.791462  	96.093607 
2771.755887  	96.080606 
2772.720311  	96.063903 
2773.684735  	96.053312 
2774.649160  	96.064143 
2775.613584  	96.061453 
2776.578009  	96.063514 
2777.542433  	96.060774 
2778.506858  	96.041229 
2779.471282  	96.026143 
2780.435707  	96.008582 
2781.400131  	95.996612 
2782.364556  	96.013481 
2783.328980  	96.031409 
2784.293404  	96.012831 
2785.257829  	95.997175 
2786.222253  	96.008024 
2787.186678  	96.019580 
2788.151102  	96.009635 
2789.115527  	96.061103 
2790.079951  	96.059529 
2791.044376  	96.023794 
2792.008800  	95.994418 
2792.973225  	95.970110 
2793.937649  	95.978183 
2794.902073  	95.985395 
2795.866498  	95.961030 
2796.830922  	95.959297 
2797.795347  	95.963647 
2798.759771  	95.966196 
2799.724196  	95.940833 
2800.688620  	95.900349 
2801.653045  	95.887384 
2802.617469  	95.887526 
2803.581894  	95.927837 
2804.546318  	95.968163 
2805.510743  	95.939665 
2806.475167  	95.891125 
2807.439591  	95.880591 
2808.404016  	95.889781 
2809.368440  	95.914818 
2810.332865  	95.928472 
2811.297289  	95.882101 
2812.261714  	95.870633 
2813.226138  	95.909279 
2814.190563  	95.887712 
2815.154987  	95.888854 
2816.119412  	95.917453 
2817.083836  	95.917677 
2818.048260  	95.895944 
2819.012685  	95.878263 
2819.977109  	95.886449 
2820.941534  	95.894537 
2821.905958  	95.907866 
2822.870383  	95.906150 
2823.834807  	95.896861 
2824.799232  	95.871559 
2825.763656  	95.878692 
2826.728081  	95.884329 
2827.692505  	95.865742 
2828.656929  	95.872450 
2829.621354  	95.878238 
2830.585778  	95.854003 
2831.550203  	95.827567 
2832.514627  	95.781142 
2833.479052  	95.794193 
2834.443476  	95.825120 
2835.407901  	95.827758 
2836.372325  	95.806708 
2837.336750  	95.786268 
2838.301174  	95.752790 
2839.265598  	95.687544 
2840.230023  	95.667851 
2841.194447  	95.701802 
2842.158872  	95.667335 
2843.123296  	95.608187 
2844.087721  	95.570639 
2845.052145  	95.526610 
2846.016570  	95.503040 
2846.980994  	95.453877 
2847.945419  	95.387373 
2848.909843  	95.316926 
2849.874267  	95.260721 
2850.838692  	95.227978 
2851.803116  	95.185889 
2852.767541  	95.180750 
2853.731965  	95.206089 
2854.696390  	95.236315 
2855.660814  	95.284359 
2856.625239  	95.317535 
2857.589663  	95.340176 
2858.554088  	95.353555 
2859.518512  	95.371600 
2860.482936  	95.383007 
2861.447361  	95.370681 
2862.411785  	95.384724 
2863.376210  	95.413998 
2864.340634  	95.413606 
2865.305059  	95.392887 
2866.269483  	95.391845 
2867.233908  	95.370753 
2868.198332  	95.348962 
2869.162757  	95.366236 
2870.127181  	95.380790 
2871.091606  	95.358376 
2872.056030  	95.359113 
2873.020454  	95.387901 
2873.984879  	95.400562 
2874.949303  	95.347321 
2875.913728  	95.315464 
2876.878152  	95.333435 
2877.842577  	95.325216 
2878.807001  	95.313543 
2879.771426  	95.324631 
2880.735850  	95.294207 
2881.700275  	95.271709 
2882.664699  	95.289774 
2883.629123  	95.261125 
2884.593548  	95.241622 
2885.557972  	95.237513 
2886.522397  	95.199332 
2887.486821  	95.196619 
2888.451246  	95.186448 
2889.415670  	95.168825 
2890.380095  	95.151700 
2891.344519  	95.160149 
2892.308944  	95.148540 
2893.273368  	95.092777 
2894.237792  	95.074504 
2895.202217  	95.025285 
2896.166641  	95.013696 
2897.131066  	94.998277 
2898.095490  	94.962609 
2899.059915  	94.970414 
2900.024339  	94.916729 
2900.988764  	94.861719 
2901.953188  	94.837325 
2902.917613  	94.786688 
2903.882037  	94.707155 
2904.846461  	94.644447 
2905.810886  	94.599611 
2906.775310  	94.575639 
2907.739735  	94.522608 
2908.704159  	94.468734 
2909.668584  	94.467230 
2910.633008  	94.460490 
2911.597433  	94.458363 
2912.561857  	94.501170 
2913.526282  	94.534683 
2914.490706  	94.543209 
2915.455130  	94.518586 
2916.419555  	94.525342 
2917.383979  	94.541239 
2918.348404  	94.530689 
2919.312828  	94.528191 
2920.277253  	94.519108 
2921.241677  	94.527969 
2922.206102  	94.564594 
2923.170526  	94.581899 
2924.134951  	94.583506 
2925.099375  	94.577299 
2926.063800  	94.624306 
2927.028224  	94.687768 
2927.992648  	94.697093 
2928.957073  	94.703623 
2929.921497  	94.725301 
2930.885922  	94.750204 
2931.850346  	94.771719 
2932.814771  	94.803742 
2933.779195  	94.824614 
2934.743620  	94.834195 
2935.708044  	94.832335 
2936.672469  	94.835090 
2937.636893  	94.877896 
2938.601317  	94.861363 
2939.565742  	94.842597 
2940.530166  	94.851781 
2941.494591  	94.821659 
2942.459015  	94.778691 
2943.423440  	94.754248 
2944.387864  	94.710525 
2945.352289  	94.665091 
2946.316713  	94.625622 
2947.281138  	94.607368 
2948.245562  	94.573574 
2949.209986  	94.478473 
2950.174411  	94.390730 
2951.138835  	94.392770 
2952.103260  	94.395941 
2953.067684  	94.308159 
2954.032109  	94.213706 
2954.996533  	94.160746 
2955.960958  	94.098139 
2956.925382  	94.036413 
2957.889807  	93.998899 
2958.854231  	93.945449 
2959.818655  	93.899345 
2960.783080  	93.861297 
2961.747504  	93.801615 
2962.711929  	93.786699 
2963.676353  	93.747389 
2964.640778  	93.680454 
2965.605202  	93.596483 
2966.569627  	93.530124 
2967.534051  	93.556616 
2968.498476  	93.591982 
2969.462900  	93.587271 
2970.427324  	93.614168 
2971.391749  	93.636734 
2972.356173  	93.683072 
2973.320598  	93.744511 
2974.285022  	93.814068 
2975.249447  	93.885461 
2976.213871  	93.973388 
2977.178296  	94.038732 
2978.142720  	94.102467 
2979.107145  	94.165995 
2980.071569  	94.285245 
2981.035993  	94.338292 
2982.000418  	94.396160 
2982.964842  	94.488482 
2983.929267  	94.562739 
2984.893691  	94.615619 
2985.858116  	94.646441 
2986.822540  	94.699174 
2987.786965  	94.696430 
2988.751389  	94.712242 
2989.715814  	94.776175 
2990.680238  	94.826515 
2991.644663  	94.859485 
2992.609087  	94.877147 
2993.573511  	94.884972 
2994.537936  	94.930705 
2995.502360  	94.964130 
2996.466785  	94.941201 
2997.431209  	94.927647 
2998.395634  	94.951382 
2999.360058  	94.992743 
3000.324483  	95.014356 
3001.288907  	95.002057 
3002.253332  	94.989731 
3003.217756  	94.977649 
3004.182180  	94.942974 
3005.146605  	94.968861 
3006.111029  	95.039385 
3007.075454  	95.078836 
3008.039878  	95.080779 
3009.004303  	95.130589 
3009.968727  	95.141191 
3010.933152  	95.104785 
3011.897576  	95.100962 
3012.862001  	95.035788 
3013.826425  	95.101344 
3014.790849  	95.207731 
3015.755274  	95.192226 
3016.719698  	95.218591 
3017.684123  	95.268196 
3018.648547  	95.300142 
3019.612972  	95.314562 
3020.577396  	95.380151 
3021.541821  	95.438841 
3022.506245  	95.463946 
3023.470670  	95.466449 
3024.435094  	95.507204 
3025.399518  	95.526006 
3026.363943  	95.541227 
3027.328367  	95.627522 
3028.292792  	95.648289 
3029.257216  	95.640835 
3030.221641  	95.614927 
3031.186065  	95.554507 
3032.150490  	95.531157 
3033.114914  	95.606165 
3034.079339  	95.628155 
3035.043763  	95.590023 
3036.008187  	95.616717 
3036.972612  	95.661528 
3037.937036  	95.611765 
3038.901461  	95.601330 
3039.865885  	95.634582 
3040.830310  	95.671719 
3041.794734  	95.674128 
3042.759159  	95.628035 
3043.723583  	95.636267 
3044.688008  	95.654325 
3045.652432  	95.622114 
3046.616857  	95.559394 
3047.581281  	95.502592 
3048.545705  	95.432169 
3049.510130  	95.417409 
3050.474554  	95.422642 
3051.438979  	95.431923 
3052.403403  	95.423273 
3053.367828  	95.377087 
3054.332252  	95.313265 
3055.296677  	95.333443 
3056.261101  	95.303148 
3057.225526  	95.234403 
3058.189950  	95.267499 
3059.154374  	95.322628 
3060.118799  	95.367052 
3061.083223  	95.406286 
3062.047648  	95.409504 
3063.012072  	95.376460 
3063.976497  	95.304491 
3064.940921  	95.238708 
3065.905346  	95.282200 
3066.869770  	95.294326 
3067.834195  	95.301016 
3068.798619  	95.302428 
3069.763043  	95.314013 
3070.727468  	95.382650 
3071.691892  	95.404425 
3072.656317  	95.338577 
3073.620741  	95.311091 
3074.585166  	95.334419 
3075.549590  	95.336718 
3076.514015  	95.339654 
3077.478439  	95.317658 
3078.442864  	95.326916 
3079.407288  	95.316597 
3080.371712  	95.304493 
3081.336137  	95.340986 
3082.300561  	95.308820 
3083.264986  	95.330556 
3084.229410  	95.401026 
3085.193835  	95.399972 
3086.158259  	95.428778 
3087.122684  	95.451650 
3088.087108  	95.406736 
3089.051533  	95.411169 
3090.015957  	95.444578 
3090.980381  	95.463125 
3091.944806  	95.475968 
3092.909230  	95.501156 
3093.873655  	95.464233 
3094.838079  	95.423576 
3095.802504  	95.456087 
3096.766928  	95.493037 
3097.731353  	95.474549 
3098.695777  	95.480622 
3099.660202  	95.495384 
3100.624626  	95.446138 
3101.589050  	95.377835 
3102.553475  	95.336321 
3103.517899  	95.322781 
3104.482324  	95.377287 
3105.446748  	95.420054 
3106.411173  	95.390801 
3107.375597  	95.372554 
3108.340022  	95.412132 
3109.304446  	95.446943 
3110.268871  	95.435658 
3111.233295  	95.459176 
3112.197720  	95.466741 
3113.162144  	95.466193 
3114.126568  	95.455135 
3115.090993  	95.437311 
3116.055417  	95.478920 
3117.019842  	95.519125 
3117.984266  	95.496691 
3118.948691  	95.451318 
3119.913115  	95.564762 
3120.877540  	95.621353 
3121.841964  	95.551131 
3122.806389  	95.525678 
3123.770813  	95.565521 
3124.735237  	95.564375 
3125.699662  	95.524847 
3126.664086  	95.505852 
3127.628511  	95.542645 
3128.592935  	95.573061 
3129.557360  	95.548099 
3130.521784  	95.526918 
3131.486209  	95.590324 
3132.450633  	95.588352 
3133.415058  	95.525089 
3134.379482  	95.602470 
3135.343906  	95.653271 
3136.308331  	95.601668 
3137.272755  	95.566267 
3138.237180  	95.576547 
3139.201604  	95.595398 
3140.166029  	95.601574 
3141.130453  	95.634334 
3142.094878  	95.636213 
3143.059302  	95.625235 
3144.023727  	95.639969 
3144.988151  	95.594494 
3145.952575  	95.573349 
3146.917000  	95.562755 
3147.881424  	95.611666 
3148.845849  	95.694714 
3149.810273  	95.676532 
3150.774698  	95.662802 
3151.739122  	95.665919 
3152.703547  	95.609889 
3153.667971  	95.570882 
3154.632396  	95.620363 
3155.596820  	95.644633 
3156.561244  	95.581235 
3157.525669  	95.606296 
3158.490093  	95.616791 
3159.454518  	95.613085 
3160.418942  	95.591199 
3161.383367  	95.593262 
3162.347791  	95.577840 
3163.312216  	95.572525 
3164.276640  	95.598957 
3165.241065  	95.640531 
3166.205489  	95.653114 
3167.169914  	95.642227 
3168.134338  	95.608820 
3169.098762  	95.602979 
3170.063187  	95.564182 
3171.027611  	95.509298 
3171.992036  	95.497480 
3172.956460  	95.518416 
3173.920885  	95.557336 
3174.885309  	95.568201 
3175.849734  	95.581249 
3176.814158  	95.582108 
3177.778583  	95.484331 
3178.743007  	95.469528 
3179.707431  	95.491822 
3180.671856  	95.469421 
3181.636280  	95.520693 
3182.600705  	95.600162 
3183.565129  	95.576111 
3184.529554  	95.529454 
3185.493978  	95.510322 
3186.458403  	95.520769 
3187.422827  	95.516636 
3188.387252  	95.482383 
3189.351676  	95.540479 
3190.316100  	95.565663 
3191.280525  	95.511206 
3192.244949  	95.534094 
3193.209374  	95.579621 
3194.173798  	95.553441 
3195.138223  	95.515063 
3196.102647  	95.424420 
3197.067072  	95.364269 
3198.031496  	95.360007 
3198.995921  	95.454144 
3199.960345  	95.574258 
3200.924769  	95.601732 
3201.889194  	95.555260 
3202.853618  	95.476525 
3203.818043  	95.444066 
3204.782467  	95.452918 
3205.746892  	95.453928 
3206.711316  	95.400654 
3207.675741  	95.413962 
3208.640165  	95.454371 
3209.604590  	95.489873 
3210.569014  	95.462013 
3211.533438  	95.475478 
3212.497863  	95.436598 
3213.462287  	95.361146 
3214.426712  	95.305080 
3215.391136  	95.353078 
3216.355561  	95.419868 
3217.319985  	95.437060 
3218.284410  	95.447850 
3219.248834  	95.435200 
3220.213259  	95.466207 
3221.177683  	95.498938 
3222.142107  	95.446479 
3223.106532  	95.468921 
3224.070956  	95.526312 
3225.035381  	95.488266 
3225.999805  	95.444855 
3226.964230  	95.456775 
3227.928654  	95.412509 
3228.893079  	95.405011 
3229.857503  	95.454210 
3230.821928  	95.484422 
3231.786352  	95.496375 
3232.750777  	95.450600 
3233.715201  	95.412426 
3234.679625  	95.410197 
3235.644050  	95.417366 
3236.608474  	95.472650 
3237.572899  	95.485972 
3238.537323  	95.468678 
3239.501748  	95.421381 
3240.466172  	95.358703 
3241.430597  	95.379910 
3242.395021  	95.372722 
3243.359446  	95.357679 
3244.323870  	95.364295 
3245.288294  	95.302061 
3246.252719  	95.324657 
3247.217143  	95.408361 
3248.181568  	95.440284 
3249.145992  	95.376557 
3250.110417  	95.378045 
3251.074841  	95.388513 
3252.039266  	95.395064 
3253.003690  	95.398044 
3253.968115  	95.358314 
3254.932539  	95.302457 
3255.896963  	95.279775 
3256.861388  	95.286044 
3257.825812  	95.368980 
3258.790237  	95.335003 
3259.754661  	95.299718 
3260.719086  	95.307281 
3261.683510  	95.321646 
3262.647935  	95.307717 
3263.612359  	95.321770 
3264.576784  	95.387620 
3265.541208  	95.401243 
3266.505632  	95.365605 
3267.470057  	95.340106 
3268.434481  	95.339703 
3269.398906  	95.278821 
3270.363330  	95.266977 
3271.327755  	95.293602 
3272.292179  	95.295766 
3273.256604  	95.295048 
3274.221028  	95.306664 
3275.185453  	95.381863 
3276.149877  	95.372855 
3277.114301  	95.310722 
3278.078726  	95.261520 
3279.043150  	95.223084 
3280.007575  	95.222530 
3280.971999  	95.237353 
3281.936424  	95.270246 
3282.900848  	95.312486 
3283.865273  	95.270103 
3284.829697  	95.275533 
3285.794122  	95.311427 
3286.758546  	95.333555 
3287.722971  	95.292703 
3288.687395  	95.248720 
3289.651819  	95.297954 
3290.616244  	95.294002 
3291.580668  	95.216337 
3292.545093  	95.164954 
3293.509517  	95.197610 
3294.473942  	95.226255 
3295.438366  	95.216980 
3296.402791  	95.222005 
3297.367215  	95.249233 
3298.331640  	95.280422 
3299.296064  	95.289447 
3300.260488  	95.323709 
3301.224913  	95.341731 
3302.189337  	95.355583 
3303.153762  	95.285768 
3304.118186  	95.248599 
3305.082611  	95.308619 
3306.047035  	95.339457 
3307.011460  	95.381919 
3307.975884  	95.353097 
3308.940309  	95.296268 
3309.904733  	95.354957 
3310.869157  	95.332908 
3311.833582  	95.284557 
3312.798006  	95.320604 
3313.762431  	95.337031 
3314.726855  	95.298061 
3315.691280  	95.260924 
3316.655704  	95.236014 
3317.620129  	95.230752 
3318.584553  	95.267279 
3319.548978  	95.280471 
3320.513402  	95.303166 
3321.477826  	95.300847 
3322.442251  	95.287615 
3323.406675  	95.325627 
3324.371100  	95.317474 
3325.335524  	95.286519 
3326.299949  	95.291639 
3327.264373  	95.255401 
3328.228798  	95.198192 
3329.193222  	95.205228 
3330.157647  	95.233299 
3331.122071  	95.263069 
3332.086495  	95.322148 
3333.050920  	95.302523 
3334.015344  	95.252687 
3334.979769  	95.208508 
3335.944193  	95.203718 
3336.908618  	95.197680 
3337.873042  	95.211897 
3338.837467  	95.322904 
3339.801891  	95.342198 
3340.766316  	95.315586 
3341.730740  	95.280649 
3342.695164  	95.263834 
3343.659589  	95.310570 
3344.624013  	95.398496 
3345.588438  	95.390725 
3346.552862  	95.347834 
3347.517287  	95.329962 
3348.481711  	95.314153 
3349.446136  	95.354423 
3350.410560  	95.401870 
3351.374985  	95.429783 
3352.339409  	95.416256 
3353.303834  	95.362848 
3354.268258  	95.383730 
3355.232682  	95.411711 
3356.197107  	95.321883 
3357.161531  	95.319671 
3358.125956  	95.381586 
3359.090380  	95.411939 
3360.054805  	95.354003 
3361.019229  	95.256931 
3361.983654  	95.255535 
3362.948078  	95.339332 
3363.912503  	95.376077 
3364.876927  	95.297620 
3365.841351  	95.319983 
3366.805776  	95.346244 
3367.770200  	95.297802 
3368.734625  	95.228355 
3369.699049  	95.318785 
3370.663474  	95.435147 
3371.627898  	95.458643 
3372.592323  	95.390387 
3373.556747  	95.308502 
3374.521172  	95.325021 
3375.485596  	95.328452 
3376.450020  	95.308216 
3377.414445  	95.328964 
3378.378869  	95.344195 
3379.343294  	95.356325 
3380.307718  	95.348020 
3381.272143  	95.394802 
3382.236567  	95.405643 
3383.200992  	95.384753 
3384.165416  	95.353943 
3385.129841  	95.340192 
3386.094265  	95.354605 
3387.058689  	95.379706 
3388.023114  	95.385469 
3388.987538  	95.393694 
3389.951963  	95.340638 
3390.916387  	95.291179 
3391.880812  	95.269949 
3392.845236  	95.161913 
3393.809661  	95.167118 
3394.774085  	95.325334 
3395.738510  	95.362223 
3396.702934  	95.318766 
3397.667358  	95.219995 
3398.631783  	95.317286 
3399.596207  	95.456894 
3400.560632  	95.401714 
3401.525056  	95.295386 
3402.489481  	95.312925 
3403.453905  	95.274846 
3404.418330  	95.203680 
3405.382754  	95.244642 
3406.347179  	95.307725 
3407.311603  	95.259192 
3408.276028  	95.231110 
3409.240452  	95.190807 
3410.204876  	95.112122 
3411.169301  	95.152097 
3412.133725  	95.264479 
3413.098150  	95.309276 
3414.062574  	95.248461 
3415.026999  	95.171935 
3415.991423  	95.072167 
3416.955848  	95.027024 
3417.920272  	95.006406 
3418.884697  	94.982782 
3419.849121  	94.841277 
3420.813545  	94.678184 
3421.777970  	94.641163 
3422.742394  	94.675646 
3423.706819  	94.812599 
3424.671243  	94.899706 
3425.635668  	94.913166 
3426.600092  	94.883510 
3427.564517  	94.812134 
3428.528941  	94.814229 
3429.493366  	94.857977 
3430.457790  	94.804082 
3431.422214  	94.747365 
3432.386639  	94.757019 
3433.351063  	94.851096 
3434.315488  	94.927512 
3435.279912  	94.937795 
3436.244337  	94.969194 
3437.208761  	94.968356 
3438.173186  	94.972726 
3439.137610  	94.961209 
3440.102035  	94.975993 
3441.066459  	95.020566 
3442.030883  	94.999486 
3442.995308  	94.885638 
3443.959732  	94.990674 
3444.924157  	95.052710 
3445.888581  	95.072127 
3446.853006  	94.824805 
3447.817430  	94.589908 
3448.781855  	94.945569 
3449.746279  	95.123658 
3450.710704  	95.154651 
3451.675128  	95.182498 
3452.639552  	95.262101 
3453.603977  	95.298422 
3454.568401  	95.259049 
3455.532826  	95.268529 
3456.497250  	95.284784 
3457.461675  	95.226728 
3458.426099  	95.185622 
3459.390524  	95.281134 
3460.354948  	95.355042 
3461.319373  	95.239482 
3462.283797  	95.170412 
3463.248221  	95.171782 
3464.212646  	95.286573 
3465.177070  	95.356279 
3466.141495  	95.328482 
3467.105919  	95.197335 
3468.070344  	95.296883 
3469.034768  	95.428889 
3469.999193  	95.417070 
3470.963617  	95.385061 
3471.928042  	95.381162 
3472.892466  	95.389226 
3473.856891  	95.361257 
3474.821315  	95.274274 
3475.785739  	95.315613 
3476.750164  	95.399802 
3477.714588  	95.414118 
3478.679013  	95.479591 
3479.643437  	95.503997 
3480.607862  	95.327413 
3481.572286  	95.211922 
3482.536711  	95.142383 
3483.501135  	95.284473 
3484.465560  	95.435931 
3485.429984  	95.394100 
3486.394408  	95.408567 
3487.358833  	95.390231 
3488.323257  	95.189764 
3489.287682  	95.200165 
3490.252106  	95.396810 
3491.216531  	95.387769 
3492.180955  	95.392928 
3493.145380  	95.514511 
3494.109804  	95.611986 
3495.074229  	95.541808 
3496.038653  	95.305442 
3497.003077  	95.208798 
3497.967502  	95.378546 
3498.931926  	95.476537 
3499.896351  	95.412593 
3500.860775  	95.371815 
3501.825200  	95.212196 
3502.789624  	94.950262 
3503.754049  	94.899337 
3504.718473  	95.102388 
3505.682898  	95.248899 
3506.647322  	95.366354 
3507.611746  	95.458307 
3508.576171  	95.286355 
3509.540595  	94.887935 
3510.505020  	94.979287 
3511.469444  	95.282907 
3512.433869  	95.327538 
3513.398293  	95.350941 
3514.362718  	95.497884 
3515.327142  	95.591137 
3516.291567  	95.497356 
3517.255991  	95.409431 
3518.220415  	95.375967 
3519.184840  	95.393822 
3520.149264  	95.431839 
3521.113689  	95.517702 
3522.078113  	95.341363 
3523.042538  	94.865276 
3524.006962  	94.706267 
3524.971387  	94.958173 
3525.935811  	95.019102 
3526.900236  	94.965525 
3527.864660  	94.837762 
3528.829085  	94.810108 
3529.793509  	94.918525 
3530.757933  	95.167134 
3531.722358  	95.205816 
3532.686782  	95.348991 
3533.651207  	95.475481 
3534.615631  	95.473109 
3535.580056  	95.340878 
3536.544480  	94.983274 
3537.508905  	94.988681 
3538.473329  	95.304101 
3539.437754  	95.348725 
3540.402178  	95.332137 
3541.366602  	95.352953 
3542.331027  	95.372065 
3543.295451  	95.294297 
3544.259876  	95.142323 
3545.224300  	94.674500 
3546.188725  	94.471697 
3547.153149  	94.474902 
3548.117574  	94.725754 
3549.081998  	95.134981 
3550.046423  	95.242907 
3551.010847  	95.277571 
3551.975271  	95.015502 
3552.939696  	94.790145 
3553.904120  	94.968779 
3554.868545  	95.224431 
3555.832969  	95.458206 
3556.797394  	95.421249 
3557.761818  	95.380974 
3558.726243  	95.508676 
3559.690667  	95.362336 
3560.655092  	95.050982 
3561.619516  	95.217322 
3562.583940  	95.163766 
3563.548365  	95.048247 
3564.512789  	95.069604 
3565.477214  	94.743244 
3566.441638  	93.435195 
3567.406063  	93.237945 
3568.370487  	93.537521 
3569.334912  	94.343187 
3570.299336  	95.131119 
3571.263761  	95.244660 
3572.228185  	95.420310 
3573.192609  	95.447707 
3574.157034  	95.420412 
3575.121458  	95.411675 
3576.085883  	95.488460 
3577.050307  	95.437518 
3578.014732  	95.415545 
3578.979156  	95.462788 
3579.943581  	95.241652 
3580.908005  	95.226179 
3581.872430  	95.489108 
3582.836854  	95.530004 
3583.801278  	95.434827 
3584.765703  	95.458548 
3585.730127  	95.313069 
3586.694552  	94.387449 
3587.658976  	93.676336 
3588.623401  	93.877946 
3589.587825  	94.431543 
3590.552250  	95.262924 
3591.516674  	95.502148 
3592.481099  	95.537016 
3593.445523  	95.180415 
3594.409948  	95.139906 
3595.374372  	94.922909 
3596.338796  	94.771104 
3597.303221  	95.249147 
3598.267645  	95.259378 
3599.232070  	95.034517 
3600.196494  	95.072286 
3601.160919  	94.938160 
3602.125343  	95.163373 
3603.089768  	95.394864 
3604.054192  	95.555834 
3605.018617  	95.682734 
3605.983041  	95.608900 
3606.947465  	94.959849 
3607.911890  	94.544153 
3608.876314  	94.763009 
3609.840739  	94.487052 
3610.805163  	95.050004 
3611.769588  	95.183393 
3612.734012  	94.402916 
3613.698437  	94.379547 
3614.662861  	94.603813 
3615.627286  	94.603970 
3616.591710  	95.250488 
3617.556134  	95.057613 
3618.520559  	94.402185 
3619.484983  	94.224830 
3620.449408  	94.182311 
3621.413832  	94.737698 
3622.378257  	95.249418 
3623.342681  	95.573326 
3624.307106  	95.684413 
3625.271530  	95.639193 
3626.235955  	95.374573 
3627.200379  	95.255369 
3628.164803  	94.785659 
3629.129228  	93.048847 
3630.093652  	93.109779 
3631.058077  	94.566806 
3632.022501  	95.278626 
3632.986926  	95.372720 
3633.951350  	94.971704 
3634.915775  	95.173659 
3635.880199  	95.621986 
3636.844624  	95.724717 
3637.809048  	95.659666 
3638.773472  	95.573708 
3639.737897  	95.712047 
3640.702321  	95.745136 
3641.666746  	95.556761 
3642.631170  	95.279525 
3643.595595  	95.404812 
3644.560019  	95.665155 
3645.524444  	95.598318 
3646.488868  	94.986799 
3647.453293  	93.747637 
3648.417717  	93.620723 
3649.382142  	93.542590 
3650.346566  	92.995744 
3651.310990  	93.225487 
3652.275415  	94.550130 
3653.239839  	95.495166 
3654.204264  	95.773668 
3655.168688  	95.747522 
3656.133113  	95.229933 
3657.097537  	94.910732 
3658.061962  	95.619090 
3659.026386  	95.874892 
3659.990811  	95.825161 
3660.955235  	95.901028 
3661.919659  	96.023827 
3662.884084  	96.052382 
3663.848508  	96.073147 
3664.812933  	96.076328 
3665.777357  	96.052302 
3666.741782  	96.089309 
3667.706206  	96.084234 
3668.670631  	95.553464 
3669.635055  	94.741205 
3670.599480  	94.386725 
3671.563904  	94.399493 
3672.528328  	95.422877 
3673.492753  	95.762259 
3674.457177  	95.132403 
3675.421602  	93.283829 
3676.386026  	93.404439 
3677.350451  	94.693596 
3678.314875  	95.285859 
3679.279300  	95.331649 
3680.243724  	95.349210 
3681.208149  	95.918371 
3682.172573  	96.219892 
3683.136997  	96.211650 
3684.101422  	96.132334 
3685.065846  	96.018357 
3686.030271  	96.043792 
3686.994695  	96.024109 
3687.959120  	95.604061 
3688.923544  	94.667029 
3689.887969  	95.007781 
3690.852393  	94.867719 
3691.816818  	94.591239 
3692.781242  	95.562916 
3693.745666  	96.004782 
3694.710091  	96.111625 
3695.674515  	96.202902 
3696.638940  	96.164917 
3697.603364  	96.189939 
3698.567789  	96.303895 
3699.532213  	96.303974 
3700.496638  	96.315042 
3701.461062  	95.877413 
3702.425487  	95.313756 
3703.389911  	95.879103 
3704.354335  	96.277522 
3705.318760  	96.231013 
3706.283184  	96.222724 
3707.247609  	96.345824 
3708.212033  	96.361416 
3709.176458  	95.884517 
3710.140882  	95.287012 
3711.105307  	95.198704 
3712.069731  	94.581806 
3713.034156  	94.461622 
3713.998580  	95.516275 
3714.963005  	95.691459 
3715.927429  	95.860423 
3716.891853  	96.255346 
3717.856278  	96.341226 
3718.820702  	95.921611 
3719.785127  	95.627661 
3720.749551  	96.074377 
3721.713976  	95.955859 
3722.678400  	95.051224 
3723.642825  	95.288037 
3724.607249  	95.671565 
3725.571674  	95.299431 
3726.536098  	95.074214 
3727.500522  	95.144476 
3728.464947  	95.845006 
3729.429371  	96.283756 
3730.393796  	96.270307 
3731.358220  	95.986609 
3732.322645  	95.294153 
3733.287069  	95.226748 
3734.251494  	95.171110 
3735.215918  	93.276918 
3736.180343  	93.304578 
3737.144767  	94.277822 
3738.109191  	94.856467 
3739.073616  	95.166147 
3740.038040  	95.586899 
3741.002465  	95.461782 
3741.966889  	95.447319 
3742.931314  	95.853544 
3743.895738  	95.390241 
3744.860163  	92.927184 
3745.824587  	93.952663 
3746.789012  	95.065084 
3747.753436  	95.284443 
3748.717860  	95.245546 
3749.682285  	94.703965 
3750.646709  	94.342353 
3751.611134  	94.352277 
3752.575558  	93.546056 
3753.539983  	94.583931 
3754.504407  	95.420466 
3755.468832  	95.832826 
3756.433256  	95.736860 
3757.397681  	95.666408 
3758.362105  	95.793528 
3759.326529  	95.252927 
3760.290954  	94.756248 
3761.255378  	95.682520 
3762.219803  	96.097473 
3763.184227  	96.162234 
3764.148652  	96.181744 
3765.113076  	95.968376 
3766.077501  	95.318355 
3767.041925  	95.679351 
3768.006350  	96.184528 
3768.970774  	96.028305 
3769.935199  	95.333099 
3770.899623  	95.269106 
3771.864047  	95.902117 
3772.828472  	96.155956 
3773.792896  	96.223570 
3774.757321  	96.320397 
3775.721745  	96.442933 
3776.686170  	96.484715 
3777.650594  	96.404365 
3778.615019  	96.135856 
3779.579443  	95.604364 
3780.543868  	95.547520 
3781.508292  	96.120924 
3782.472716  	96.243419 
3783.437141  	96.291050 
3784.401565  	96.083328 
3785.365990  	95.755201 
3786.330414  	95.976915 
3787.294839  	96.225933 
3788.259263  	96.355444 
3789.223688  	96.405930 
3790.188112  	96.387266 
3791.152537  	96.444256 
3792.116961  	96.461896 
3793.081385  	96.475835 
3794.045810  	96.448412 
3795.010234  	96.349453 
3795.974659  	96.054453 
3796.939083  	95.441390 
3797.903508  	95.510356 
3798.867932  	95.948688 
3799.832357  	96.051470 
3800.796781  	95.508765 
3801.761206  	94.343758 
3802.725630  	94.529433 
3803.690054  	95.346137 
3804.654479  	96.022203 
3805.618903  	96.168556 
3806.583328  	95.766205 
3807.547752  	95.098115 
3808.512177  	95.706033 
3809.476601  	96.123268 
3810.441026  	96.197922 
3811.405450  	96.294309 
3812.369875  	96.327133 
3813.334299  	96.359481 
3814.298723  	96.332868 
3815.263148  	96.006098 
3816.227572  	94.944946 
3817.191997  	94.903093 
3818.156421  	95.779432 
3819.120846  	95.904171 
3820.085270  	95.516952 
3821.049695  	94.420850 
3822.014119  	94.077133 
3822.978544  	95.195686 
3823.942968  	95.720800 
3824.907392  	95.985125 
3825.871817  	96.036150 
3826.836241  	95.630438 
3827.800666  	95.547450 
3828.765090  	96.056910 
3829.729515  	96.316921 
3830.693939  	96.264943 
3831.658364  	95.752923 
3832.622788  	95.578546 
3833.587213  	96.057242 
3834.551637  	95.866328 
3835.516062  	95.310818 
3836.480486  	95.683699 
3837.444910  	95.613878 
3838.409335  	94.677823 
3839.373759  	94.966063 
3840.338184  	94.808168 
3841.302608  	94.766584 
3842.267033  	95.621913 
3843.231457  	95.812083 
3844.195882  	95.233277 
3845.160306  	95.637109 
3846.124731  	96.134302 
3847.089155  	96.280289 
3848.053579  	96.303242 
3849.018004  	96.182912 
3849.982428  	95.876371 
3850.946853  	95.858200 
3851.911277  	95.434013 
3852.875702  	94.134042 
3853.840126  	93.815329 
3854.804551  	93.813912 
3855.768975  	95.115799 
3856.733400  	95.483349 
3857.697824  	95.276088 
3858.662248  	95.850057 
3859.626673  	96.285180 
3860.591097  	96.276482 
3861.555522  	95.946605 
3862.519946  	95.498018 
3863.484371  	95.698738 
3864.448795  	95.278636 
3865.413220  	94.477329 
3866.377644  	95.321965 
3867.342069  	96.103017 
3868.306493  	96.165753 
3869.270917  	95.429836 
3870.235342  	93.996139 
3871.199766  	94.651567 
3872.164191  	95.575389 
3873.128615  	95.909817 
3874.093040  	95.212329 
3875.057464  	94.959448 
3876.021889  	95.975217 
3876.986313  	96.320918 
3877.950738  	96.387137 
3878.915162  	96.396412 
3879.879586  	95.886688 
3880.844011  	94.618207 
3881.808435  	95.218503 
3882.772860  	95.920519 
3883.737284  	95.744949 
3884.701709  	95.780223 
3885.666133  	95.409923 
3886.630558  	94.854667 
3887.594982  	95.828042 
3888.559407  	96.298748 
3889.523831  	96.338254 
3890.488256  	96.085265 
3891.452680  	95.281549 
3892.417104  	95.096883 
3893.381529  	95.778539 
3894.345953  	95.804180 
3895.310378  	95.990814 
3896.274802  	96.341674 
3897.239227  	96.379974 
3898.203651  	95.977667 
3899.168076  	95.330315 
3900.132500  	95.148074 
3901.096925  	95.658756 
3902.061349  	94.983202 
3903.025773  	94.789164 
3903.990198  	95.153593 
3904.954622  	94.806825 
3905.919047  	95.056953 
3906.883471  	95.561083 
3907.847896  	96.161030 
3908.812320  	96.372588 
3909.776745  	96.441739 
3910.741169  	96.427442 
3911.705594  	96.402949 
3912.670018  	96.398436 
3913.634442  	96.418390 
3914.598867  	96.460565 
3915.563291  	96.402903 
3916.527716  	95.868813 
3917.492140  	95.323769 
3918.456565  	95.771802 
3919.420989  	96.027309 
3920.385414  	95.651775 
3921.349838  	95.902733 
3922.314263  	96.354945 
3923.278687  	96.211016 
3924.243111  	95.722755 
3925.207536  	95.383790 
3926.171960  	95.775162 
3927.136385  	96.336913 
3928.100809  	96.434362 
3929.065234  	96.305052 
3930.029658  	96.058068 
3930.994083  	95.911833 
3931.958507  	95.688593 
3932.922932  	95.388883 
3933.887356  	95.844219 
3934.851780  	96.158058 
3935.816205  	96.324036 
3936.780629  	96.433271 
3937.745054  	96.394737 
3938.709478  	96.291135 
3939.673903  	96.374155 
3940.638327  	96.394777 
3941.602752  	96.307342 
3942.567176  	95.850264 
3943.531601  	95.548574 
3944.496025  	96.039707 
3945.460449  	96.293417 
3946.424874  	96.375646 
3947.389298  	96.063068 
3948.353723  	95.803932 
3949.318147  	95.975194 
3950.282572  	95.864054 
3951.246996  	96.062245 
3952.211421  	96.428378 
3953.175845  	96.328715 
3954.140270  	96.325516 
3955.104694  	96.383190 
3956.069119  	96.366386 
3957.033543  	96.275146 
3957.997967  	96.297662 
3958.962392  	96.346814 
3959.926816  	96.306657 
3960.891241  	96.261903 
3961.855665  	96.099780 
3962.820090  	96.117228 
3963.784514  	96.421938 
3964.748939  	96.433625 
3965.713363  	96.426220 
3966.677788  	96.451105 
3967.642212  	96.449720 
3968.606636  	96.394664 
3969.571061  	96.304101 
3970.535485  	96.356242 
3971.499910  	96.400748 
3972.464334  	96.274855 
3973.428759  	96.364560 
3974.393183  	96.428259 
3975.357608  	96.335312 
3976.322032  	96.238486 
3977.286457  	96.288954 
3978.250881  	96.401068 
3979.215305  	96.428774 
3980.179730  	96.427521 
3981.144154  	96.396980 
3982.108579  	96.335108 
3983.073003  	96.364241 
3984.037428  	96.456170 
3985.001852  	96.497038 
3985.966277  	96.488320 
3986.930701  	96.487985 
3987.895126  	96.476480 
3988.859550  	96.472729 
3989.823974  	96.472289 
3990.788399  	96.353974 
3991.752823  	96.349175 
3992.717248  	96.443326 
3993.681672  	96.437762 
3994.646097  	96.402175 
3995.610521  	96.365815 
3996.574946  	96.439938 
3997.539370  	96.498754 
3998.503795  	96.522832 
3999.468219  	96.495434 
4000.432643  	96.527472 
4001.397068  	96.537295 
4002.361492  	96.476757 
4003.325917  	96.411943 
4004.290341  	96.456754 
4005.254766  	96.494461 
4006.219190  	96.455504 
4007.183615  	96.441090 
4008.148039  	96.394132 
4009.112464  	96.334143 
4010.076888  	96.425563 
4011.041313  	96.473093 
4012.005737  	96.500348 
4012.970161  	96.459476 
4013.934586  	96.480940 
4014.899010  	96.500130 
4015.863435  	96.469276 
4016.827859  	96.483533 
4017.792284  	96.535933 
4018.756708  	96.543757 
4019.721133  	96.462126 
4020.685557  	96.396533 
4021.649982  	96.419918 
4022.614406  	96.513564 
4023.578830  	96.491723 
4024.543255  	96.410600 
4025.507679  	96.382771 
4026.472104  	96.393694 
4027.436528  	96.457953 
4028.400953  	96.490964 
4029.365377  	96.485609 
4030.329802  	96.494370 
4031.294226  	96.474515 
4032.258651  	96.456734 
4033.223075  	96.528445 
4034.187499  	96.558414 
4035.151924  	96.468144 
4036.116348  	96.400239 
4037.080773  	96.466811 
4038.045197  	96.509667 
4039.009622  	96.518341 
4039.974046  	96.535494 
4040.938471  	96.554251 
4041.902895  	96.541204 
4042.867320  	96.536860 
4043.831744  	96.466008 
4044.796168  	96.388283 
4045.760593  	96.355845 
4046.725017  	96.419257 
4047.689442  	96.446084 
4048.653866  	96.439314 
4049.618291  	96.461397 
4050.582715  	96.499619 
4051.547140  	96.487650 
4052.511564  	96.477429 
4053.475989  	96.472869 
4054.440413  	96.462721 
4055.404837  	96.473750 
4056.369262  	96.502094 
4057.333686  	96.526787 
4058.298111  	96.479709 
4059.262535  	96.469985 
4060.226960  	96.459390 
4061.191384  	96.450655 
4062.155809  	96.512822 
4063.120233  	96.502168 
4064.084658  	96.458215 
4065.049082  	96.485809 
4066.013506  	96.479052 
4066.977931  	96.437272 
4067.942355  	96.442266 
4068.906780  	96.442521 
4069.871204  	96.460615 
4070.835629  	96.478094 
4071.800053  	96.477287 
4072.764478  	96.430953 
4073.728902  	96.442458 
4074.693327  	96.474018 
4075.657751  	96.511969 
4076.622176  	96.448752 
4077.586600  	96.412610 
4078.551024  	96.415620 
4079.515449  	96.422370 
4080.479873  	96.458664 
4081.444298  	96.470790 
4082.408722  	96.412774 
4083.373147  	96.359670 
4084.337571  	96.342804 
4085.301996  	96.353390 
4086.266420  	96.358635 
4087.230845  	96.362415 
4088.195269  	96.374948 
4089.159693  	96.397721 
4090.124118  	96.428879 
4091.088542  	96.433169 
4092.052967  	96.415408 
4093.017391  	96.408859 
4093.981816  	96.400645 
4094.946240  	96.412657 
4095.910665  	96.445885 
4096.875089  	96.469143 
4097.839514  	96.450854 
4098.803938  	96.379322 
4099.768362  	96.402493 
4100.732787  	96.445955 
4101.697211  	96.407074 
4102.661636  	96.399196 
4103.626060  	96.457467 
4104.590485  	96.431071 
4105.554909  	96.391616 
4106.519334  	96.414368 
4107.483758  	96.395690 
4108.448183  	96.438554 
4109.412607  	96.479412 
4110.377031  	96.437705 
4111.341456  	96.435592 
4112.305880  	96.449970 
4113.270305  	96.461670 
4114.234729  	96.460787 
4115.199154  	96.515954 
4116.163578  	96.535215 
4117.128003  	96.486585 
4118.092427  	96.488852 
4119.056852  	96.472471 
4120.021276  	96.420513 
4120.985700  	96.426655 
4121.950125  	96.487890 
4122.914549  	96.473892 
4123.878974  	96.446934 
4124.843398  	96.440123 
4125.807823  	96.472409 
4126.772247  	96.453770 
4127.736672  	96.444645 
4128.701096  	96.481158 
4129.665521  	96.497629 
4130.629945  	96.490118 
4131.594370  	96.499495 
4132.558794  	96.530911 
4133.523218  	96.527794 
4134.487643  	96.498000 
4135.452067  	96.480236 
4136.416492  	96.515283 
4137.380916  	96.584217 
4138.345341  	96.555072 
4139.309765  	96.486733 
4140.274190  	96.498604 
4141.238614  	96.486983 
4142.203039  	96.494797 
4143.167463  	96.553051 
4144.131887  	96.507926 
4145.096312  	96.484701 
4146.060736  	96.519826 
4147.025161  	96.523706 
4147.989585  	96.501016 
4148.954010  	96.459389 
4149.918434  	96.466508 
4150.882859  	96.472952 
4151.847283  	96.479910 
4152.811708  	96.465179 
4153.776132  	96.471320 
4154.740556  	96.492531 
4155.704981  	96.448960 
4156.669405  	96.439317 
4157.633830  	96.484885 
4158.598254  	96.494173 
4159.562679  	96.431810 
4160.527103  	96.435260 
4161.491528  	96.453865 
4162.455952  	96.473759 
4163.420377  	96.579842 
4164.384801  	96.612424 
4165.349225  	96.567895 
4166.313650  	96.512532 
4167.278074  	96.483899 
4168.242499  	96.555653 
4169.206923  	96.589265 
4170.171348  	96.567294 
4171.135772  	96.498866 
4172.100197  	96.473087 
4173.064621  	96.491418 
4174.029046  	96.499351 
4174.993470  	96.523360 
4175.957894  	96.531021 
4176.922319  	96.533109 
4177.886743  	96.538539 
4178.851168  	96.483310 
4179.815592  	96.433304 
4180.780017  	96.461156 
4181.744441  	96.557844 
4182.708866  	96.567389 
4183.673290  	96.516445 
4184.637715  	96.496814 
4185.602139  	96.508860 
4186.566563  	96.447739 
4187.530988  	96.445774 
4188.495412  	96.475826 
4189.459837  	96.512345 
4190.424261  	96.510913 
4191.388686  	96.509151 
4192.353110  	96.510794 
4193.317535  	96.487817 
4194.281959  	96.530729 
4195.246384  	96.562094 
4196.210808  	96.534126 
4197.175233  	96.493624 
4198.139657  	96.475802 
4199.104081  	96.509180 
4200.068506  	96.507524 
4201.032930  	96.480390 
4201.997355  	96.548155 
4202.961779  	96.610509 
4203.926204  	96.572974 
4204.890628  	96.539531 
4205.855053  	96.525559 
4206.819477  	96.535176 
4207.783902  	96.559054 
4208.748326  	96.552935 
4209.712750  	96.590297 
4210.677175  	96.579766 
4211.641599  	96.496536 
4212.606024  	96.485991 
4213.570448  	96.527949 
4214.534873  	96.561114 
4215.499297  	96.522861 
4216.463722  	96.518395 
4217.428146  	96.484960 
4218.392571  	96.458272 
4219.356995  	96.504978 
4220.321419  	96.551393 
4221.285844  	96.607368 
4222.250268  	96.625092 
4223.214693  	96.516710 
4224.179117  	96.453296 
4225.143542  	96.466148 
4226.107966  	96.535172 
4227.072391  	96.630885 
4228.036815  	96.585790 
4229.001240  	96.497822 
4229.965664  	96.466232 
4230.930088  	96.453418 
4231.894513  	96.510958 
4232.858937  	96.550793 
4233.823362  	96.549162 
4234.787786  	96.553356 
4235.752211  	96.537630 
4236.716635  	96.542346 
4237.681060  	96.562407 
4238.645484  	96.593766 
4239.609909  	96.569227 
4240.574333  	96.532538 
4241.538757  	96.534547 
4242.503182  	96.535753 
4243.467606  	96.522438 
4244.432031  	96.476196 
4245.396455  	96.459294 
4246.360880  	96.503844 
4247.325304  	96.540867 
4248.289729  	96.528174 
4249.254153  	96.537857 
4250.218578  	96.553894 
4251.183002  	96.566826 
4252.147427  	96.566502 
4253.111851  	96.577480 
4254.076275  	96.523664 
4255.040700  	96.526054 
4256.005124  	96.560751 
4256.969549  	96.601185 
4257.933973  	96.597571 
4258.898398  	96.532782 
4259.862822  	96.498475 
4260.827247  	96.505603 
4261.791671  	96.505370 
4262.756096  	96.531884 
4263.720520  	96.477657 
4264.684944  	96.458138 
4265.649369  	96.447763 
4266.613793  	96.495375 
4267.578218  	96.516407 
4268.542642  	96.532240 
4269.507067  	96.534596 
4270.471491  	96.523515 
4271.435916  	96.505094 
4272.400340  	96.478856 
4273.364765  	96.476157 
4274.329189  	96.507955 
4275.293613  	96.515517 
4276.258038  	96.527249 
4277.222462  	96.548333 
4278.186887  	96.507985 
4279.151311  	96.421390 
4280.115736  	96.392272 
4281.080160  	96.482359 
4282.044585  	96.512097 
4283.009009  	96.448740 
4283.973434  	96.471929 
4284.937858  	96.499369 
4285.902282  	96.441162 
4286.866707  	96.440504 
4287.831131  	96.525948 
4288.795556  	96.564336 
4289.759980  	96.507325 
4290.724405  	96.411576 
4291.688829  	96.447932 
4292.653254  	96.506603 
4293.617678  	96.545595 
4294.582103  	96.544584 
4295.546527  	96.513759 
4296.510951  	96.507249 
4297.475376  	96.540446 
4298.439800  	96.557221 
4299.404225  	96.550248 
4300.368649  	96.535082 
4301.333074  	96.464901 
4302.297498  	96.409736 
4303.261923  	96.459549 
4304.226347  	96.562381 
4305.190772  	96.672723 
4306.155196  	96.603426 
4307.119620  	96.503524 
4308.084045  	96.470580 
4309.048469  	96.549000 
4310.012894  	96.566318 
4310.977318  	96.549773 
4311.941743  	96.538930 
4312.906167  	96.564696 
4313.870592  	96.530722 
4314.835016  	96.556551 
4315.799441  	96.545416 
4316.763865  	96.546924 
4317.728290  	96.576285 
4318.692714  	96.552261 
4319.657138  	96.474771 
4320.621563  	96.502147 
4321.585987  	96.526957 
4322.550412  	96.555815 
4323.514836  	96.554962 
4324.479261  	96.510477 
4325.443685  	96.471882 
4326.408110  	96.554069 
4327.372534  	96.601685 
4328.336959  	96.573330 
4329.301383  	96.586684 
4330.265807  	96.601777 
4331.230232  	96.583325 
4332.194656  	96.526862 
4333.159081  	96.545411 
4334.123505  	96.631551 
4335.087930  	96.602140 
4336.052354  	96.557060 
4337.016779  	96.538737 
4337.981203  	96.519965 
4338.945628  	96.541622 
4339.910052  	96.510049 
4340.874476  	96.469436 
4341.838901  	96.578729 
4342.803325  	96.587306 
4343.767750  	96.519660 
4344.732174  	96.475377 
4345.696599  	96.453944 
4346.661023  	96.472169 
4347.625448  	96.465171 
4348.589872  	96.463190 
4349.554297  	96.546706 
4350.518721  	96.631859 
4351.483145  	96.662312 
4352.447570  	96.583051 
4353.411994  	96.521019 
4354.376419  	96.510784 
4355.340843  	96.543955 
4356.305268  	96.575741 
4357.269692  	96.610250 
4358.234117  	96.612813 
4359.198541  	96.576973 
4360.162966  	96.562833 
4361.127390  	96.551522 
4362.091814  	96.556317 
4363.056239  	96.529856 
4364.020663  	96.534531 
4364.985088  	96.551495 
4365.949512  	96.512374 
4366.913937  	96.482814 
4367.878361  	96.435164 
4368.842786  	96.436563 
4369.807210  	96.571241 
4370.771635  	96.613652 
4371.736059  	96.533356 
4372.700484  	96.542891 
4373.664908  	96.611287 
4374.629332  	96.582602 
4375.593757  	96.592226 
4376.558181  	96.628432 
4377.522606  	96.631669 
4378.487030  	96.615547 
4379.451455  	96.560671 
4380.415879  	96.527366 
4381.380304  	96.503541 
4382.344728  	96.583383 
4383.309153  	96.602139 
4384.273577  	96.553384 
4385.238001  	96.521691 
4386.202426  	96.502690 
4387.166850  	96.562543 
4388.131275  	96.628480 
4389.095699  	96.606596 
4390.060124  	96.596326 
4391.024548  	96.585847 
4391.988973  	96.613350 
4392.953397  	96.656588 
4393.917822  	96.610074 
4394.882246  	96.577616 
4395.846670  	96.582462 
4396.811095  	96.517627 
4397.775519  	96.552091 
4398.739944  	96.621385 
4399.704368  	96.678965 
4400.668793  	96.684384 
4401.633217  	96.578467 
4402.597642  	96.550446 
4403.562066  	96.644749 
4404.526491  	96.669392 
4405.490915  	96.641307 
4406.455339  	96.529095 
4407.419764  	96.487219 
4408.384188  	96.543738 
4409.348613  	96.585509 
4410.313037  	96.560625 
4411.277462  	96.523892 
4412.241886  	96.528759 
4413.206311  	96.569090 
4414.170735  	96.570264 
4415.135160  	96.587186 
4416.099584  	96.635691 
4417.064008  	96.555694 
4418.028433  	96.405173 
4418.992857  	96.459408 
4419.957282  	96.539372 
4420.921706  	96.561634 
4421.886131  	96.556254 
4422.850555  	96.514826 
4423.814980  	96.451726 
4424.779404  	96.479301 
4425.743829  	96.473976 
4426.708253  	96.471217 
4427.672677  	96.482481 
4428.637102  	96.416383 
4429.601526  	96.460700 
4430.565951  	96.492123 
4431.530375  	96.440258 
4432.494800  	96.417130 
4433.459224  	96.403283 
4434.423649  	96.430344 
4435.388073  	96.458012 
4436.352498  	96.525326 
4437.316922  	96.538464 
4438.281347  	96.512882 
4439.245771  	96.467100 
4440.210195  	96.519212 
4441.174620  	96.528959 
4442.139044  	96.504696 
4443.103469  	96.520273 
4444.067893  	96.502032 
4445.032318  	96.525406 
4445.996742  	96.543955 
4446.961167  	96.502232 
4447.925591  	96.428109 
4448.890016  	96.395961 
4449.854440  	96.372136 
4450.818864  	96.419031 
4451.783289  	96.505721 
4452.747713  	96.504999 
4453.712138  	96.510620 
4454.676562  	96.510693 
4455.640987  	96.524978 
4456.605411  	96.548718 
4457.569836  	96.517463 
4458.534260  	96.426917 
4459.498685  	96.382991 
4460.463109  	96.348607 
4461.427533  	96.430350 
4462.391958  	96.481379 
4463.356382  	96.529431 
4464.320807  	96.560398 
4465.285231  	96.518794 
4466.249656  	96.481939 
4467.214080  	96.485371 
4468.178505  	96.508797 
4469.142929  	96.518131 
4470.107354  	96.520042 
4471.071778  	96.509153 
4472.036202  	96.575581 
4473.000627  	96.602216 
4473.965051  	96.546822 
4474.929476  	96.495671 
4475.893900  	96.487005 
4476.858325  	96.545165 
4477.822749  	96.592575 
4478.787174  	96.590711 
4479.751598  	96.566311 
4480.716023  	96.532497 
4481.680447  	96.538586 
4482.644871  	96.511385 
4483.609296  	96.436564 
4484.573720  	96.459632 
4485.538145  	96.507477 
4486.502569  	96.506816 
4487.466994  	96.533177 
4488.431418  	96.578469 
4489.395843  	96.527870 
4490.360267  	96.572491 
4491.324692  	96.684894 
4492.289116  	96.610574 
4493.253541  	96.572815 
4494.217965  	96.604739 
4495.182389  	96.633558 
4496.146814  	96.647894 
4497.111238  	96.670960 
4498.075663  	96.652663 
4499.040087  	96.577824 
4500.004512  	96.567628 
4500.968936  	96.603099 
4501.933361  	96.594342 
4502.897785  	96.565079 
4503.862210  	96.593037 
4504.826634  	96.596757 
4505.791058  	96.594035 
4506.755483  	96.553903 
4507.719907  	96.537211 
4508.684332  	96.624760 
4509.648756  	96.637445 
4510.613181  	96.574520 
4511.577605  	96.616299 
4512.542030  	96.654614 
4513.506454  	96.624841 
4514.470879  	96.562300 
4515.435303  	96.541037 
4516.399727  	96.564673 
4517.364152  	96.552093 
4518.328576  	96.532642 
4519.293001  	96.510485 
4520.257425  	96.511764 
4521.221850  	96.534222 
4522.186274  	96.630066 
4523.150699  	96.676688 
4524.115123  	96.601600 
4525.079548  	96.593747 
4526.043972  	96.608416 
4527.008396  	96.526855 
4527.972821  	96.470313 
4528.937245  	96.529436 
4529.901670  	96.558673 
4530.866094  	96.588999 
4531.830519  	96.610711 
4532.794943  	96.595975 
4533.759368  	96.591841 
4534.723792  	96.568425 
4535.688217  	96.534863 
4536.652641  	96.556315 
4537.617065  	96.553965 
4538.581490  	96.625334 
4539.545914  	96.672066 
4540.510339  	96.618595 
4541.474763  	96.497370 
4542.439188  	96.517366 
4543.403612  	96.580484 
4544.368037  	96.530992 
4545.332461  	96.498886 
4546.296886  	96.520667 
4547.261310  	96.542243 
4548.225734  	96.628881 
4549.190159  	96.616809 
4550.154583  	96.604468 
4551.119008  	96.536661 
4552.083432  	96.590150 
4553.047857  	96.662863 
4554.012281  	96.669008 
4554.976706  	96.604534 
4555.941130  	96.645400 
4556.905555  	96.707621 
4557.869979  	96.677065 
4558.834404  	96.678862 
4559.798828  	96.627405 
4560.763252  	96.515838 
4561.727677  	96.464380 
4562.692101  	96.522994 
4563.656526  	96.636089 
4564.620950  	96.671556 
4565.585375  	96.567866 
4566.549799  	96.525688 
4567.514224  	96.628777 
4568.478648  	96.650590 
4569.443073  	96.587629 
4570.407497  	96.602953 
4571.371921  	96.691461 
4572.336346  	96.647121 
4573.300770  	96.595031 
4574.265195  	96.576196 
4575.229619  	96.597785 
4576.194044  	96.579229 
4577.158468  	96.548824 
4578.122893  	96.556186 
4579.087317  	96.621646 
4580.051742  	96.649900 
4581.016166  	96.650159 
4581.980590  	96.656059 
4582.945015  	96.698767 
4583.909439  	96.674120 
4584.873864  	96.640037 
4585.838288  	96.579141 
4586.802713  	96.603518 
4587.767137  	96.573021 
4588.731562  	96.607037 
4589.695986  	96.607523 
4590.660411  	96.579984 
4591.624835  	96.580868 
4592.589259  	96.585195 
4593.553684  	96.581529 
4594.518108  	96.531846 
4595.482533  	96.477310 
4596.446957  	96.553377 
4597.411382  	96.532945 
4598.375806  	96.542106 
4599.340231  	96.650218 
4600.304655  	96.665577 
4601.269080  	96.611073 
4602.233504  	96.574086 
4603.197928  	96.539627 
4604.162353  	96.585080 
4605.126777  	96.607719 
4606.091202  	96.597908 
4607.055626  	96.600846 
4608.020051  	96.583837 
4608.984475  	96.593108 
4609.948900  	96.650370 
4610.913324  	96.700945 
4611.877749  	96.662683 
4612.842173  	96.593967 
4613.806598  	96.591161 
4614.771022  	96.585692 
4615.735446  	96.597536 
4616.699871  	96.609299 
4617.664295  	96.596085 
4618.628720  	96.555117 
4619.593144  	96.549670 
4620.557569  	96.651382 
4621.521993  	96.640521 
4622.486418  	96.503548 
4623.450842  	96.488524 
4624.415267  	96.541527 
4625.379691  	96.610162 
4626.344115  	96.610930 
4627.308540  	96.626918 
4628.272964  	96.656358 
4629.237389  	96.639968 
4630.201813  	96.551753 
4631.166238  	96.551305 
4632.130662  	96.601784 
4633.095087  	96.589309 
4634.059511  	96.566200 
4635.023936  	96.623599 
4635.988360  	96.710550 
4636.952784  	96.666294 
4637.917209  	96.600071 
4638.881633  	96.525278 
4639.846058  	96.489485 
4640.810482  	96.587184 
4641.774907  	96.552559 
4642.739331  	96.441102 
4643.703756  	96.467087 
4644.668180  	96.504622 
4645.632605  	96.521232 
4646.597029  	96.602928 
4647.561453  	96.559297 
4648.525878  	96.553774 
4649.490302  	96.567802 
4650.454727  	96.541095 
4651.419151  	96.511753 
4652.383576  	96.494708 
4653.348000  	96.522434 
4654.312425  	96.572133 
4655.276849  	96.633008 
4656.241274  	96.631811 
4657.205698  	96.608053 
4658.170122  	96.508115 
4659.134547  	96.484553 
4660.098971  	96.573729 
4661.063396  	96.630682 
4662.027820  	96.628608 
4662.992245  	96.568544 
4663.956669  	96.572138 
4664.921094  	96.625491 
4665.885518  	96.649785 
4666.849943  	96.617488 
4667.814367  	96.579482 
4668.778791  	96.626097 
4669.743216  	96.689869 
4670.707640  	96.617668 
4671.672065  	96.491100 
4672.636489  	96.458136 
4673.600914  	96.541390 
4674.565338  	96.614253 
4675.529763  	96.597912 
4676.494187  	96.631033 
4677.458612  	96.695169 
4678.423036  	96.680512 
4679.387461  	96.698622 
4680.351885  	96.644022 
4681.316309  	96.562012 
4682.280734  	96.554768 
4683.245158  	96.519090 
4684.209583  	96.568090 
4685.174007  	96.649204 
4686.138432  	96.622470 
4687.102856  	96.630047 
4688.067281  	96.628147 
4689.031705  	96.556227 
4689.996130  	96.589862 
4690.960554  	96.658134 
4691.924978  	96.542985 
4692.889403  	96.491256 
4693.853827  	96.509841 
4694.818252  	96.598032 
4695.782676  	96.699701 
4696.747101  	96.699125 
4697.711525  	96.667453 
4698.675950  	96.697859 
4699.640374  	96.604403 