##TITLE=No Description
##DATA TYPE=INFRARED SPECTRUM
##XUNITS=1/CM
##YUNITS=%T
400.236149  	118.953268 
401.200574  	105.081499 
402.164998  	89.332709 
403.129423  	73.898281 
404.093847  	69.811942 
405.058272  	70.878976 
406.022696  	85.537461 
406.987120  	89.931427 
407.951545  	93.102672 
408.915969  	98.232035 
409.880394  	88.966672 
410.844818  	84.676241 
411.809243  	92.796100 
412.773667  	90.961946 
413.738092  	82.802602 
414.702516  	76.026515 
415.666941  	77.177810 
416.631365  	83.836556 
417.595789  	84.867802 
418.560214  	84.622291 
419.524638  	82.384218 
420.489063  	75.495174 
421.453487  	74.217669 
422.417912  	76.467810 
423.382336  	76.786676 
424.346761  	74.970705 
425.311185  	71.227078 
426.275610  	72.347617 
427.240034  	72.973682 
428.204458  	72.640484 
429.168883  	72.703079 
430.133307  	72.763174 
431.097732  	71.052726 
432.062156  	69.928368 
433.026581  	69.421915 
433.991005  	70.638575 
434.955430  	72.607469 
435.919854  	72.719072 
436.884279  	72.320621 
437.848703  	74.091557 
438.813127  	72.985141 
439.777552  	73.846657 
440.741976  	76.146870 
441.706401  	78.518495 
442.670825  	79.063321 
443.635250  	77.450036 
444.599674  	78.647857 
445.564099  	80.598063 
446.528523  	81.668399 
447.492948  	81.278058 
448.457372  	81.704342 
449.421796  	82.134386 
450.386221  	81.648354 
451.350645  	81.612913 
452.315070  	81.302333 
453.279494  	80.774601 
454.243919  	80.468064 
455.208343  	80.320288 
456.172768  	80.377013 
457.137192  	80.279453 
458.101617  	81.239493 
459.066041  	81.646548 
460.030466  	80.849881 
460.994890  	80.288444 
461.959314  	79.883685 
462.923739  	80.092741 
463.888163  	80.426024 
464.852588  	80.293458 
465.817012  	80.236459 
466.781437  	79.753057 
467.745861  	79.094899 
468.710286  	79.095160 
469.674710  	78.453871 
470.639135  	78.423567 
471.603559  	78.939674 
472.567983  	79.127325 
473.532408  	79.643395 
474.496832  	79.148090 
475.461257  	79.052273 
476.425681  	78.781445 
477.390106  	79.535164 
478.354530  	80.613957 
479.318955  	79.793732 
480.283379  	78.711340 
481.247804  	78.512482 
482.212228  	78.059038 
483.176652  	78.680145 
484.141077  	78.789967 
485.105501  	78.650683 
486.069926  	78.067890 
487.034350  	78.242009 
487.998775  	78.124928 
488.963199  	77.832898 
489.927624  	77.818370 
490.892048  	76.998837 
491.856473  	76.197519 
492.820897  	76.807934 
493.785321  	76.940771 
494.749746  	76.187735 
495.714170  	75.564613 
496.678595  	75.573319 
497.643019  	75.395429 
498.607444  	75.152611 
499.571868  	75.065683 
500.536293  	74.676239 
501.500717  	73.556592 
502.465142  	72.821235 
503.429566  	73.243705 
504.393990  	73.248781 
505.358415  	73.178789 
506.322839  	72.686352 
507.287264  	73.182828 
508.251688  	75.349336 
509.216113  	76.743764 
510.180537  	77.380920 
511.144962  	78.510571 
512.109386  	79.640655 
513.073811  	79.905435 
514.038235  	79.904107 
515.002660  	79.880364 
515.967084  	79.421118 
516.931508  	78.638589 
517.895933  	79.046569 
518.860357  	79.284713 
519.824782  	78.769572 
520.789206  	79.310822 
521.753631  	79.896498 
522.718055  	80.080586 
523.682480  	79.840318 
524.646904  	79.768892 
525.611329  	79.064187 
526.575753  	78.921854 
527.540177  	79.793335 
528.504602  	80.311621 
529.469026  	80.644437 
530.433451  	80.580835 
531.397875  	80.604023 
532.362300  	81.028892 
533.326724  	81.729791 
534.291149  	81.699575 
535.255573  	81.468051 
536.219998  	81.572730 
537.184422  	81.921838 
538.148846  	81.590791 
539.113271  	81.751757 
540.077695  	81.851166 
541.042120  	82.052237 
542.006544  	82.126434 
542.970969  	82.188977 
543.935393  	82.345168 
544.899818  	82.423174 
545.864242  	82.245506 
546.828667  	82.331877 
547.793091  	82.291968 
548.757515  	82.319583 
549.721940  	82.661042 
550.686364  	82.981624 
551.650789  	83.093405 
552.615213  	82.625510 
553.579638  	82.661733 
554.544062  	82.493527 
555.508487  	82.412841 
556.472911  	82.512628 
557.437336  	82.304997 
558.401760  	82.216575 
559.366184  	82.324298 
560.330609  	82.409870 
561.295033  	82.239836 
562.259458  	82.182816 
563.223882  	81.994106 
564.188307  	82.017650 
565.152731  	82.282191 
566.117156  	82.149263 
567.081580  	81.768007 
568.046005  	81.677648 
569.010429  	81.571325 
569.974853  	81.530364 
570.939278  	81.485619 
571.903702  	81.765357 
572.868127  	82.032783 
573.832551  	81.956813 
574.796976  	81.923136 
575.761400  	81.366202 
576.725825  	81.516775 
577.690249  	81.947509 
578.654674  	81.811549 
579.619098  	81.636165 
580.583523  	81.418031 
581.547947  	81.712598 
582.512371  	81.911883 
583.476796  	81.720092 
584.441220  	81.495123 
585.405645  	81.486872 
586.370069  	81.940639 
587.334494  	82.021763 
588.298918  	81.929003 
589.263343  	81.868217 
590.227767  	81.869458 
591.192192  	81.441866 
592.156616  	81.163860 
593.121040  	81.564589 
594.085465  	81.749236 
595.049889  	81.708123 
596.014314  	81.749484 
596.978738  	81.757430 
597.943163  	81.704547 
598.907587  	81.446421 
599.872012  	80.954826 
600.836436  	81.151344 
601.800861  	81.527294 
602.765285  	81.522159 
603.729709  	81.342966 
604.694134  	81.297161 
605.658558  	81.347730 
606.622983  	81.369326 
607.587407  	81.224372 
608.551832  	81.143497 
609.516256  	81.094710 
610.480681  	80.993264 
611.445105  	80.990210 
612.409530  	81.046815 
613.373954  	81.073882 
614.338378  	80.918884 
615.302803  	80.656043 
616.267227  	80.588266 
617.231652  	80.779696 
618.196076  	80.718001 
619.160501  	80.643431 
620.124925  	80.305494 
621.089350  	80.147852 
622.053774  	80.320256 
623.018199  	80.617884 
623.982623  	80.369168 
624.947047  	80.167315 
625.911472  	79.898287 
626.875896  	79.899288 
627.840321  	79.795579 
628.804745  	79.802328 
629.769170  	79.282428 
630.733594  	78.465499 
631.698019  	78.236593 
632.662443  	78.591814 
633.626868  	79.112352 
634.591292  	79.574148 
635.555717  	79.700727 
636.520141  	80.058368 
637.484565  	80.115349 
638.448990  	80.099516 
639.413414  	79.980309 
640.377839  	79.853866 
641.342263  	79.880454 
642.306688  	79.708078 
643.271112  	79.545505 
644.235537  	79.490457 
645.199961  	79.436442 
646.164386  	79.477581 
647.128810  	79.433411 
648.093234  	79.356281 
649.057659  	79.280743 
650.022083  	79.257957 
650.986508  	79.244542 
651.950932  	79.138883 
652.915357  	78.990285 
653.879781  	78.939300 
654.844206  	78.957621 
655.808630  	78.867858 
656.773055  	78.631148 
657.737479  	78.609143 
658.701903  	78.384164 
659.666328  	78.099116 
660.630752  	78.119165 
661.595177  	78.175250 
662.559601  	78.143691 
663.524026  	77.977270 
664.488450  	77.806405 
665.452875  	77.690621 
666.417299  	77.684130 
667.381724  	77.926423 
668.346148  	77.539150 
669.310572  	76.707617 
670.274997  	76.604698 
671.239421  	76.620457 
672.203846  	76.602862 
673.168270  	76.415396 
674.132695  	75.898751 
675.097119  	75.546729 
676.061544  	75.308553 
677.025968  	75.094128 
677.990393  	74.707799 
678.954817  	74.412165 
679.919241  	74.279620 
680.883666  	74.252300 
681.848090  	74.280486 
682.812515  	74.244283 
683.776939  	74.131445 
684.741364  	74.032507 
685.705788  	73.772465 
686.670213  	73.643897 
687.634637  	73.324963 
688.599062  	72.987314 
689.563486  	72.677979 
690.527910  	72.329564 
691.492335  	71.931388 
692.456759  	71.497170 
693.421184  	70.920097 
694.385608  	70.478819 
695.350033  	69.866124 
696.314457  	69.091333 
697.278882  	68.169858 
698.243306  	67.309882 
699.207731  	66.467381 
700.172155  	65.637884 
701.136580  	64.724290 
702.101004  	63.928107 
703.065428  	63.271905 
704.029853  	62.660306 
704.994277  	61.898664 
705.958702  	61.203706 
706.923126  	60.469470 
707.887551  	59.552346 
708.851975  	58.738180 
709.816400  	57.849791 
710.780824  	56.883975 
711.745249  	55.812362 
712.709673  	54.646827 
713.674097  	53.401547 
714.638522  	52.206571 
715.602946  	50.974221 
716.567371  	49.460764 
717.531795  	47.966294 
718.496220  	46.500844 
719.460644  	45.101788 
720.425069  	43.869713 
721.389493  	42.904738 
722.353918  	42.061517 
723.318342  	41.508856 
724.282766  	41.666872 
725.247191  	42.641720 
726.211615  	44.230853 
727.176040  	46.453832 
728.140464  	48.980508 
729.104889  	51.565002 
730.069313  	54.169232 
731.033738  	56.951254 
731.998162  	59.771689 
732.962587  	62.655015 
733.927011  	65.500659 
734.891435  	68.373906 
735.855860  	71.197448 
736.820284  	73.950481 
737.784709  	76.478859 
738.749133  	78.660565 
739.713558  	80.444235 
740.677982  	82.032750 
741.642407  	83.262330 
742.606831  	84.133965 
743.571256  	84.686506 
744.535680  	85.053704 
745.500104  	85.315808 
746.464529  	85.459370 
747.428953  	85.416820 
748.393378  	85.337126 
749.357802  	85.170800 
750.322227  	84.986636 
751.286651  	84.839161 
752.251076  	84.740194 
753.215500  	84.720025 
754.179925  	84.607706 
755.144349  	84.397702 
756.108774  	84.328477 
757.073198  	84.205418 
758.037622  	83.987412 
759.002047  	83.709741 
759.966471  	83.561175 
760.930896  	83.485897 
761.895320  	83.375757 
762.859745  	83.261617 
763.824169  	83.123040 
764.788594  	82.892568 
765.753018  	82.679593 
766.717443  	82.514350 
767.681867  	82.345061 
768.646291  	82.040510 
769.610716  	81.911159 
770.575140  	81.739412 
771.539565  	81.504148 
772.503989  	81.244420 
773.468414  	81.071886 
774.432838  	80.950903 
775.397263  	80.799444 
776.361687  	80.574494 
777.326112  	80.431846 
778.290536  	80.243118 
779.254960  	80.192103 
780.219385  	79.915972 
781.183809  	79.853981 
782.148234  	79.478285 
783.112658  	79.112627 
784.077083  	78.774401 
785.041507  	78.515883 
786.005932  	78.321052 
786.970356  	77.818679 
787.934781  	77.247125 
788.899205  	76.874515 
789.863629  	76.581743 
790.828054  	76.209726 
791.792478  	75.914352 
792.756903  	75.844384 
793.721327  	76.187806 
794.685752  	76.733167 
795.650176  	77.504520 
796.614601  	78.367361 
797.579025  	79.021175 
798.543450  	79.182446 
799.507874  	79.122217 
800.472298  	79.126684 
801.436723  	79.120389 
802.401147  	78.946207 
803.365572  	78.890882 
804.329996  	78.929565 
805.294421  	78.809938 
806.258845  	78.695014 
807.223270  	78.657052 
808.187694  	78.628889 
809.152119  	78.660609 
810.116543  	78.600233 
811.080967  	78.461081 
812.045392  	78.342188 
813.009816  	78.244432 
813.974241  	78.191552 
814.938665  	78.223077 
815.903090  	78.229762 
816.867514  	78.093352 
817.831939  	78.013019 
818.796363  	77.962067 
819.760788  	77.890171 
820.725212  	77.847685 
821.689637  	77.700643 
822.654061  	77.508331 
823.618485  	77.341889 
824.582910  	77.155744 
825.547334  	76.854491 
826.511759  	76.590560 
827.476183  	76.400866 
828.440608  	76.191517 
829.405032  	75.937701 
830.369457  	75.649863 
831.333881  	75.392076 
832.298306  	75.124578 
833.262730  	74.864180 
834.227154  	74.547517 
835.191579  	74.198182 
836.156003  	73.858947 
837.120428  	73.438685 
838.084852  	73.002315 
839.049277  	72.638543 
840.013701  	72.249393 
840.978126  	71.847035 
841.942550  	71.556126 
842.906975  	71.161829 
843.871399  	70.706039 
844.835823  	70.315204 
845.800248  	70.170909 
846.764672  	70.201140 
847.729097  	70.422406 
848.693521  	70.765611 
849.657946  	71.273111 
850.622370  	71.847636 
851.586795  	72.343130 
852.551219  	72.659036 
853.515644  	73.005890 
854.480068  	73.379524 
855.444492  	73.625308 
856.408917  	73.731337 
857.373341  	73.921263 
858.337766  	74.122954 
859.302190  	74.234215 
860.266615  	74.286520 
861.231039  	74.217980 
862.195464  	74.004275 
863.159888  	73.662908 
864.124313  	73.275716 
865.088737  	72.749906 
866.053161  	72.002360 
867.017586  	70.979493 
867.982010  	69.706986 
868.946435  	68.106034 
869.910859  	66.051387 
870.875284  	63.884585 
871.839708  	62.741252 
872.804133  	63.418318 
873.768557  	65.450583 
874.732982  	67.616208 
875.697406  	69.403663 
876.661831  	70.750802 
877.626255  	71.758928 
878.590679  	72.696957 
879.555104  	73.562563 
880.519528  	74.312085 
881.483953  	74.870898 
882.448377  	75.372530 
883.412802  	75.889109 
884.377226  	76.352741 
885.341651  	76.651881 
886.306075  	76.807582 
887.270500  	76.992252 
888.234924  	77.172400 
889.199348  	77.170013 
890.163773  	77.095477 
891.128197  	77.023043 
892.092622  	76.982728 
893.057046  	76.895314 
894.021471  	76.789239 
894.985895  	76.734734 
895.950320  	76.593517 
896.914744  	76.442055 
897.879169  	76.466027 
898.843593  	76.529453 
899.808017  	76.566477 
900.772442  	76.619668 
901.736866  	76.672263 
902.701291  	76.799479 
903.665715  	76.974750 
904.630140  	77.098383 
905.594564  	77.197220 
906.558989  	77.371088 
907.523413  	77.524782 
908.487838  	77.575250 
909.452262  	77.648165 
910.416686  	77.812705 
911.381111  	77.962669 
912.345535  	77.954874 
913.309960  	77.923676 
914.274384  	77.913572 
915.238809  	77.878004 
916.203233  	77.810635 
917.167658  	77.739310 
918.132082  	77.717319 
919.096507  	77.738186 
920.060931  	77.695471 
921.025355  	77.605507 
921.989780  	77.536051 
922.954204  	77.422080 
923.918629  	77.241458 
924.883053  	77.162167 
925.847478  	77.096240 
926.811902  	76.996223 
927.776327  	76.866633 
928.740751  	76.749322 
929.705176  	76.691129 
930.669600  	76.569488 
931.634024  	76.404500 
932.598449  	76.271973 
933.562873  	76.164237 
934.527298  	76.056004 
935.491722  	75.893673 
936.456147  	75.731747 
937.420571  	75.642928 
938.384996  	75.484961 
939.349420  	75.274348 
940.313845  	75.129417 
941.278269  	75.031809 
942.242694  	74.876398 
943.207118  	74.681713 
944.171542  	74.516684 
945.135967  	74.364513 
946.100391  	74.168550 
947.064816  	73.934340 
948.029240  	73.749793 
948.993665  	73.596711 
949.958089  	73.375280 
950.922514  	73.140859 
951.886938  	72.960954 
952.851363  	72.718322 
953.815787  	72.455165 
954.780211  	72.206050 
955.744636  	72.010776 
956.709060  	71.786775 
957.673485  	71.492369 
958.637909  	71.183822 
959.602334  	70.898191 
960.566758  	70.630932 
961.531183  	70.295732 
962.495607  	69.957263 
963.460032  	69.738205 
964.424456  	69.478769 
965.388880  	69.158913 
966.353305  	68.924254 
967.317729  	68.783797 
968.282154  	68.689581 
969.246578  	68.617460 
970.211003  	68.685092 
971.175427  	68.887261 
972.139852  	69.148989 
973.104276  	69.525497 
974.068701  	69.993302 
975.033125  	70.470884 
975.997549  	70.875338 
976.961974  	71.234225 
977.926398  	71.548246 
978.890823  	71.806359 
979.855247  	71.965901 
980.819672  	72.066854 
981.784096  	72.142089 
982.748521  	72.126884 
983.712945  	72.027049 
984.677370  	71.877399 
985.641794  	71.717904 
986.606218  	71.537975 
987.570643  	71.386230 
988.535067  	71.258653 
989.499492  	71.148990 
990.463916  	71.043910 
991.428341  	70.937556 
992.392765  	70.796151 
993.357190  	70.630771 
994.321614  	70.428095 
995.286039  	70.192308 
996.250463  	69.951904 
997.214888  	69.691015 
998.179312  	69.431703 
999.143736  	69.123281 
1000.108161  	68.810358 
1001.072585  	68.509469 
1002.037010  	68.210791 
1003.001434  	67.862806 
1003.965859  	67.492659 
1004.930283  	67.098252 
1005.894708  	66.624117 
1006.859132  	66.081943 
1007.823557  	65.486250 
1008.787981  	64.844081 
1009.752405  	64.130242 
1010.716830  	63.257298 
1011.681254  	62.256958 
1012.645679  	61.176034 
1013.610103  	59.918423 
1014.574528  	58.555603 
1015.538952  	57.486795 
1016.503377  	56.967209 
1017.467801  	57.070749 
1018.432226  	57.867507 
1019.396650  	59.181406 
1020.361074  	60.748655 
1021.325499  	62.458586 
1022.289923  	64.189721 
1023.254348  	66.090096 
1024.218772  	68.232341 
1025.183197  	70.446335 
1026.147621  	72.409600 
1027.112046  	73.853695 
1028.076470  	74.588231 
1029.040895  	74.645849 
1030.005319  	74.269448 
1030.969743  	73.697202 
1031.934168  	73.075127 
1032.898592  	72.456814 
1033.863017  	71.833465 
1034.827441  	71.212259 
1035.791866  	70.661451 
1036.756290  	70.161925 
1037.720715  	69.697187 
1038.685139  	69.241458 
1039.649564  	68.876016 
1040.613988  	68.568303 
1041.578412  	68.235168 
1042.542837  	67.948423 
1043.507261  	67.754241 
1044.471686  	67.582090 
1045.436110  	67.421417 
1046.400535  	67.351434 
1047.364959  	67.296414 
1048.329384  	67.184376 
1049.293808  	67.113026 
1050.258233  	67.097931 
1051.222657  	67.073898 
1052.187081  	66.968530 
1053.151506  	66.835436 
1054.115930  	66.758060 
1055.080355  	66.619311 
1056.044779  	66.413317 
1057.009204  	66.201793 
1057.973628  	65.997638 
1058.938053  	65.735116 
1059.902477  	65.369247 
1060.866902  	65.036189 
1061.831326  	64.776325 
1062.795751  	64.439640 
1063.760175  	64.014935 
1064.724599  	63.631095 
1065.689024  	63.261956 
1066.653448  	62.855086 
1067.617873  	62.388864 
1068.582297  	61.915103 
1069.546722  	61.453876 
1070.511146  	60.917599 
1071.475571  	60.309825 
1072.439995  	59.745838 
1073.404420  	59.133587 
1074.368844  	58.434926 
1075.333268  	57.730753 
1076.297693  	57.003861 
1077.262117  	56.227999 
1078.226542  	55.470274 
1079.190966  	54.740434 
1080.155391  	53.979984 
1081.119815  	53.263269 
1082.084240  	52.652609 
1083.048664  	52.159796 
1084.013089  	51.746186 
1084.977513  	51.347393 
1085.941937  	50.957396 
1086.906362  	50.600331 
1087.870786  	50.332335 
1088.835211  	50.082944 
1089.799635  	49.815842 
1090.764060  	49.608787 
1091.728484  	49.476057 
1092.692909  	49.392399 
1093.657333  	49.298081 
1094.621758  	49.247322 
1095.586182  	49.331564 
1096.550606  	49.432058 
1097.515031  	49.581663 
1098.479455  	49.918023 
1099.443880  	50.305253 
1100.408304  	50.723612 
1101.372729  	51.225246 
1102.337153  	51.817627 
1103.301578  	52.432485 
1104.266002  	53.067774 
1105.230427  	53.744667 
1106.194851  	54.469519 
1107.159275  	55.170934 
1108.123700  	55.833040 
1109.088124  	56.434809 
1110.052549  	56.894708 
1111.016973  	57.295876 
1111.981398  	57.633016 
1112.945822  	57.901588 
1113.910247  	58.038101 
1114.874671  	58.044954 
1115.839096  	58.015985 
1116.803520  	58.040570 
1117.767945  	58.107119 
1118.732369  	58.270164 
1119.696793  	58.607286 
1120.661218  	59.055854 
1121.625642  	59.562999 
1122.590067  	60.185917 
1123.554491  	60.920975 
1124.518916  	61.749041 
1125.483340  	62.661573 
1126.447765  	63.686747 
1127.412189  	64.795497 
1128.376614  	65.930738 
1129.341038  	67.149100 
1130.305462  	68.418146 
1131.269887  	69.692456 
1132.234311  	70.925454 
1133.198736  	72.138399 
1134.163160  	73.334230 
1135.127585  	74.429749 
1136.092009  	75.464268 
1137.056434  	76.478635 
1138.020858  	77.472115 
1138.985283  	78.342535 
1139.949707  	79.063650 
1140.914131  	79.781364 
1141.878556  	80.482232 
1142.842980  	81.071802 
1143.807405  	81.632879 
1144.771829  	82.178799 
1145.736254  	82.655201 
1146.700678  	83.091982 
1147.665103  	83.458566 
1148.629527  	83.821977 
1149.593952  	84.176290 
1150.558376  	84.447986 
1151.522800  	84.657587 
1152.487225  	84.871131 
1153.451649  	85.061632 
1154.416074  	85.215198 
1155.380498  	85.335498 
1156.344923  	85.426664 
1157.309347  	85.476910 
1158.273772  	85.479344 
1159.238196  	85.404309 
1160.202621  	85.400706 
1161.167045  	85.375990 
1162.131469  	85.249240 
1163.095894  	85.083121 
1164.060318  	84.917494 
1165.024743  	84.695694 
1165.989167  	84.380483 
1166.953592  	84.003933 
1167.918016  	83.560718 
1168.882441  	83.059325 
1169.846865  	82.499580 
1170.811290  	81.962126 
1171.775714  	81.506063 
1172.740138  	81.128206 
1173.704563  	80.754495 
1174.668987  	80.442234 
1175.633412  	80.358216 
1176.597836  	80.311683 
1177.562261  	80.220976 
1178.526685  	80.170709 
1179.491110  	80.124887 
1180.455534  	80.047348 
1181.419959  	79.973874 
1182.384383  	79.855585 
1183.348808  	79.657575 
1184.313232  	79.434496 
1185.277656  	79.146769 
1186.242081  	78.790818 
1187.206505  	78.410598 
1188.170930  	78.020938 
1189.135354  	77.546624 
1190.099779  	77.017348 
1191.064203  	76.502102 
1192.028628  	75.956498 
1192.993052  	75.369836 
1193.957477  	74.750748 
1194.921901  	74.139115 
1195.886325  	73.529163 
1196.850750  	72.904358 
1197.815174  	72.294685 
1198.779599  	71.747769 
1199.744023  	71.206732 
1200.708448  	70.616452 
1201.672872  	70.062650 
1202.637297  	69.554790 
1203.601721  	69.044028 
1204.566146  	68.575542 
1205.530570  	68.123898 
1206.494994  	67.670168 
1207.459419  	67.214977 
1208.423843  	66.794369 
1209.388268  	66.399752 
1210.352692  	65.972973 
1211.317117  	65.482033 
1212.281541  	64.972304 
1213.245966  	64.522253 
1214.210390  	64.022252 
1215.174815  	63.435024 
1216.139239  	62.811695 
1217.103663  	62.210215 
1218.068088  	61.578791 
1219.032512  	60.919255 
1219.996937  	60.315874 
1220.961361  	59.755926 
1221.925786  	59.231919 
1222.890210  	58.726717 
1223.854635  	58.263498 
1224.819059  	57.816492 
1225.783484  	57.374455 
1226.747908  	56.902397 
1227.712332  	56.367240 
1228.676757  	55.778140 
1229.641181  	55.108297 
1230.605606  	54.387268 
1231.570030  	53.630663 
1232.534455  	52.804065 
1233.498879  	52.003458 
1234.463304  	51.288489 
1235.427728  	50.592940 
1236.392153  	49.989259 
1237.356577  	49.529600 
1238.321002  	49.196633 
1239.285426  	48.981475 
1240.249850  	48.895931 
1241.214275  	48.930427 
1242.178699  	49.090604 
1243.143124  	49.342598 
1244.107548  	49.715958 
1245.071973  	50.212247 
1246.036397  	50.755286 
1247.000822  	51.318524 
1247.965246  	51.937777 
1248.929671  	52.618138 
1249.894095  	53.286693 
1250.858519  	53.930320 
1251.822944  	54.551603 
1252.787368  	55.150893 
1253.751793  	55.718826 
1254.716217  	56.190870 
1255.680642  	56.637062 
1256.645066  	57.059491 
1257.609491  	57.419296 
1258.573915  	57.730414 
1259.538340  	58.036343 
1260.502764  	58.418972 
1261.467188  	58.980989 
1262.431613  	59.545945 
1263.396037  	60.153633 
1264.360462  	60.835110 
1265.324886  	61.532045 
1266.289311  	62.270690 
1267.253735  	63.091830 
1268.218160  	63.908765 
1269.182584  	64.709575 
1270.147009  	65.501599 
1271.111433  	66.343305 
1272.075857  	67.120213 
1273.040282  	67.934631 
1274.004706  	68.666117 
1274.969131  	69.354469 
1275.933555  	69.972042 
1276.897980  	70.532155 
1277.862404  	71.088108 
1278.826829  	71.620931 
1279.791253  	72.062592 
1280.755678  	72.498882 
1281.720102  	72.990561 
1282.684526  	73.490495 
1283.648951  	73.933732 
1284.613375  	74.326836 
1285.577800  	74.770551 
1286.542224  	75.175409 
1287.506649  	75.450878 
1288.471073  	75.887086 
1289.435498  	76.526411 
1290.399922  	77.091487 
1291.364347  	77.639006 
1292.328771  	78.240620 
1293.293195  	78.842697 
1294.257620  	79.457135 
1295.222044  	80.030874 
1296.186469  	80.541573 
1297.150893  	81.158297 
1298.115318  	81.915282 
1299.079742  	82.516843 
1300.044167  	83.099948 
1301.008591  	83.689643 
1301.973016  	84.210797 
1302.937440  	84.612282 
1303.901865  	84.982323 
1304.866289  	85.341849 
1305.830713  	85.661122 
1306.795138  	85.929147 
1307.759562  	86.110579 
1308.723987  	86.397198 
1309.688411  	86.847489 
1310.652836  	87.116821 
1311.617260  	87.211087 
1312.581685  	87.023351 
1313.546109  	87.266983 
1314.510534  	87.612372 
1315.474958  	87.961965 
1316.439382  	88.021702 
1317.403807  	87.982807 
1318.368231  	88.051392 
1319.332656  	88.025576 
1320.297080  	88.433554 
1321.261505  	88.751695 
1322.225929  	88.990403 
1323.190354  	89.004593 
1324.154778  	89.017030 
1325.119203  	88.993317 
1326.083627  	88.837086 
1327.048051  	88.567269 
1328.012476  	88.159314 
1328.976900  	87.547784 
1329.941325  	86.638155 
1330.905749  	85.538523 
1331.870174  	84.129304 
1332.834598  	82.382244 
1333.799023  	80.497151 
1334.763447  	78.642498 
1335.727872  	76.774270 
1336.692296  	74.973041 
1337.656720  	74.035390 
1338.621145  	73.205221 
1339.585569  	72.840071 
1340.549994  	74.016699 
1341.514418  	76.487892 
1342.478843  	78.578969 
1343.443267  	80.303724 
1344.407692  	82.027992 
1345.372116  	83.676782 
1346.336541  	85.087963 
1347.300965  	86.260603 
1348.265389  	87.176984 
1349.229814  	87.819320 
1350.194238  	88.515257 
1351.158663  	89.129131 
1352.123087  	89.511037 
1353.087512  	89.815171 
1354.051936  	89.869881 
1355.016361  	89.745020 
1355.980785  	90.119902 
1356.945210  	90.332215 
1357.909634  	90.206327 
1358.874059  	90.222919 
1359.838483  	90.209296 
1360.802907  	89.446379 
1361.767332  	88.773989 
1362.731756  	87.764798 
1363.696181  	87.638877 
1364.660605  	88.904672 
1365.625030  	89.039082 
1366.589454  	88.793769 
1367.553879  	88.311822 
1368.518303  	87.571242 
1369.482728  	87.488305 
1370.447152  	87.910324 
1371.411576  	87.901178 
1372.376001  	87.731808 
1373.340425  	86.991326 
1374.304850  	86.357187 
1375.269274  	86.841111 
1376.233699  	87.803421 
1377.198123  	88.021687 
1378.162548  	87.740253 
1379.126972  	87.809410 
1380.091397  	87.968466 
1381.055821  	88.133434 
1382.020245  	88.133697 
1382.984670  	88.082876 
1383.949094  	88.055765 
1384.913519  	88.001129 
1385.877943  	87.486150 
1386.842368  	86.353013 
1387.806792  	86.127084 
1388.771217  	87.293976 
1389.735641  	87.812276 
1390.700066  	87.731015 
1391.664490  	87.733734 
1392.628914  	87.745340 
1393.593339  	87.088037 
1394.557763  	85.565120 
1395.522188  	85.155265 
1396.486612  	85.784985 
1397.451037  	85.562473 
1398.415461  	84.544081 
1399.379886  	83.910434 
1400.344310  	84.222442 
1401.308735  	84.158093 
1402.273159  	83.315737 
1403.237583  	82.239269 
1404.202008  	80.612777 
1405.166432  	78.621963 
1406.130857  	77.952549 
1407.095281  	77.554066 
1408.059706  	76.853986 
1409.024130  	76.574145 
1409.988555  	76.706546 
1410.952979  	77.511025 
1411.917404  	78.717700 
1412.881828  	80.707593 
1413.846252  	82.651397 
1414.810677  	84.341196 
1415.775101  	85.389821 
1416.739526  	85.955434 
1417.703950  	86.397004 
1418.668375  	86.555919 
1419.632799  	86.719741 
1420.597224  	89.150127 
1421.561648  	90.208773 
1422.526073  	90.505882 
1423.490497  	89.629316 
1424.454922  	89.368563 
1425.419346  	90.692307 
1426.383770  	91.171955 
1427.348195  	91.138318 
1428.312619  	90.861459 
1429.277044  	90.304615 
1430.241468  	89.826281 
1431.205893  	90.321754 
1432.170317  	90.294649 
1433.134742  	89.918286 
1434.099166  	89.975166 
1435.063591  	89.681979 
1436.028015  	88.231738 
1436.992439  	87.060402 
1437.956864  	88.691565 
1438.921288  	89.491276 
1439.885713  	89.560217 
1440.850137  	89.509832 
1441.814562  	89.468383 
1442.778986  	89.459438 
1443.743411  	89.369460 
1444.707835  	89.227159 
1445.672260  	89.027400 
1446.636684  	88.751857 
1447.601108  	87.794630 
1448.565533  	87.589203 
1449.529957  	88.455781 
1450.494382  	88.604158 
1451.458806  	88.047462 
1452.423231  	87.593257 
1453.387655  	88.018823 
1454.352080  	87.592350 
1455.316504  	86.341500 
1456.280929  	85.365661 
1457.245353  	84.597428 
1458.209777  	84.815679 
1459.174202  	85.878749 
1460.138626  	87.591840 
1461.103051  	88.579322 
1462.067475  	88.816943 
1463.031900  	88.875419 
1463.996324  	88.435088 
1464.960749  	87.427005 
1465.925173  	88.023391 
1466.889598  	88.669255 
1467.854022  	88.604184 
1468.818446  	88.454288 
1469.782871  	88.022991 
1470.747295  	87.165042 
1471.711720  	85.367497 
1472.676144  	84.359865 
1473.640569  	85.288171 
1474.604993  	87.183171 
1475.569418  	87.556365 
1476.533842  	87.203207 
1477.498267  	88.774866 
1478.462691  	89.758500 
1479.427116  	90.033615 
1480.391540  	89.965660 
1481.355964  	89.556853 
1482.320389  	90.249072 
1483.284813  	90.939966 
1484.249238  	91.199437 
1485.213662  	91.113330 
1486.178087  	90.595650 
1487.142511  	89.992890 
1488.106936  	90.099584 
1489.071360  	89.107178 
1490.035785  	87.586425 
1491.000209  	89.070320 
1491.964633  	91.030515 
1492.929058  	91.810907 
1493.893482  	91.822966 
1494.857907  	91.428201 
1495.822331  	90.270129 
1496.786756  	89.397768 
1497.751180  	89.877931 
1498.715605  	89.152449 
1499.680029  	88.864916 
1500.644454  	88.902485 
1501.608878  	87.812527 
1502.573302  	86.864022 
1503.537727  	86.212547 
1504.502151  	85.012313 
1505.466576  	82.984918 
1506.431000  	79.572745 
1507.395425  	79.509859 
1508.359849  	82.613938 
1509.324274  	85.038182 
1510.288698  	86.972903 
1511.253123  	88.725595 
1512.217547  	88.864941 
1513.181971  	89.785673 
1514.146396  	90.381625 
1515.110820  	89.434455 
1516.075245  	88.324797 
1517.039669  	86.972797 
1518.004094  	88.844592 
1518.968518  	90.313436 
1519.932943  	89.333968 
1520.897367  	86.666009 
1521.861792  	86.971721 
1522.826216  	88.449277 
1523.790640  	89.612859 
1524.755065  	89.195350 
1525.719489  	88.628284 
1526.683914  	89.260263 
1527.648338  	88.919878 
1528.612763  	89.422591 
1529.577187  	90.658232 
1530.541612  	91.046546 
1531.506036  	90.149985 
1532.470461  	89.556742 
1533.434885  	88.610903 
1534.399309  	88.913852 
1535.363734  	89.971719 
1536.328158  	90.559289 
1537.292583  	90.697332 
1538.257007  	89.577848 
1539.221432  	86.757404 
1540.185856  	86.361754 
1541.150281  	87.815992 
1542.114705  	87.797005 
1543.079130  	87.760165 
1544.043554  	87.889401 
1545.007979  	87.480610 
1545.972403  	88.704918 
1546.936827  	90.371951 
1547.901252  	90.699852 
1548.865676  	90.067489 
1549.830101  	88.083181 
1550.794525  	88.615913 
1551.758950  	90.255479 
1552.723374  	90.332366 
1553.687799  	89.403989 
1554.652223  	88.248466 
1555.616648  	89.311315 
1556.581072  	89.597283 
1557.545496  	88.300167 
1558.509921  	83.940563 
1559.474345  	83.253045 
1560.438770  	86.551272 
1561.403194  	89.198917 
1562.367619  	90.100752 
1563.332043  	90.356313 
1564.296468  	89.935396 
1565.260892  	89.500660 
1566.225317  	90.092291 
1567.189741  	90.314291 
1568.154165  	89.846125 
1569.118590  	88.337105 
1570.083014  	87.844245 
1571.047439  	89.234115 
1572.011863  	89.605001 
1572.976288  	89.407382 
1573.940712  	89.119644 
1574.905137  	88.589246 
1575.869561  	87.359779 
1576.833986  	86.410105 
1577.798410  	87.351368 
1578.762834  	88.141671 
1579.727259  	88.556268 
1580.691683  	88.920776 
1581.656108  	89.249535 
1582.620532  	89.540514 
1583.584957  	89.813033 
1584.549381  	90.106817 
1585.513806  	90.348038 
1586.478230  	90.513631 
1587.442655  	90.609733 
1588.407079  	90.699762 
1589.371503  	90.607195 
1590.335928  	90.546881 
1591.300352  	90.606436 
1592.264777  	90.645740 
1593.229201  	90.639026 
1594.193626  	90.332225 
1595.158050  	90.246552 
1596.122475  	90.378524 
1597.086899  	90.440797 
1598.051324  	90.538997 
1599.015748  	90.495370 
1599.980173  	90.444727 
1600.944597  	90.157805 
1601.909021  	89.972875 
1602.873446  	89.730580 
1603.837870  	89.699459 
1604.802295  	89.868200 
1605.766719  	89.769305 
1606.731144  	89.352901 
1607.695568  	89.140126 
1608.659993  	89.096866 
1609.624417  	88.692531 
1610.588842  	88.947290 
1611.553266  	89.118191 
1612.517690  	89.016987 
1613.482115  	88.994612 
1614.446539  	88.914387 
1615.410964  	88.539622 
1616.375388  	87.581310 
1617.339813  	87.469501 
1618.304237  	88.594905 
1619.268662  	89.059035 
1620.233086  	89.125190 
1621.197511  	89.111330 
1622.161935  	88.698175 
1623.126359  	87.725579 
1624.090784  	87.892559 
1625.055208  	88.838994 
1626.019633  	89.049287 
1626.984057  	88.789158 
1627.948482  	88.181112 
1628.912906  	88.567983 
1629.877331  	88.981880 
1630.841755  	88.995021 
1631.806180  	88.931871 
1632.770604  	88.862653 
1633.735028  	88.527863 
1634.699453  	87.602451 
1635.663877  	85.802479 
1636.628302  	86.615521 
1637.592726  	86.848610 
1638.557151  	87.607317 
1639.521575  	88.151822 
1640.486000  	88.154697 
1641.450424  	88.144356 
1642.414849  	88.031593 
1643.379273  	88.045812 
1644.343697  	87.935947 
1645.308122  	87.078176 
1646.272546  	85.471571 
1647.236971  	84.818783 
1648.201395  	85.212557 
1649.165820  	86.636409 
1650.130244  	87.252734 
1651.094669  	86.970965 
1652.059093  	85.933376 
1653.023518  	82.637237 
1653.987942  	82.035397 
1654.952366  	84.532386 
1655.916791  	86.079274 
1656.881215  	86.402485 
1657.845640  	86.540677 
1658.810064  	86.634554 
1659.774489  	86.547156 
1660.738913  	86.061922 
1661.703338  	85.379329 
1662.667762  	84.522962 
1663.632187  	84.699233 
1664.596611  	85.105652 
1665.561036  	85.012098 
1666.525460  	84.754150 
1667.489884  	84.100476 
1668.454309  	82.595781 
1669.418733  	81.504839 
1670.383158  	82.162527 
1671.347582  	81.773370 
1672.312007  	81.796915 
1673.276431  	82.201042 
1674.240856  	81.719654 
1675.205280  	80.348720 
1676.169705  	80.280094 
1677.134129  	80.799651 
1678.098553  	80.577237 
1679.062978  	79.750476 
1680.027402  	78.059940 
1680.991827  	77.800853 
1681.956251  	78.192766 
1682.920676  	76.942600 
1683.885100  	73.323579 
1684.849525  	73.058377 
1685.813949  	76.192510 
1686.778374  	76.807598 
1687.742798  	76.114855 
1688.707222  	75.224098 
1689.671647  	74.969235 
1690.636071  	74.633601 
1691.600496  	74.549156 
1692.564920  	73.935434 
1693.529345  	72.916570 
1694.493769  	71.638455 
1695.458194  	69.662721 
1696.422618  	67.525162 
1697.387043  	67.265670 
1698.351467  	66.537582 
1699.315891  	65.071821 
1700.280316  	61.633726 
1701.244740  	61.096090 
1702.209165  	61.170522 
1703.173589  	60.178586 
1704.138014  	58.403181 
1705.102438  	56.711326 
1706.066863  	55.497438 
1707.031287  	54.100207 
1707.995712  	53.476319 
1708.960136  	52.733989 
1709.924560  	51.538632 
1710.888985  	50.695028 
1711.853409  	50.348629 
1712.817834  	49.771551 
1713.782258  	49.053214 
1714.746683  	48.446856 
1715.711107  	48.939915 
1716.675532  	49.372627 
1717.639956  	49.105943 
1718.604381  	50.508349 
1719.568805  	53.076091 
1720.533230  	54.633728 
1721.497654  	55.846291 
1722.462078  	56.934027 
1723.426503  	57.863522 
1724.390927  	59.373660 
1725.355352  	60.858791 
1726.319776  	62.132061 
1727.284201  	63.421023 
1728.248625  	64.703467 
1729.213050  	65.335017 
1730.177474  	65.844931 
1731.141899  	68.019878 
1732.106323  	69.328762 
1733.070747  	69.290306 
1734.035172  	68.869607 
1734.999596  	72.472880 
1735.964021  	75.343212 
1736.928445  	76.787658 
1737.892870  	78.047073 
1738.857294  	78.980618 
1739.821719  	79.752618 
1740.786143  	82.018499 
1741.750568  	83.576481 
1742.714992  	83.825009 
1743.679416  	84.028663 
1744.643841  	85.830731 
1745.608265  	87.220893 
1746.572690  	87.675629 
1747.537114  	87.877974 
1748.501539  	88.046112 
1749.465963  	88.708133 
1750.430388  	89.402217 
1751.394812  	88.929273 
1752.359237  	90.420647 
1753.323661  	91.809565 
1754.288085  	92.439739 
1755.252510  	92.612347 
1756.216934  	91.981865 
1757.181359  	91.348368 
1758.145783  	92.123913 
1759.110208  	92.678164 
1760.074632  	92.936072 
1761.039057  	92.375698 
1762.003481  	91.363806 
1762.967906  	92.405659 
1763.932330  	93.237135 
1764.896754  	93.415557 
1765.861179  	93.437693 
1766.825603  	93.270291 
1767.790028  	92.275151 
1768.754452  	91.937168 
1769.718877  	93.017128 
1770.683301  	92.797248 
1771.647726  	91.674952 
1772.612150  	91.149719 
1773.576575  	92.260508 
1774.540999  	92.980751 
1775.505423  	92.585863 
1776.469848  	92.848216 
1777.434272  	93.550444 
1778.398697  	93.378765 
1779.363121  	93.045084 
1780.327546  	92.576054 
1781.291970  	92.479479 
1782.256395  	93.251914 
1783.220819  	93.595085 
1784.185244  	93.244695 
1785.149668  	92.654748 
1786.114093  	93.249765 
1787.078517  	93.679517 
1788.042941  	93.632426 
1789.007366  	93.511961 
1789.971790  	93.147976 
1790.936215  	92.141975 
1791.900639  	91.688360 
1792.865064  	91.638794 
1793.829488  	92.619989 
1794.793913  	93.081401 
1795.758337  	92.391846 
1796.722762  	92.377355 
1797.687186  	93.200240 
1798.651610  	93.244476 
1799.616035  	92.599230 
1800.580459  	92.508918 
1801.544884  	92.300781 
1802.509308  	92.111580 
1803.473733  	92.944831 
1804.438157  	93.465018 
1805.402582  	93.428043 
1806.367006  	93.376428 
1807.331431  	93.058646 
1808.295855  	92.936978 
1809.260279  	93.280380 
1810.224704  	92.790811 
1811.189128  	92.386872 
1812.153553  	92.717222 
1813.117977  	93.079400 
1814.082402  	93.466790 
1815.046826  	93.517190 
1816.011251  	93.508654 
1816.975675  	93.213985 
1817.940100  	93.024040 
1818.904524  	93.343580 
1819.868948  	93.470195 
1820.833373  	93.372518 
1821.797797  	93.238316 
1822.762222  	93.015859 
1823.726646  	93.039918 
1824.691071  	92.472597 
1825.655495  	91.761060 
1826.619920  	92.806422 
1827.584344  	93.248007 
1828.548769  	92.784354 
1829.513193  	91.610742 
1830.477617  	91.624700 
1831.442042  	92.872522 
1832.406466  	93.264355 
1833.370891  	93.082493 
1834.335315  	93.323093 
1835.299740  	93.537813 
1836.264164  	93.348346 
1837.228589  	92.827967 
1838.193013  	93.041986 
1839.157438  	93.457300 
1840.121862  	93.561665 
1841.086287  	93.536032 
1842.050711  	93.158926 
1843.015135  	92.842091 
1843.979560  	92.075131 
1844.943984  	91.789691 
1845.908409  	92.788373 
1846.872833  	93.131778 
1847.837258  	92.616986 
1848.801682  	92.915804 
1849.766107  	93.608871 
1850.730531  	93.844178 
1851.694956  	93.850870 
1852.659380  	93.813755 
1853.623804  	93.870034 
1854.588229  	93.854758 
1855.552653  	93.862070 
1856.517078  	93.870463 
1857.481502  	93.811345 
1858.445927  	93.629245 
1859.410351  	93.641950 
1860.374776  	93.733228 
1861.339200  	93.648823 
1862.303625  	93.702589 
1863.268049  	93.837376 
1864.232473  	93.851642 
1865.196898  	93.819697 
1866.161322  	93.455519 
1867.125747  	92.997830 
1868.090171  	92.369423 
1869.054596  	91.957893 
1870.019020  	92.468275 
1870.983445  	93.225770 
1871.947869  	93.727304 
1872.912294  	93.991740 
1873.876718  	93.978550 
1874.841142  	93.950959 
1875.805567  	93.938286 
1876.769991  	93.930501 
1877.734416  	93.973106 
1878.698840  	93.883856 
1879.663265  	93.708625 
1880.627689  	93.842223 
1881.592114  	93.917729 
1882.556538  	93.920782 
1883.520963  	93.968859 
1884.485387  	93.759166 
1885.449811  	93.580751 
1886.414236  	93.821167 
1887.378660  	93.936272 
1888.343085  	93.703869 
1889.307509  	92.883524 
1890.271934  	92.811933 
1891.236358  	93.517958 
1892.200783  	93.739763 
1893.165207  	93.757874 
1894.129632  	93.654670 
1895.094056  	93.192006 
1896.058480  	93.313823 
1897.022905  	93.724779 
1897.987329  	93.724263 
1898.951754  	93.731483 
1899.916178  	93.759043 
1900.880603  	93.794028 
1901.845027  	93.618524 
1902.809452  	93.617160 
1903.773876  	93.719714 
1904.738301  	93.725894 
1905.702725  	93.700539 
1906.667150  	93.717407 
1907.631574  	93.413091 
1908.595998  	93.297128 
1909.560423  	93.143957 
1910.524847  	93.027709 
1911.489272  	93.517982 
1912.453696  	93.663689 
1913.418121  	93.630107 
1914.382545  	93.567437 
1915.346970  	93.621962 
1916.311394  	93.621367 
1917.275819  	93.187046 
1918.240243  	92.451684 
1919.204667  	93.091475 
1920.169092  	93.511590 
1921.133516  	93.353235 
1922.097941  	92.782182 
1923.062365  	92.161924 
1924.026790  	92.934631 
1924.991214  	93.618563 
1925.955639  	93.578108 
1926.920063  	93.560462 
1927.884488  	93.610334 
1928.848912  	93.582777 
1929.813336  	93.553892 
1930.777761  	93.623747 
1931.742185  	93.604290 
1932.706610  	93.524920 
1933.671034  	93.591798 
1934.635459  	93.649222 
1935.599883  	93.480951 
1936.564308  	93.488254 
1937.528732  	93.397929 
1938.493157  	93.457017 
1939.457581  	93.634369 
1940.422005  	93.550374 
1941.386430  	93.151656 
1942.350854  	92.122329 
1943.315279  	92.026714 
1944.279703  	92.949356 
1945.244128  	93.032334 
1946.208552  	92.850390 
1947.172977  	92.906780 
1948.137401  	93.142982 
1949.101826  	93.087210 
1950.066250  	93.151209 
1951.030674  	93.116429 
1951.995099  	92.945277 
1952.959523  	93.047271 
1953.923948  	93.203183 
1954.888372  	93.068866 
1955.852797  	93.137662 
1956.817221  	93.406067 
1957.781646  	93.358223 
1958.746070  	93.141048 
1959.710495  	93.058844 
1960.674919  	92.971712 
1961.639344  	93.044058 
1962.603768  	92.985603 
1963.568192  	93.002863 
1964.532617  	93.350499 
1965.497041  	93.683092 
1966.461466  	93.142811 
1967.425890  	92.551945 
1968.390315  	93.283622 
1969.354739  	93.656468 
1970.319164  	93.357036 
1971.283588  	93.498860 
1972.248013  	93.538324 
1973.212437  	93.767919 
1974.176861  	93.732804 
1975.141286  	93.452226 
1976.105710  	93.598342 
1977.070135  	94.271251 
1978.034559  	94.273463 
1978.998984  	93.498625 
1979.963408  	93.266676 
1980.927833  	93.356651 
1981.892257  	93.303631 
1982.856682  	93.286515 
1983.821106  	93.523385 
1984.785530  	93.688124 
1985.749955  	93.524959 
1986.714379  	93.575990 
1987.678804  	93.168691 
1988.643228  	92.919039 
1989.607653  	93.285381 
1990.572077  	93.307658 
1991.536502  	92.898123 
1992.500926  	92.758361 
1993.465351  	93.326003 
1994.429775  	93.568694 
1995.394199  	93.481437 
1996.358624  	93.546068 
1997.323048  	93.588266 
1998.287473  	93.706708 
1999.251897  	93.730417 
2000.216322  	93.724433 
2001.180746  	93.884068 
2002.145171  	94.127937 
2003.109595  	94.306103 
2004.074020  	94.431133 
2005.038444  	94.291294 
2006.002868  	94.248212 
2006.967293  	94.083875 
2007.931717  	93.860274 
2008.896142  	93.980185 
2009.860566  	94.042579 
2010.824991  	93.719130 
2011.789415  	93.651947 
2012.753840  	93.999646 
2013.718264  	93.907727 
2014.682689  	93.696512 
2015.647113  	93.884724 
2016.611537  	93.608813 
2017.575962  	93.404884 
2018.540386  	93.591657 
2019.504811  	93.951079 
2020.469235  	94.283980 
2021.433660  	94.237155 
2022.398084  	94.226989 
2023.362509  	94.407386 
2024.326933  	94.472122 
2025.291358  	94.205773 
2026.255782  	93.972092 
2027.220207  	93.884734 
2028.184631  	93.640897 
2029.149055  	93.820089 
2030.113480  	94.116256 
2031.077904  	94.280529 
2032.042329  	94.080369 
2033.006753  	94.048367 
2033.971178  	94.327716 
2034.935602  	94.371477 
2035.900027  	94.103878 
2036.864451  	94.085516 
2037.828876  	94.147766 
2038.793300  	94.029996 
2039.757724  	93.806992 
2040.722149  	93.706422 
2041.686573  	93.384556 
2042.650998  	93.422108 
2043.615422  	93.601140 
2044.579847  	93.851653 
2045.544271  	94.180461 
2046.508696  	94.176434 
2047.473120  	93.980516 
2048.437545  	93.982907 
2049.401969  	93.896309 
2050.366393  	93.520385 
2051.330818  	93.320272 
2052.295242  	93.513820 
2053.259667  	93.724235 
2054.224091  	93.607612 
2055.188516  	93.203185 
2056.152940  	93.183578 
2057.117365  	93.278238 
2058.081789  	93.223339 
2059.046214  	93.247934 
2060.010638  	93.276616 
2060.975062  	93.105376 
2061.939487  	93.154967 
2062.903911  	93.304915 
2063.868336  	93.176316 
2064.832760  	92.936342 
2065.797185  	92.985556 
2066.761609  	93.116358 
2067.726034  	93.257422 
2068.690458  	93.324269 
2069.654883  	93.372035 
2070.619307  	93.279325 
2071.583731  	93.057205 
2072.548156  	92.900443 
2073.512580  	92.919087 
2074.477005  	92.960239 
2075.441429  	93.040808 
2076.405854  	93.055828 
2077.370278  	92.999754 
2078.334703  	93.020397 
2079.299127  	93.053934 
2080.263552  	93.066333 
2081.227976  	93.059139 
2082.192401  	92.949905 
2083.156825  	92.815374 
2084.121249  	92.821009 
2085.085674  	92.954721 
2086.050098  	92.940107 
2087.014523  	92.894036 
2087.978947  	92.954079 
2088.943372  	92.979873 
2089.907796  	92.794968 
2090.872221  	92.830198 
2091.836645  	93.063827 
2092.801070  	93.097161 
2093.765494  	93.036518 
2094.729918  	92.970401 
2095.694343  	92.893975 
2096.658767  	92.763905 
2097.623192  	92.792260 
2098.587616  	92.807081 
2099.552041  	92.923243 
2100.516465  	93.102316 
2101.480890  	93.099968 
2102.445314  	92.923020 
2103.409739  	92.846924 
2104.374163  	92.838846 
2105.338587  	92.814013 
2106.303012  	92.918535 
2107.267436  	92.876254 
2108.231861  	92.735842 
2109.196285  	92.662645 
2110.160710  	92.807492 
2111.125134  	92.924028 
2112.089559  	92.867461 
2113.053983  	92.857086 
2114.018408  	92.893500 
2114.982832  	92.818764 
2115.947256  	92.769390 
2116.911681  	92.864680 
2117.876105  	93.022257 
2118.840530  	93.029584 
2119.804954  	92.968567 
2120.769379  	92.985109 
2121.733803  	93.011157 
2122.698228  	93.094238 
2123.662652  	93.102821 
2124.627077  	93.116798 
2125.591501  	93.172798 
2126.555925  	93.237243 
2127.520350  	93.219465 
2128.484774  	93.260026 
2129.449199  	93.445205 
2130.413623  	93.528124 
2131.378048  	93.448315 
2132.342472  	93.618833 
2133.306897  	93.794821 
2134.271321  	93.639698 
2135.235746  	93.409335 
2136.200170  	93.239309 
2137.164594  	93.360723 
2138.129019  	93.557566 
2139.093443  	93.632639 
2140.057868  	93.634938 
2141.022292  	93.587986 
2141.986717  	93.503135 
2142.951141  	93.481704 
2143.915566  	93.753434 
2144.879990  	93.757585 
2145.844415  	93.769197 
2146.808839  	93.874684 
2147.773264  	93.864913 
2148.737688  	93.970487 
2149.702112  	93.886848 
2150.666537  	93.871324 
2151.630961  	93.984293 
2152.595386  	94.247348 
2153.559810  	94.177201 
2154.524235  	94.029682 
2155.488659  	94.380736 
2156.453084  	94.808327 
2157.417508  	94.775519 
2158.381933  	94.673242 
2159.346357  	94.451912 
2160.310781  	93.945980 
2161.275206  	93.566473 
2162.239630  	93.730519 
2163.204055  	94.002620 
2164.168479  	94.027270 
2165.132904  	93.701304 
2166.097328  	93.426631 
2167.061753  	93.712773 
2168.026177  	93.655823 
2168.990602  	93.400064 
2169.955026  	93.473421 
2170.919450  	93.903318 
2171.883875  	93.819478 
2172.848299  	93.838248 
2173.812724  	93.882640 
2174.777148  	93.698800 
2175.741573  	93.651987 
2176.705997  	93.632273 
2177.670422  	93.798410 
2178.634846  	94.003361 
2179.599271  	93.767325 
2180.563695  	93.677869 
2181.528119  	93.939462 
2182.492544  	93.711110 
2183.456968  	93.151869 
2184.421393  	93.071582 
2185.385817  	93.667173 
2186.350242  	93.728427 
2187.314666  	93.385959 
2188.279091  	93.424671 
2189.243515  	93.611435 
2190.207940  	93.460521 
2191.172364  	93.596060 
2192.136788  	93.716839 
2193.101213  	93.704874 
2194.065637  	93.540242 
2195.030062  	93.187418 
2195.994486  	93.124098 
2196.958911  	93.225889 
2197.923335  	93.359877 
2198.887760  	93.433427 
2199.852184  	93.547825 
2200.816609  	93.528125 
2201.781033  	93.473663 
2202.745458  	93.469818 
2203.709882  	93.482139 
2204.674306  	93.512779 
2205.638731  	93.359138 
2206.603155  	93.122363 
2207.567580  	93.125601 
2208.532004  	93.107169 
2209.496429  	93.032706 
2210.460853  	93.042752 
2211.425278  	93.192456 
2212.389702  	93.258278 
2213.354127  	93.030422 
2214.318551  	92.838457 
2215.282975  	92.818875 
2216.247400  	92.935912 
2217.211824  	93.102249 
2218.176249  	93.209714 
2219.140673  	93.282137 
2220.105098  	93.102408 
2221.069522  	92.919435 
2222.033947  	93.024923 
2222.998371  	93.034901 
2223.962796  	92.975795 
2224.927220  	93.136765 
2225.891644  	93.067567 
2226.856069  	93.059300 
2227.820493  	93.077669 
2228.784918  	93.122644 
2229.749342  	92.999140 
2230.713767  	92.905022 
2231.678191  	92.877931 
2232.642616  	92.835424 
2233.607040  	92.951582 
2234.571465  	92.947427 
2235.535889  	92.874289 
2236.500313  	92.887808 
2237.464738  	92.860784 
2238.429162  	92.832177 
2239.393587  	92.868828 
2240.358011  	92.839947 
2241.322436  	92.911963 
2242.286860  	92.787033 
2243.251285  	92.796596 
2244.215709  	92.961240 
2245.180134  	92.781032 
2246.144558  	92.636099 
2247.108982  	92.723784 
2248.073407  	92.825363 
2249.037831  	92.845122 
2250.002256  	92.874063 
2250.966680  	92.982618 
2251.931105  	92.936729 
2252.895529  	92.779704 
2253.859954  	92.725398 
2254.824378  	92.691927 
2255.788803  	92.727847 
2256.753227  	92.827290 
2257.717651  	92.810252 
2258.682076  	92.666944 
2259.646500  	92.710973 
2260.610925  	92.734189 
2261.575349  	92.636813 
2262.539774  	92.626891 
2263.504198  	92.633971 
2264.468623  	92.633197 
2265.433047  	92.715533 
2266.397472  	92.779711 
2267.361896  	92.760511 
2268.326321  	92.711507 
2269.290745  	92.563569 
2270.255169  	92.594203 
2271.219594  	92.733445 
2272.184018  	92.679018 
2273.148443  	92.585169 
2274.112867  	92.538510 
2275.077292  	92.529346 
2276.041716  	92.535743 
2277.006141  	92.570101 
2277.970565  	92.585528 
2278.934990  	92.544439 
2279.899414  	92.462499 
2280.863838  	92.430299 
2281.828263  	92.441431 
2282.792687  	92.419490 
2283.757112  	92.366594 
2284.721536  	92.312517 
2285.685961  	92.312048 
2286.650385  	92.365740 
2287.614810  	92.314276 
2288.579234  	92.265264 
2289.543659  	92.257029 
2290.508083  	92.359465 
2291.472507  	92.343724 
2292.436932  	92.364977 
2293.401356  	92.341841 
2294.365781  	92.254313 
2295.330205  	92.293535 
2296.294630  	92.260246 
2297.259054  	92.248912 
2298.223479  	92.148280 
2299.187903  	92.170936 
2300.152328  	92.201158 
2301.116752  	92.157745 
2302.081176  	92.225444 
2303.045601  	92.158529 
2304.010025  	92.190569 
2304.974450  	92.040414 
2305.938874  	92.058211 
2306.903299  	92.000549 
2307.867723  	92.072846 
2308.832148  	92.031653 
2309.796572  	92.063051 
2310.760997  	92.054862 
2311.725421  	92.090959 
2312.689845  	92.151284 
2313.654270  	92.141330 
2314.618694  	92.164999 
2315.583119  	92.295351 
2316.547543  	92.366876 
2317.511968  	92.424040 
2318.476392  	92.403168 
2319.440817  	92.399134 
2320.405241  	92.391348 
2321.369666  	92.480244 
2322.334090  	92.552308 
2323.298515  	92.604835 
2324.262939  	92.614123 
2325.227363  	92.973881 
2326.191788  	93.248889 
2327.156212  	93.344053 
2328.120637  	93.407701 
2329.085061  	93.550199 
2330.049486  	93.663617 
2331.013910  	93.686391 
2331.978335  	93.768613 
2332.942759  	93.968185 
2333.907184  	94.126423 
2334.871608  	94.240710 
2335.836032  	94.386951 
2336.800457  	94.458019 
2337.764881  	94.431375 
2338.729306  	94.366731 
2339.693730  	94.291191 
2340.658155  	94.414319 
2341.622579  	94.551529 
2342.587004  	94.466476 
2343.551428  	94.260257 
2344.515853  	93.930916 
2345.480277  	93.619013 
2346.444701  	93.378144 
2347.409126  	93.173174 
2348.373550  	92.772539 
2349.337975  	92.595264 
2350.302399  	92.904765 
2351.266824  	93.397105 
2352.231248  	93.897474 
2353.195673  	94.102206 
2354.160097  	94.218343 
2355.124522  	94.334741 
2356.088946  	94.590127 
2357.053370  	94.705931 
2358.017795  	94.836766 
2358.982219  	94.889527 
2359.946644  	95.073767 
2360.911068  	95.167852 
2361.875493  	95.042666 
2362.839917  	94.927296 
2363.804342  	94.841881 
2364.768766  	94.691939 
2365.733191  	94.700942 
2366.697615  	94.639566 
2367.662039  	94.369105 
2368.626464  	93.989522 
2369.590888  	93.613498 
2370.555313  	93.427588 
2371.519737  	93.238150 
2372.484162  	92.949974 
2373.448586  	92.856183 
2374.413011  	92.677687 
2375.377435  	92.421007 
2376.341860  	92.259491 
2377.306284  	92.156818 
2378.270708  	92.023108 
2379.235133  	91.867015 
2380.199557  	91.914151 
2381.163982  	91.984161 
2382.128406  	91.988382 
2383.092831  	92.036435 
2384.057255  	92.065898 
2385.021680  	92.119889 
2385.986104  	92.198591 
2386.950529  	92.266713 
2387.914953  	92.329730 
2388.879378  	92.338985 
2389.843802  	92.367781 
2390.808226  	92.381517 
2391.772651  	92.344662 
2392.737075  	92.349102 
2393.701500  	92.406289 
2394.665924  	92.436317 
2395.630349  	92.427700 
2396.594773  	92.367978 
2397.559198  	92.327226 
2398.523622  	92.379604 
2399.488047  	92.428525 
2400.452471  	92.369062 
2401.416895  	92.345816 
2402.381320  	92.384584 
2403.345744  	92.471969 
2404.310169  	92.532249 
2405.274593  	92.491935 
2406.239018  	92.415839 
2407.203442  	92.391548 
2408.167867  	92.396581 
2409.132291  	92.430726 
2410.096716  	92.373703 
2411.061140  	92.325808 
2412.025564  	92.383002 
2412.989989  	92.387429 
2413.954413  	92.411305 
2414.918838  	92.486081 
2415.883262  	92.455255 
2416.847687  	92.401105 
2417.812111  	92.423144 
2418.776536  	92.425264 
2419.740960  	92.407065 
2420.705385  	92.428596 
2421.669809  	92.457108 
2422.634233  	92.465893 
2423.598658  	92.386579 
2424.563082  	92.355220 
2425.527507  	92.481550 
2426.491931  	92.546891 
2427.456356  	92.466697 
2428.420780  	92.503118 
2429.385205  	92.532957 
2430.349629  	92.471899 
2431.314054  	92.456386 
2432.278478  	92.497724 
2433.242902  	92.487692 
2434.207327  	92.474124 
2435.171751  	92.480078 
2436.136176  	92.500575 
2437.100600  	92.516896 
2438.065025  	92.476163 
2439.029449  	92.521631 
2439.993874  	92.526725 
2440.958298  	92.503118 
2441.922723  	92.463882 
2442.887147  	92.403178 
2443.851572  	92.437035 
2444.815996  	92.516694 
2445.780420  	92.525246 
2446.744845  	92.455340 
2447.709269  	92.461606 
2448.673694  	92.476776 
2449.638118  	92.461871 
2450.602543  	92.429369 
2451.566967  	92.395811 
2452.531392  	92.384204 
2453.495816  	92.371800 
2454.460241  	92.398905 
2455.424665  	92.390454 
2456.389089  	92.367933 
2457.353514  	92.387451 
2458.317938  	92.399170 
2459.282363  	92.432843 
2460.246787  	92.446908 
2461.211212  	92.442089 
2462.175636  	92.459948 
2463.140061  	92.430952 
2464.104485  	92.409251 
2465.068910  	92.451460 
2466.033334  	92.469478 
2466.997758  	92.499463 
2467.962183  	92.522547 
2468.926607  	92.473095 
2469.891032  	92.426936 
2470.855456  	92.414084 
2471.819881  	92.434434 
2472.784305  	92.427686 
2473.748730  	92.423590 
2474.713154  	92.439707 
2475.677579  	92.431360 
2476.642003  	92.364218 
2477.606427  	92.326916 
2478.570852  	92.410496 
2479.535276  	92.435773 
2480.499701  	92.403611 
2481.464125  	92.402277 
2482.428550  	92.429166 
2483.392974  	92.426623 
2484.357399  	92.443791 
2485.321823  	92.386980 
2486.286248  	92.319011 
2487.250672  	92.333991 
2488.215096  	92.392525 
2489.179521  	92.362440 
2490.143945  	92.274131 
2491.108370  	92.242083 
2492.072794  	92.290421 
2493.037219  	92.337751 
2494.001643  	92.329389 
2494.966068  	92.360486 
2495.930492  	92.402054 
2496.894917  	92.341027 
2497.859341  	92.294533 
2498.823765  	92.282299 
2499.788190  	92.277970 
2500.752614  	92.277562 
2501.717039  	92.254947 
2502.681463  	92.287960 
2503.645888  	92.298983 
2504.610312  	92.215714 
2505.574737  	92.189038 
2506.539161  	92.206462 
2507.503586  	92.288343 
2508.468010  	92.364111 
2509.432435  	92.326325 
2510.396859  	92.284234 
2511.361283  	92.261688 
2512.325708  	92.222166 
2513.290132  	92.223255 
2514.254557  	92.273344 
2515.218981  	92.268218 
2516.183406  	92.222996 
2517.147830  	92.277839 
2518.112255  	92.243717 
2519.076679  	92.201296 
2520.041104  	92.215413 
2521.005528  	92.203963 
2521.969952  	92.143957 
2522.934377  	92.145087 
2523.898801  	92.205809 
2524.863226  	92.228552 
2525.827650  	92.204063 
2526.792075  	92.167073 
2527.756499  	92.135241 
2528.720924  	92.190721 
2529.685348  	92.170506 
2530.649773  	92.136910 
2531.614197  	92.163995 
2532.578621  	92.185423 
2533.543046  	92.175715 
2534.507470  	92.193579 
2535.471895  	92.212930 
2536.436319  	92.161528 
2537.400744  	92.184860 
2538.365168  	92.172112 
2539.329593  	92.157285 
2540.294017  	92.162462 
2541.258442  	92.145203 
2542.222866  	92.165834 
2543.187290  	92.153467 
2544.151715  	92.186560 
2545.116139  	92.222355 
2546.080564  	92.188220 
2547.044988  	92.107712 
2548.009413  	92.034028 
2548.973837  	92.077328 
2549.938262  	92.146023 
2550.902686  	92.142593 
2551.867111  	92.120846 
2552.831535  	92.058700 
2553.795959  	92.062918 
2554.760384  	92.138513 
2555.724808  	92.111028 
2556.689233  	92.037022 
2557.653657  	92.063871 
2558.618082  	92.090724 
2559.582506  	92.145459 
2560.546931  	92.152671 
2561.511355  	92.110888 
2562.475780  	92.048617 
2563.440204  	92.023613 
2564.404629  	92.056355 
2565.369053  	92.038795 
2566.333477  	92.082527 
2567.297902  	92.131224 
2568.262326  	92.109872 
2569.226751  	92.026603 
2570.191175  	92.009904 
2571.155600  	92.079091 
2572.120024  	92.105267 
2573.084449  	92.115081 
2574.048873  	92.050689 
2575.013298  	91.987668 
2575.977722  	92.036120 
2576.942146  	92.114875 
2577.906571  	92.153086 
2578.870995  	92.141346 
2579.835420  	92.075987 
2580.799844  	92.060528 
2581.764269  	92.021026 
2582.728693  	92.027966 
2583.693118  	92.035203 
2584.657542  	92.025363 
2585.621967  	92.068857 
2586.586391  	92.072803 
2587.550815  	92.076391 
2588.515240  	92.069333 
2589.479664  	92.033470 
2590.444089  	91.978228 
2591.408513  	91.984844 
2592.372938  	92.005316 
2593.337362  	91.980173 
2594.301787  	91.986898 
2595.266211  	92.015185 
2596.230636  	92.067210 
2597.195060  	92.097530 
2598.159484  	92.108861 
2599.123909  	92.129710 
2600.088333  	92.107727 
2601.052758  	92.019834 
2602.017182  	92.012798 
2602.981607  	92.018647 
2603.946031  	92.007778 
2604.910456  	92.058233 
2605.874880  	92.078608 
2606.839305  	92.062382 
2607.803729  	92.035226 
2608.768153  	92.032700 
2609.732578  	92.011474 
2610.697002  	91.971583 
2611.661427  	91.982073 
2612.625851  	91.995768 
2613.590276  	91.998633 
2614.554700  	91.971092 
2615.519125  	91.948943 
2616.483549  	91.994074 
2617.447974  	91.982062 
2618.412398  	91.976066 
2619.376822  	91.983011 
2620.341247  	91.971977 
2621.305671  	91.954933 
2622.270096  	91.920952 
2623.234520  	91.922541 
2624.198945  	91.935877 
2625.163369  	91.947203 
2626.127794  	91.928359 
2627.092218  	91.915257 
2628.056643  	91.893194 
2629.021067  	91.895251 
2629.985492  	91.948229 
2630.949916  	91.992127 
2631.914340  	91.962190 
2632.878765  	91.923981 
2633.843189  	91.918426 
2634.807614  	91.906076 
2635.772038  	91.915951 
2636.736463  	91.909958 
2637.700887  	91.898137 
2638.665312  	91.905782 
2639.629736  	91.908705 
2640.594161  	91.946888 
2641.558585  	91.985909 
2642.523009  	91.952451 
2643.487434  	91.947459 
2644.451858  	91.990576 
2645.416283  	91.970465 
2646.380707  	91.958742 
2647.345132  	91.966003 
2648.309556  	91.967912 
2649.273981  	91.974383 
2650.238405  	91.992295 
2651.202830  	92.000977 
2652.167254  	92.001479 
2653.131678  	91.990931 
2654.096103  	91.951425 
2655.060527  	91.947657 
2656.024952  	91.956199 
2656.989376  	91.961893 
2657.953801  	91.944774 
2658.918225  	91.937149 
2659.882650  	91.994874 
2660.847074  	92.015563 
2661.811499  	92.009337 
2662.775923  	91.995724 
2663.740347  	92.014016 
2664.704772  	92.016949 
2665.669196  	92.048189 
2666.633621  	92.050813 
2667.598045  	92.015997 
2668.562470  	92.020305 
2669.526894  	92.038630 
2670.491319  	92.002967 
2671.455743  	92.032791 
2672.420168  	92.043810 
2673.384592  	92.027473 
2674.349016  	92.020549 
2675.313441  	92.013419 
2676.277865  	91.994746 
2677.242290  	91.999395 
2678.206714  	92.016833 
2679.171139  	92.011355 
2680.135563  	91.994530 
2681.099988  	92.004303 
2682.064412  	92.020531 
2683.028837  	92.034099 
2683.993261  	92.021181 
2684.957686  	92.010994 
2685.922110  	92.004302 
2686.886534  	91.985926 
2687.850959  	91.985224 
2688.815383  	92.024856 
2689.779808  	92.058218 
2690.744232  	92.040552 
2691.708657  	92.020792 
2692.673081  	92.014671 
2693.637506  	91.981522 
2694.601930  	91.986209 
2695.566355  	92.017528 
2696.530779  	92.016668 
2697.495203  	91.984829 
2698.459628  	91.995438 
2699.424052  	92.007332 
2700.388477  	91.982787 
2701.352901  	91.944465 
2702.317326  	91.940110 
2703.281750  	91.958121 
2704.246175  	91.959286 
2705.210599  	91.937452 
2706.175024  	91.936098 
2707.139448  	91.953466 
2708.103872  	91.973239 
2709.068297  	91.985729 
2710.032721  	91.981447 
2710.997146  	91.954964 
2711.961570  	91.956628 
2712.925995  	91.977866 
2713.890419  	91.958025 
2714.854844  	91.940374 
2715.819268  	91.946249 
2716.783693  	91.949938 
2717.748117  	91.961186 
2718.712541  	91.942141 
2719.676966  	91.938505 
2720.641390  	91.953263 
2721.605815  	91.945965 
2722.570239  	91.927895 
2723.534664  	91.950525 
2724.499088  	91.950840 
2725.463513  	91.931717 
2726.427937  	91.915336 
2727.392362  	91.916850 
2728.356786  	91.894921 
2729.321210  	91.868787 
2730.285635  	91.874726 
2731.250059  	91.860235 
2732.214484  	91.835500 
2733.178908  	91.868596 
2734.143333  	91.888092 
2735.107757  	91.844769 
2736.072182  	91.861931 
2737.036606  	91.904082 
2738.001031  	91.890341 
2738.965455  	91.850622 
2739.929879  	91.831004 
2740.894304  	91.849229 
2741.858728  	91.854120 
2742.823153  	91.843694 
2743.787577  	91.832082 
2744.752002  	91.826859 
2745.716426  	91.809466 
2746.680851  	91.790513 
2747.645275  	91.798093 
2748.609700  	91.824378 
2749.574124  	91.835519 
2750.538549  	91.817232 
2751.502973  	91.784985 
2752.467397  	91.790050 
2753.431822  	91.796094 
2754.396246  	91.812768 
2755.360671  	91.835714 
2756.325095  	91.851340 
2757.289520  	91.815013 
2758.253944  	91.787761 
2759.218369  	91.810884 
2760.182793  	91.788105 
2761.147218  	91.756622 
2762.111642  	91.780121 
2763.076066  	91.811334 
2764.040491  	91.831937 
2765.004915  	91.816873 
2765.969340  	91.800414 
2766.933764  	91.795892 
2767.898189  	91.779276 
2768.862613  	91.769645 
2769.827038  	91.776311 
2770.791462  	91.778031 
2771.755887  	91.743191 
2772.720311  	91.726698 
2773.684735  	91.730295 
2774.649160  	91.719331 
2775.613584  	91.715749 
2776.578009  	91.734858 
2777.542433  	91.740605 
2778.506858  	91.735106 
2779.471282  	91.754923 
2780.435707  	91.740497 
2781.400131  	91.688632 
2782.364556  	91.665733 
2783.328980  	91.693633 
2784.293404  	91.709011 
2785.257829  	91.689799 
2786.222253  	91.687402 
2787.186678  	91.683339 
2788.151102  	91.647240 
2789.115527  	91.670119 
2790.079951  	91.680255 
2791.044376  	91.681039 
2792.008800  	91.672404 
2792.973225  	91.627763 
2793.937649  	91.613030 
2794.902073  	91.617782 
2795.866498  	91.615640 
2796.830922  	91.631286 
2797.795347  	91.617708 
2798.759771  	91.595699 
2799.724196  	91.563014 
2800.688620  	91.529352 
2801.653045  	91.527031 
2802.617469  	91.533343 
2803.581894  	91.563729 
2804.546318  	91.596089 
2805.510743  	91.579109 
2806.475167  	91.522085 
2807.439591  	91.508782 
2808.404016  	91.518497 
2809.368440  	91.538880 
2810.332865  	91.568105 
2811.297289  	91.572765 
2812.261714  	91.556576 
2813.226138  	91.538528 
2814.190563  	91.510567 
2815.154987  	91.538231 
2816.119412  	91.559043 
2817.083836  	91.550391 
2818.048260  	91.554391 
2819.012685  	91.537596 
2819.977109  	91.544512 
2820.941534  	91.547039 
2821.905958  	91.547880 
2822.870383  	91.527808 
2823.834807  	91.531734 
2824.799232  	91.527704 
2825.763656  	91.519788 
2826.728081  	91.495843 
2827.692505  	91.492473 
2828.656929  	91.511757 
2829.621354  	91.527246 
2830.585778  	91.504946 
2831.550203  	91.471705 
2832.514627  	91.431122 
2833.479052  	91.443003 
2834.443476  	91.461240 
2835.407901  	91.463700 
2836.372325  	91.445176 
2837.336750  	91.393626 
2838.301174  	91.344914 
2839.265598  	91.337349 
2840.230023  	91.350817 
2841.194447  	91.332319 
2842.158872  	91.252807 
2843.123296  	91.212978 
2844.087721  	91.166723 
2845.052145  	91.107220 
2846.016570  	91.059240 
2846.980994  	90.980242 
2847.945419  	90.897568 
2848.909843  	90.816004 
2849.874267  	90.761124 
2850.838692  	90.766380 
2851.803116  	90.793657 
2852.767541  	90.798406 
2853.731965  	90.816593 
2854.696390  	90.847815 
2855.660814  	90.888064 
2856.625239  	90.916369 
2857.589663  	90.933029 
2858.554088  	90.951180 
2859.518512  	90.945543 
2860.482936  	90.945079 
2861.447361  	90.956486 
2862.411785  	90.972561 
2863.376210  	90.957154 
2864.340634  	90.947841 
2865.305059  	90.951608 
2866.269483  	90.946557 
2867.233908  	90.924370 
2868.198332  	90.932668 
2869.162757  	90.935411 
2870.127181  	90.944385 
2871.091606  	90.901232 
2872.056030  	90.911436 
2873.020454  	90.937347 
2873.984879  	90.926133 
2874.949303  	90.890322 
2875.913728  	90.840293 
2876.878152  	90.822462 
2877.842577  	90.834905 
2878.807001  	90.839887 
2879.771426  	90.840038 
2880.735850  	90.779490 
2881.700275  	90.736139 
2882.664699  	90.748193 
2883.629123  	90.735123 
2884.593548  	90.729255 
2885.557972  	90.716772 
2886.522397  	90.681829 
2887.486821  	90.691350 
2888.451246  	90.661384 
2889.415670  	90.635155 
2890.380095  	90.631353 
2891.344519  	90.631497 
2892.308944  	90.654994 
2893.273368  	90.644503 
2894.237792  	90.622976 
2895.202217  	90.560129 
2896.166641  	90.522247 
2897.131066  	90.495967 
2898.095490  	90.457211 
2899.059915  	90.417776 
2900.024339  	90.344030 
2900.988764  	90.290235 
2901.953188  	90.274118 
2902.917613  	90.219203 
2903.882037  	90.134804 
2904.846461  	90.067525 
2905.810886  	90.023164 
2906.775310  	89.987095 
2907.739735  	89.947602 
2908.704159  	89.914551 
2909.668584  	89.938433 
2910.633008  	89.942831 
2911.597433  	89.963048 
2912.561857  	90.020923 
2913.526282  	90.073353 
2914.490706  	90.065506 
2915.455130  	90.029441 
2916.419555  	90.048694 
2917.383979  	90.083450 
2918.348404  	90.081932 
2919.312828  	90.101307 
2920.277253  	90.149311 
2921.241677  	90.196867 
2922.206102  	90.278403 
2923.170526  	90.304157 
2924.134951  	90.349193 
2925.099375  	90.404354 
2926.063800  	90.433888 
2927.028224  	90.491521 
2927.992648  	90.541275 
2928.957073  	90.572556 
2929.921497  	90.560129 
2930.885922  	90.586011 
2931.850346  	90.621513 
2932.814771  	90.614829 
2933.779195  	90.613495 
2934.743620  	90.617592 
2935.708044  	90.608704 
2936.672469  	90.595366 
2937.636893  	90.586921 
2938.601317  	90.581478 
2939.565742  	90.587405 
2940.530166  	90.556139 
2941.494591  	90.494657 
2942.459015  	90.442735 
2943.423440  	90.402128 
2944.387864  	90.354077 
2945.352289  	90.306775 
2946.316713  	90.293259 
2947.281138  	90.262823 
2948.245562  	90.193179 
2949.209986  	90.104214 
2950.174411  	90.046221 
2951.138835  	90.030559 
2952.103260  	89.986051 
2953.067684  	89.889525 
2954.032109  	89.818919 
2954.996533  	89.779515 
2955.960958  	89.726009 
2956.925382  	89.666825 
2957.889807  	89.611386 
2958.854231  	89.559583 
2959.818655  	89.504593 
2960.783080  	89.463486 
2961.747504  	89.435167 
2962.711929  	89.408382 
2963.676353  	89.352868 
2964.640778  	89.269614 
2965.605202  	89.176241 
2966.569627  	89.100149 
2967.534051  	89.143590 
2968.498476  	89.216323 
2969.462900  	89.192429 
2970.427324  	89.180557 
2971.391749  	89.185177 
2972.356173  	89.209550 
2973.320598  	89.320135 
2974.285022  	89.447641 
2975.249447  	89.521149 
2976.213871  	89.606373 
2977.178296  	89.660190 
2978.142720  	89.699450 
2979.107145  	89.787466 
2980.071569  	89.899842 
2981.035993  	89.968122 
2982.000418  	90.055305 
2982.964842  	90.158625 
2983.929267  	90.194800 
2984.893691  	90.250396 
2985.858116  	90.338386 
2986.822540  	90.397763 
2987.786965  	90.443033 
2988.751389  	90.455786 
2989.715814  	90.486404 
2990.680238  	90.573012 
2991.644663  	90.620906 
2992.609087  	90.624972 
2993.573511  	90.628890 
2994.537936  	90.633293 
2995.502360  	90.687814 
2996.466785  	90.711834 
2997.431209  	90.730488 
2998.395634  	90.759662 
2999.360058  	90.791099 
3000.324483  	90.785029 
3001.288907  	90.775119 
3002.253332  	90.776683 
3003.217756  	90.779432 
3004.182180  	90.724263 
3005.146605  	90.689074 
3006.111029  	90.779466 
3007.075454  	90.875444 
3008.039878  	90.910268 
3009.004303  	90.939384 
3009.968727  	90.906288 
3010.933152  	90.856210 
3011.897576  	90.843403 
3012.862001  	90.799204 
3013.826425  	90.873618 
3014.790849  	90.946240 
3015.755274  	90.934079 
3016.719698  	90.981577 
3017.684123  	91.088425 
3018.648547  	91.138624 
3019.612972  	91.158985 
3020.577396  	91.189619 
3021.541821  	91.228293 
3022.506245  	91.262025 
3023.470670  	91.292652 
3024.435094  	91.336056 
3025.399518  	91.345407 
3026.363943  	91.352596 
3027.328367  	91.405280 
3028.292792  	91.424951 
3029.257216  	91.430650 
3030.221641  	91.391346 
3031.186065  	91.257767 
3032.150490  	91.199920 
3033.114914  	91.295579 
3034.079339  	91.328350 
3035.043763  	91.306204 
3036.008187  	91.352257 
3036.972612  	91.394357 
3037.937036  	91.389874 
3038.901461  	91.386883 
3039.865885  	91.395864 
3040.830310  	91.419984 
3041.794734  	91.418645 
3042.759159  	91.400217 
3043.723583  	91.374672 
3044.688008  	91.334066 
3045.652432  	91.340765 
3046.616857  	91.316192 
3047.581281  	91.254509 
3048.545705  	91.160422 
3049.510130  	91.079112 
3050.474554  	91.064616 
3051.438979  	91.048346 
3052.403403  	91.038329 
3053.367828  	91.000953 
3054.332252  	90.950030 
3055.296677  	90.935467 
3056.261101  	90.843480 
3057.225526  	90.837750 
3058.189950  	90.975665 
3059.154374  	91.054684 
3060.118799  	91.065402 
3061.083223  	91.101135 
3062.047648  	91.163554 
3063.012072  	91.143720 
3063.976497  	91.029827 
3064.940921  	90.953493 
3065.905346  	91.012381 
3066.869770  	91.035622 
3067.834195  	91.021917 
3068.798619  	91.051378 
3069.763043  	91.112893 
3070.727468  	91.147890 
3071.691892  	91.148465 
3072.656317  	91.143945 
3073.620741  	91.151204 
3074.585166  	91.169993 
3075.549590  	91.184224 
3076.514015  	91.120270 
3077.478439  	91.068016 
3078.442864  	91.066614 
3079.407288  	91.041660 
3080.371712  	91.064575 
3081.336137  	91.127976 
3082.300561  	91.090987 
3083.264986  	91.141645 
3084.229410  	91.232290 
3085.193835  	91.185186 
3086.158259  	91.188474 
3087.122684  	91.194413 
3088.087108  	91.210317 
3089.051533  	91.231164 
3090.015957  	91.192023 
3090.980381  	91.220441 
3091.944806  	91.307073 
3092.909230  	91.330430 
3093.873655  	91.281674 
3094.838079  	91.263239 
3095.802504  	91.247117 
3096.766928  	91.229762 
3097.731353  	91.224041 
3098.695777  	91.222933 
3099.660202  	91.171483 
3100.624626  	91.133552 
3101.589050  	91.136101 
3102.553475  	91.146033 
3103.517899  	91.142410 
3104.482324  	91.203806 
3105.446748  	91.262978 
3106.411173  	91.237099 
3107.375597  	91.226261 
3108.340022  	91.237410 
3109.304446  	91.263006 
3110.268871  	91.247757 
3111.233295  	91.239473 
3112.197720  	91.232598 
3113.162144  	91.224523 
3114.126568  	91.276035 
3115.090993  	91.292025 
3116.055417  	91.201488 
3117.019842  	91.262401 
3117.984266  	91.298956 
3118.948691  	91.238878 
3119.913115  	91.331047 
3120.877540  	91.382508 
3121.841964  	91.275081 
3122.806389  	91.194325 
3123.770813  	91.252376 
3124.735237  	91.302274 
3125.699662  	91.288645 
3126.664086  	91.267441 
3127.628511  	91.324885 
3128.592935  	91.378073 
3129.557360  	91.379043 
3130.521784  	91.379453 
3131.486209  	91.356976 
3132.450633  	91.285617 
3133.415058  	91.232305 
3134.379482  	91.358843 
3135.343906  	91.452025 
3136.308331  	91.448358 
3137.272755  	91.394562 
3138.237180  	91.399467 
3139.201604  	91.439445 
3140.166029  	91.437933 
3141.130453  	91.451478 
3142.094878  	91.425016 
3143.059302  	91.396733 
3144.023727  	91.414100 
3144.988151  	91.405913 
3145.952575  	91.353365 
3146.917000  	91.359332 
3147.881424  	91.410790 
3148.845849  	91.438258 
3149.810273  	91.439618 
3150.774698  	91.424655 
3151.739122  	91.397190 
3152.703547  	91.379397 
3153.667971  	91.412264 
3154.632396  	91.440597 
3155.596820  	91.425961 
3156.561244  	91.349141 
3157.525669  	91.331928 
3158.490093  	91.370414 
3159.454518  	91.406669 
3160.418942  	91.422246 
3161.383367  	91.418853 
3162.347791  	91.387529 
3163.312216  	91.387488 
3164.276640  	91.408160 
3165.241065  	91.446400 
3166.205489  	91.452306 
3167.169914  	91.428990 
3168.134338  	91.400426 
3169.098762  	91.378416 
3170.063187  	91.342151 
3171.027611  	91.322098 
3171.992036  	91.329499 
3172.956460  	91.356820 
3173.920885  	91.354475 
3174.885309  	91.357549 
3175.849734  	91.357923 
3176.814158  	91.332155 
3177.778583  	91.228901 
3178.743007  	91.248632 
3179.707431  	91.342998 
3180.671856  	91.393024 
3181.636280  	91.419907 
3182.600705  	91.382360 
3183.565129  	91.345022 
3184.529554  	91.322445 
3185.493978  	91.285288 
3186.458403  	91.286152 
3187.422827  	91.276885 
3188.387252  	91.213106 
3189.351676  	91.251886 
3190.316100  	91.346108 
3191.280525  	91.391498 
3192.244949  	91.368070 
3193.209374  	91.344092 
3194.173798  	91.293667 
3195.138223  	91.268931 
3196.102647  	91.237380 
3197.067072  	91.188564 
3198.031496  	91.164371 
3198.995921  	91.218177 
3199.960345  	91.279388 
3200.924769  	91.341248 
3201.889194  	91.409950 
3202.853618  	91.386481 
3203.818043  	91.326641 
3204.782467  	91.305166 
3205.746892  	91.300482 
3206.711316  	91.258076 
3207.675741  	91.224354 
3208.640165  	91.233021 
3209.604590  	91.195383 
3210.569014  	91.159810 
3211.533438  	91.228443 
3212.497863  	91.285443 
3213.462287  	91.226689 
3214.426712  	91.133749 
3215.391136  	91.171672 
3216.355561  	91.246374 
3217.319985  	91.244805 
3218.284410  	91.227264 
3219.248834  	91.186037 
3220.213259  	91.200599 
3221.177683  	91.303562 
3222.142107  	91.291374 
3223.106532  	91.250749 
3224.070956  	91.215911 
3225.035381  	91.216887 
3225.999805  	91.245782 
3226.964230  	91.232003 
3227.928654  	91.195226 
3228.893079  	91.203985 
3229.857503  	91.198191 
3230.821928  	91.181364 
3231.786352  	91.208087 
3232.750777  	91.238718 
3233.715201  	91.229368 
3234.679625  	91.185595 
3235.644050  	91.146277 
3236.608474  	91.101391 
3237.572899  	91.128369 
3238.537323  	91.213329 
3239.501748  	91.223497 
3240.466172  	91.160499 
3241.430597  	91.191408 
3242.395021  	91.228441 
3243.359446  	91.202184 
3244.323870  	91.191118 
3245.288294  	91.108066 
3246.252719  	91.098523 
3247.217143  	91.172591 
3248.181568  	91.180749 
3249.145992  	91.128222 
3250.110417  	91.146013 
3251.074841  	91.197956 
3252.039266  	91.183061 
3253.003690  	91.152472 
3253.968115  	91.106523 
3254.932539  	91.066847 
3255.896963  	91.076172 
3256.861388  	91.088098 
3257.825812  	91.129838 
3258.790237  	91.098904 
3259.754661  	91.038608 
3260.719086  	91.031835 
3261.683510  	91.108597 
3262.647935  	91.149526 
3263.612359  	91.172061 
3264.576784  	91.147735 
3265.541208  	91.096139 
3266.505632  	91.068587 
3267.470057  	91.107884 
3268.434481  	91.135421 
3269.398906  	91.109715 
3270.363330  	91.054952 
3271.327755  	91.040051 
3272.292179  	91.021326 
3273.256604  	90.962195 
3274.221028  	90.942884 
3275.185453  	91.047408 
3276.149877  	91.035492 
3277.114301  	91.001912 
3278.078726  	91.056147 
3279.043150  	91.079507 
3280.007575  	91.013983 
3280.971999  	90.922131 
3281.936424  	90.959926 
3282.900848  	91.007983 
3283.865273  	90.973134 
3284.829697  	91.032014 
3285.794122  	91.038921 
3286.758546  	91.005574 
3287.722971  	91.030206 
3288.687395  	90.995961 
3289.651819  	90.983744 
3290.616244  	90.994288 
3291.580668  	90.920205 
3292.545093  	90.847917 
3293.509517  	90.891599 
3294.473942  	90.932988 
3295.438366  	90.941404 
3296.402791  	90.954426 
3297.367215  	90.957380 
3298.331640  	90.968786 
3299.296064  	91.012839 
3300.260488  	91.002820 
3301.224913  	90.986526 
3302.189337  	91.016501 
3303.153762  	91.033282 
3304.118186  	91.044128 
3305.082611  	91.048011 
3306.047035  	91.041870 
3307.011460  	91.073954 
3307.975884  	91.025066 
3308.940309  	90.909086 
3309.904733  	90.911630 
3310.869157  	90.931160 
3311.833582  	90.956896 
3312.798006  	90.979327 
3313.762431  	90.978116 
3314.726855  	91.033887 
3315.691280  	91.004703 
3316.655704  	90.975859 
3317.620129  	91.026224 
3318.584553  	91.015713 
3319.548978  	90.995367 
3320.513402  	91.012650 
3321.477826  	91.004240 
3322.442251  	90.982282 
3323.406675  	91.009359 
3324.371100  	90.988359 
3325.335524  	90.923130 
3326.299949  	90.964188 
3327.264373  	90.948407 
3328.228798  	90.917345 
3329.193222  	90.902800 
3330.157647  	90.890074 
3331.122071  	90.902481 
3332.086495  	90.989689 
3333.050920  	90.963340 
3334.015344  	90.889239 
3334.979769  	90.824844 
3335.944193  	90.860132 
3336.908618  	90.829322 
3337.873042  	90.876997 
3338.837467  	90.992650 
3339.801891  	90.963554 
3340.766316  	90.941846 
3341.730740  	90.897863 
3342.695164  	90.863461 
3343.659589  	90.986620 
3344.624013  	91.145391 
3345.588438  	91.162005 
3346.552862  	91.105550 
3347.517287  	91.022729 
3348.481711  	91.002423 
3349.446136  	91.020487 
3350.410560  	91.065189 
3351.374985  	91.175941 
3352.339409  	91.192351 
3353.303834  	91.104632 
3354.268258  	91.122589 
3355.232682  	91.041645 
3356.197107  	90.913595 
3357.161531  	90.962960 
3358.125956  	91.047217 
3359.090380  	91.036639 
3360.054805  	90.939313 
3361.019229  	90.921068 
3361.983654  	90.928689 
3362.948078  	90.965237 
3363.912503  	90.993399 
3364.876927  	90.953433 
3365.841351  	91.001662 
3366.805776  	91.015597 
3367.770200  	90.962759 
3368.734625  	90.987204 
3369.699049  	91.047495 
3370.663474  	91.108808 
3371.627898  	91.119098 
3372.592323  	91.083226 
3373.556747  	91.012410 
3374.521172  	91.038265 
3375.485596  	91.102863 
3376.450020  	91.063598 
3377.414445  	91.062567 
3378.378869  	91.089807 
3379.343294  	91.135475 
3380.307718  	91.145777 
3381.272143  	91.158814 
3382.236567  	91.124188 
3383.200992  	91.027723 
3384.165416  	90.908734 
3385.129841  	90.918294 
3386.094265  	91.000585 
3387.058689  	91.029702 
3388.023114  	91.100715 
3388.987538  	91.143233 
3389.951963  	91.043250 
3390.916387  	90.954780 
3391.880812  	90.896247 
3392.845236  	90.724889 
3393.809661  	90.797924 
3394.774085  	91.037506 
3395.738510  	91.054479 
3396.702934  	90.976304 
3397.667358  	90.800235 
3398.631783  	90.929394 
3399.596207  	91.133842 
3400.560632  	91.082107 
3401.525056  	90.959034 
3402.489481  	90.958992 
3403.453905  	90.902783 
3404.418330  	90.915274 
3405.382754  	90.955889 
3406.347179  	90.911747 
3407.311603  	90.869900 
3408.276028  	90.879191 
3409.240452  	90.816419 
3410.204876  	90.780102 
3411.169301  	90.924096 
3412.133725  	90.981290 
3413.098150  	90.973496 
3414.062574  	90.931115 
3415.026999  	90.843402 
3415.991423  	90.744270 
3416.955848  	90.762629 
3417.920272  	90.734303 
3418.884697  	90.658094 
3419.849121  	90.444803 
3420.813545  	90.153045 
3421.777970  	90.148849 
3422.742394  	90.263415 
3423.706819  	90.416835 
3424.671243  	90.551963 
3425.635668  	90.595240 
3426.600092  	90.536055 
3427.564517  	90.494038 
3428.528941  	90.551723 
3429.493366  	90.593897 
3430.457790  	90.527548 
3431.422214  	90.485355 
3432.386639  	90.531910 
3433.351063  	90.611183 
3434.315488  	90.691656 
3435.279912  	90.662885 
3436.244337  	90.619249 
3437.208761  	90.651432 
3438.173186  	90.710731 
3439.137610  	90.703983 
3440.102035  	90.683380 
3441.066459  	90.661397 
3442.030883  	90.581253 
3442.995308  	90.399987 
3443.959732  	90.550812 
3444.924157  	90.645963 
3445.888581  	90.608025 
3446.853006  	90.236487 
3447.817430  	89.924510 
3448.781855  	90.466266 
3449.746279  	90.786791 
3450.710704  	90.871641 
3451.675128  	90.869770 
3452.639552  	90.923692 
3453.603977  	90.928106 
3454.568401  	90.924000 
3455.532826  	90.884295 
3456.497250  	90.849165 
3457.461675  	90.843105 
3458.426099  	90.871746 
3459.390524  	90.846595 
3460.354948  	90.836742 
3461.319373  	90.758837 
3462.283797  	90.686977 
3463.248221  	90.644960 
3464.212646  	90.810829 
3465.177070  	90.942907 
3466.141495  	90.914554 
3467.105919  	90.726881 
3468.070344  	90.877197 
3469.034768  	91.070114 
3469.999193  	91.070840 
3470.963617  	90.966310 
3471.928042  	90.954512 
3472.892466  	91.032487 
3473.856891  	91.065902 
3474.821315  	90.923345 
3475.785739  	90.928026 
3476.750164  	91.026359 
3477.714588  	91.061620 
3478.679013  	91.104453 
3479.643437  	91.059106 
3480.607862  	90.732247 
3481.572286  	90.583401 
3482.536711  	90.486920 
3483.501135  	90.748394 
3484.465560  	90.991251 
3485.429984  	90.924750 
3486.394408  	90.939361 
3487.358833  	90.936702 
3488.323257  	90.637741 
3489.287682  	90.741276 
3490.252106  	91.081489 
3491.216531  	91.071109 
3492.180955  	91.057406 
3493.145380  	91.150237 
3494.109804  	91.166215 
3495.074229  	91.017008 
3496.038653  	90.795774 
3497.003077  	90.710644 
3497.967502  	90.910581 
3498.931926  	91.054742 
3499.896351  	90.951183 
3500.860775  	90.824482 
3501.825200  	90.467140 
3502.789624  	90.038275 
3503.754049  	89.999113 
3504.718473  	90.369267 
3505.682898  	90.677981 
3506.647322  	90.953705 
3507.611746  	91.087771 
3508.576171  	90.835355 
3509.540595  	90.106673 
3510.505020  	90.207714 
3511.469444  	90.729359 
3512.433869  	90.859976 
3513.398293  	90.872057 
3514.362718  	91.018440 
3515.327142  	91.205719 
3516.291567  	91.143293 
3517.255991  	90.922879 
3518.220415  	90.861288 
3519.184840  	90.906872 
3520.149264  	90.980669 
3521.113689  	91.072096 
3522.078113  	90.876025 
3523.042538  	90.074160 
3524.006962  	89.619192 
3524.971387  	89.979276 
3525.935811  	90.212515 
3526.900236  	90.099411 
3527.864660  	89.906146 
3528.829085  	89.993940 
3529.793509  	90.222231 
3530.757933  	90.489784 
3531.722358  	90.507909 
3532.686782  	90.819136 
3533.651207  	91.085710 
3534.615631  	91.104422 
3535.580056  	90.800978 
3536.544480  	90.119666 
3537.508905  	90.242885 
3538.473329  	90.837152 
3539.437754  	90.909896 
3540.402178  	90.927765 
3541.366602  	90.923788 
3542.331027  	90.918480 
3543.295451  	90.590265 
3544.259876  	90.100502 
3545.224300  	89.249476 
3546.188725  	89.075665 
3547.153149  	89.160299 
3548.117574  	89.587348 
3549.081998  	90.477323 
3550.046423  	90.807652 
3551.010847  	90.714620 
3551.975271  	90.129890 
3552.939696  	89.832165 
3553.904120  	90.151108 
3554.868545  	90.562154 
3555.832969  	90.970747 
3556.797394  	90.913508 
3557.761818  	90.918208 
3558.726243  	91.033623 
3559.690667  	90.599844 
3560.655092  	90.052153 
3561.619516  	90.408219 
3562.583940  	90.413345 
3563.548365  	90.317014 
3564.512789  	90.310909 
3565.477214  	89.530399 
3566.441638  	87.297223 
3567.406063  	87.099502 
3568.370487  	87.569015 
3569.334912  	89.105035 
3570.299336  	90.335902 
3571.263761  	90.502889 
3572.228185  	90.823584 
3573.192609  	90.933787 
3574.157034  	90.883320 
3575.121458  	90.822002 
3576.085883  	90.910559 
3577.050307  	90.748951 
3578.014732  	90.733736 
3578.979156  	90.824457 
3579.943581  	90.473497 
3580.908005  	90.447284 
3581.872430  	90.850854 
3582.836854  	90.847263 
3583.801278  	90.651808 
3584.765703  	90.633557 
3585.730127  	90.310522 
3586.694552  	88.634050 
3587.658976  	87.521500 
3588.623401  	87.951624 
3589.587825  	89.101558 
3590.552250  	90.502261 
3591.516674  	90.952894 
3592.481099  	90.844524 
3593.445523  	90.048842 
3594.409948  	90.025207 
3595.374372  	89.703437 
3596.338796  	89.533804 
3597.303221  	90.421651 
3598.267645  	90.474999 
3599.232070  	90.098372 
3600.196494  	90.164370 
3601.160919  	89.877895 
3602.125343  	90.211584 
3603.089768  	90.557914 
3604.054192  	90.867730 
3605.018617  	91.056852 
3605.983041  	90.893136 
3606.947465  	89.726957 
3607.911890  	89.086856 
3608.876314  	89.411641 
3609.840739  	89.131775 
3610.805163  	90.137698 
3611.769588  	90.224391 
3612.734012  	88.874555 
3613.698437  	88.850694 
3614.662861  	89.142860 
3615.627286  	89.256533 
3616.591710  	90.307901 
3617.556134  	89.814105 
3618.520559  	88.833878 
3619.484983  	88.723712 
3620.449408  	88.779007 
3621.413832  	89.536297 
3622.378257  	90.310133 
3623.342681  	90.767417 
3624.307106  	90.954949 
3625.271530  	90.921507 
3626.235955  	90.331400 
3627.200379  	89.996243 
3628.164803  	89.096170 
3629.129228  	86.348724 
3630.093652  	87.000636 
3631.058077  	89.389108 
3632.022501  	90.351066 
3632.986926  	90.453319 
3633.951350  	89.774788 
3634.915775  	90.113912 
3635.880199  	90.856899 
3636.844624  	91.000974 
3637.809048  	90.841701 
3638.773472  	90.727160 
3639.737897  	90.949985 
3640.702321  	91.017474 
3641.666746  	90.719650 
3642.631170  	90.307903 
3643.595595  	90.553567 
3644.560019  	90.938388 
3645.524444  	90.671903 
3646.488868  	89.560475 
3647.453293  	87.673866 
3648.417717  	87.768198 
3649.382142  	87.655529 
3650.346566  	86.782047 
3651.310990  	86.982073 
3652.275415  	89.185842 
3653.239839  	90.620224 
3654.204264  	91.003586 
3655.168688  	90.869990 
3656.133113  	89.923259 
3657.097537  	89.560665 
3658.061962  	90.729182 
3659.026386  	91.094673 
3659.990811  	90.975345 
3660.955235  	91.079679 
3661.919659  	91.334701 
3662.884084  	91.389029 
3663.848508  	91.393937 
3664.812933  	91.356803 
3665.777357  	91.374168 
3666.741782  	91.380581 
3667.706206  	91.272451 
3668.670631  	90.331911 
3669.635055  	89.027322 
3670.599480  	88.400268 
3671.563904  	88.942038 
3672.528328  	90.487341 
3673.492753  	90.798886 
3674.457177  	89.657319 
3675.421602  	86.840268 
3676.386026  	87.260821 
3677.350451  	89.182036 
3678.314875  	90.021162 
3679.279300  	90.053181 
3680.243724  	90.113041 
3681.208149  	90.977693 
3682.172573  	91.408070 
3683.136997  	91.456679 
3684.101422  	91.317889 
3685.065846  	91.212712 
3686.030271  	91.300312 
3686.994695  	91.140608 
3687.959120  	90.418447 
3688.923544  	89.242869 
3689.887969  	89.648979 
3690.852393  	89.174103 
3691.816818  	88.964025 
3692.781242  	90.569887 
3693.745666  	91.097725 
3694.710091  	91.211418 
3695.674515  	91.328507 
3696.638940  	91.224771 
3697.603364  	91.332778 
3698.567789  	91.577853 
3699.532213  	91.499777 
3700.496638  	91.451020 
3701.461062  	90.730738 
3702.425487  	90.095035 
3703.389911  	91.027466 
3704.354335  	91.506592 
3705.318760  	91.404611 
3706.283184  	91.374816 
3707.247609  	91.454113 
3708.212033  	91.408681 
3709.176458  	90.764067 
3710.140882  	89.980735 
3711.105307  	89.731947 
3712.069731  	88.820645 
3713.034156  	88.956400 
3713.998580  	90.392056 
3714.963005  	90.487681 
3715.927429  	90.725996 
3716.891853  	91.379625 
3717.856278  	91.487152 
3718.820702  	90.816786 
3719.785127  	90.475873 
3720.749551  	91.079114 
3721.713976  	90.684527 
3722.678400  	89.342854 
3723.642825  	89.953388 
3724.607249  	90.413155 
3725.571674  	89.721174 
3726.536098  	89.426350 
3727.500522  	89.747771 
3728.464947  	90.778191 
3729.429371  	91.388318 
3730.393796  	91.287864 
3731.358220  	90.867443 
3732.322645  	89.968342 
3733.287069  	90.061814 
3734.251494  	89.540552 
3735.215918  	86.303505 
3736.180343  	86.459958 
3737.144767  	88.270479 
3738.109191  	89.346307 
3739.073616  	89.800546 
3740.038040  	90.410026 
3741.002465  	90.068804 
3741.966889  	90.109398 
3742.931314  	90.669398 
3743.895738  	89.880227 
3744.860163  	86.642361 
3745.824587  	88.486937 
3746.789012  	89.760257 
3747.753436  	89.827639 
3748.717860  	89.637812 
3749.682285  	89.025054 
3750.646709  	88.793704 
3751.611134  	88.620813 
3752.575558  	87.517651 
3753.539983  	89.044350 
3754.504407  	90.243265 
3755.468832  	90.860591 
3756.433256  	90.556536 
3757.397681  	90.478593 
3758.362105  	90.735890 
3759.326529  	89.863568 
3760.290954  	89.406032 
3761.255378  	90.853170 
3762.219803  	91.297744 
3763.184227  	91.316908 
3764.148652  	91.307185 
3765.113076  	90.938084 
3766.077501  	90.071730 
3767.041925  	90.677258 
3768.006350  	91.307023 
3768.970774  	91.083752 
3769.935199  	90.062352 
3770.899623  	90.074590 
3771.864047  	90.949088 
3772.828472  	91.339805 
3773.792896  	91.423078 
3774.757321  	91.562828 
3775.721745  	91.717158 
3776.686170  	91.767561 
3777.650594  	91.608060 
3778.615019  	91.156236 
3779.579443  	90.302597 
3780.543868  	90.393628 
3781.508292  	91.258448 
3782.472716  	91.406812 
3783.437141  	91.448122 
3784.401565  	91.082640 
3785.365990  	90.602386 
3786.330414  	90.974029 
3787.294839  	91.376110 
3788.259263  	91.611389 
3789.223688  	91.633883 
3790.188112  	91.607775 
3791.152537  	91.673897 
3792.116961  	91.669733 
3793.081385  	91.700991 
3794.045810  	91.731357 
3795.010234  	91.574711 
3795.974659  	91.029283 
3796.939083  	90.135765 
3797.903508  	90.382695 
3798.867932  	90.968965 
3799.832357  	91.043286 
3800.796781  	90.064358 
3801.761206  	88.566207 
3802.725630  	89.113515 
3803.690054  	90.236909 
3804.654479  	91.134792 
3805.618903  	91.251880 
3806.583328  	90.643203 
3807.547752  	89.891104 
3808.512177  	90.788059 
3809.476601  	91.322530 
3810.441026  	91.423872 
3811.405450  	91.526611 
3812.369875  	91.635662 
3813.334299  	91.677489 
3814.298723  	91.550042 
3815.263148  	90.982844 
3816.227572  	89.562574 
3817.191997  	89.866825 
3818.156421  	90.820328 
3819.120846  	90.788458 
3820.085270  	90.075291 
3821.049695  	88.480885 
3822.014119  	88.232038 
3822.978544  	89.973223 
3823.942968  	90.677423 
3824.907392  	90.914436 
3825.871817  	90.844453 
3826.836241  	90.284814 
3827.800666  	90.409727 
3828.765090  	91.079954 
3829.729515  	91.412598 
3830.693939  	91.333796 
3831.658364  	90.561599 
3832.622788  	90.450221 
3833.587213  	91.124480 
3834.551637  	90.796464 
3835.516062  	90.079092 
3836.480486  	90.629969 
3837.444910  	90.292370 
3838.409335  	88.981811 
3839.373759  	89.365690 
3840.338184  	88.967444 
3841.302608  	89.029722 
3842.267033  	90.433925 
3843.231457  	90.584459 
3844.195882  	89.755278 
3845.160306  	90.597902 
3846.124731  	91.306816 
3847.089155  	91.454767 
3848.053579  	91.498118 
3849.018004  	91.282887 
3849.982428  	90.717194 
3850.946853  	90.664762 
3851.911277  	89.866293 
3852.875702  	88.129628 
3853.840126  	87.449269 
3854.804551  	87.718725 
3855.768975  	89.802336 
3856.733400  	90.139401 
3857.697824  	89.694366 
3858.662248  	90.650767 
3859.626673  	91.385902 
3860.591097  	91.399699 
3861.555522  	90.731160 
3862.519946  	90.091943 
3863.484371  	90.469236 
3864.448795  	89.802780 
3865.413220  	88.653533 
3866.377644  	90.004068 
3867.342069  	91.116249 
3868.306493  	91.085680 
3869.270917  	89.760570 
3870.235342  	87.597870 
3871.199766  	88.894072 
3872.164191  	90.325761 
3873.128615  	90.741013 
3874.093040  	89.490535 
3875.057464  	89.407398 
3876.021889  	91.079555 
3876.986313  	91.542077 
3877.950738  	91.549891 
3878.915162  	91.415014 
3879.879586  	90.437652 
3880.844011  	88.569441 
3881.808435  	89.728960 
3882.772860  	90.767629 
3883.737284  	90.492595 
3884.701709  	90.409551 
3885.666133  	89.637274 
3886.630558  	89.213652 
3887.594982  	90.823410 
3888.559407  	91.428039 
3889.523831  	91.421849 
3890.488256  	91.008147 
3891.452680  	89.753691 
3892.417104  	89.624048 
3893.381529  	90.650601 
3894.345953  	90.606355 
3895.310378  	90.916686 
3896.274802  	91.475946 
3897.239227  	91.459376 
3898.203651  	90.748033 
3899.168076  	89.636679 
3900.132500  	89.438356 
3901.096925  	90.247783 
3902.061349  	89.085575 
3903.025773  	88.957930 
3903.990198  	89.439175 
3904.954622  	88.957167 
3905.919047  	89.290174 
3906.883471  	90.192762 
3907.847896  	91.275084 
3908.812320  	91.621771 
3909.776745  	91.638702 
3910.741169  	91.635470 
3911.705594  	91.646754 
3912.670018  	91.597701 
3913.634442  	91.597161 
3914.598867  	91.616816 
3915.563291  	91.445992 
3916.527716  	90.501568 
3917.492140  	89.647757 
3918.456565  	90.560770 
3919.420989  	90.945884 
3920.385414  	90.251932 
3921.349838  	90.701211 
3922.314263  	91.434373 
3923.278687  	91.144084 
3924.243111  	90.256106 
3925.207536  	89.732447 
3926.171960  	90.556035 
3927.136385  	91.473857 
3928.100809  	91.505362 
3929.065234  	91.251677 
3930.029658  	90.887467 
3930.994083  	90.653564 
3931.958507  	90.249614 
3932.922932  	89.827903 
3933.887356  	90.632222 
3934.851780  	91.149622 
3935.816205  	91.469139 
3936.780629  	91.610817 
3937.745054  	91.531677 
3938.709478  	91.309843 
3939.673903  	91.447026 
3940.638327  	91.532862 
3941.602752  	91.381259 
3942.567176  	90.481280 
3943.531601  	89.943684 
3944.496025  	90.805452 
3945.460449  	91.289223 
3946.424874  	91.396110 
3947.389298  	90.811922 
3948.353723  	90.382126 
3949.318147  	90.661766 
3950.282572  	90.409624 
3951.246996  	90.822895 
3952.211421  	91.437367 
3953.175845  	91.346385 
3954.140270  	91.422594 
3955.104694  	91.548028 
3956.069119  	91.481615 
3957.033543  	91.317339 
3957.997967  	91.330015 
3958.962392  	91.441981 
3959.926816  	91.460392 
3960.891241  	91.381323 
3961.855665  	90.958218 
3962.820090  	90.915725 
3963.784514  	91.445505 
3964.748939  	91.546756 
3965.713363  	91.572182 
3966.677788  	91.628483 
3967.642212  	91.638124 
3968.606636  	91.444494 
3969.571061  	91.222101 
3970.535485  	91.373078 
3971.499910  	91.479358 
3972.464334  	91.295760 
3973.428759  	91.400277 
3974.393183  	91.504710 
3975.357608  	91.347513 
3976.322032  	91.202540 
3977.286457  	91.383990 
3978.250881  	91.649922 
3979.215305  	91.680193 
3980.179730  	91.599339 
3981.144154  	91.545080 
3982.108579  	91.463186 
3983.073003  	91.500186 
3984.037428  	91.660734 
3985.001852  	91.669161 
3985.966277  	91.598911 
3986.930701  	91.628019 
3987.895126  	91.681147 
3988.859550  	91.663992 
3989.823974  	91.551242 
3990.788399  	91.316171 
3991.752823  	91.375511 
3992.717248  	91.539749 
3993.681672  	91.556420 
3994.646097  	91.479860 
3995.610521  	91.400564 
3996.574946  	91.584008 
3997.539370  	91.697061 
3998.503795  	91.676004 
3999.468219  	91.632537 
4000.432643  	91.703815 
4001.397068  	91.668909 
4002.361492  	91.638374 
4003.325917  	91.645097 
4004.290341  	91.655992 
4005.254766  	91.653321 
4006.219190  	91.662884 
4007.183615  	91.661857 
4008.148039  	91.566615 
4009.112464  	91.408247 
4010.076888  	91.534733 
4011.041313  	91.625341 
4012.005737  	91.652828 
4012.970161  	91.600844 
4013.934586  	91.589704 
4014.899010  	91.609718 
4015.863435  	91.603098 
4016.827859  	91.600589 
4017.792284  	91.621277 
4018.756708  	91.665543 
4019.721133  	91.613219 
4020.685557  	91.561511 
4021.649982  	91.594573 
4022.614406  	91.643704 
4023.578830  	91.641055 
4024.543255  	91.566960 
4025.507679  	91.512363 
4026.472104  	91.575849 
4027.436528  	91.658966 
4028.400953  	91.608190 
4029.365377  	91.582803 
4030.329802  	91.619631 
4031.294226  	91.622698 
4032.258651  	91.605625 
4033.223075  	91.685558 
4034.187499  	91.720753 
4035.151924  	91.633383 
4036.116348  	91.604133 
4037.080773  	91.627086 
4038.045197  	91.661140 
4039.009622  	91.660091 
4039.974046  	91.624658 
4040.938471  	91.641525 
4041.902895  	91.629320 
4042.867320  	91.645708 
4043.831744  	91.561754 
4044.796168  	91.440543 
4045.760593  	91.454287 
4046.725017  	91.577398 
4047.689442  	91.614670 
4048.653866  	91.636200 
4049.618291  	91.629611 
4050.582715  	91.628475 
4051.547140  	91.630985 
4052.511564  	91.603774 
4053.475989  	91.586131 
4054.440413  	91.619476 
4055.404837  	91.611617 
4056.369262  	91.619728 
4057.333686  	91.680497 
4058.298111  	91.709408 
4059.262535  	91.640444 
4060.226960  	91.605983 
4061.191384  	91.603803 
4062.155809  	91.621904 
4063.120233  	91.624404 
4064.084658  	91.628645 
4065.049082  	91.655988 
4066.013506  	91.677107 
4066.977931  	91.643529 
4067.942355  	91.612472 
4068.906780  	91.613697 
4069.871204  	91.640349 
4070.835629  	91.613340 
4071.800053  	91.607500 
4072.764478  	91.564631 
4073.728902  	91.498686 
4074.693327  	91.524408 
4075.657751  	91.598568 
4076.622176  	91.600961 
4077.586600  	91.625747 
4078.551024  	91.570616 
4079.515449  	91.482922 
4080.479873  	91.526534 
4081.444298  	91.554193 
4082.408722  	91.510233 
4083.373147  	91.515628 
4084.337571  	91.532072 
4085.301996  	91.531739 
4086.266420  	91.493000 
4087.230845  	91.461575 
4088.195269  	91.413092 
4089.159693  	91.446929 
4090.124118  	91.550777 
4091.088542  	91.562967 
4092.052967  	91.569392 
4093.017391  	91.599683 
4093.981816  	91.566640 
4094.946240  	91.541809 
4095.910665  	91.559861 
4096.875089  	91.625371 
4097.839514  	91.571923 
4098.803938  	91.506061 
4099.768362  	91.559921 
4100.732787  	91.609814 
4101.697211  	91.597010 
4102.661636  	91.588504 
4103.626060  	91.609753 
4104.590485  	91.574939 
4105.554909  	91.516762 
4106.519334  	91.482458 
4107.483758  	91.474851 
4108.448183  	91.537239 
4109.412607  	91.590464 
4110.377031  	91.579159 
4111.341456  	91.595469 
4112.305880  	91.599697 
4113.270305  	91.585097 
4114.234729  	91.598282 
4115.199154  	91.663266 
4116.163578  	91.655031 
4117.128003  	91.570041 
4118.092427  	91.562812 
4119.056852  	91.599700 
4120.021276  	91.562990 
4120.985700  	91.537314 
4121.950125  	91.594899 
4122.914549  	91.578668 
4123.878974  	91.537645 
4124.843398  	91.577278 
4125.807823  	91.649060 
4126.772247  	91.638431 
4127.736672  	91.600378 
4128.701096  	91.596749 
4129.665521  	91.607983 
4130.629945  	91.610073 
4131.594370  	91.627540 
4132.558794  	91.619006 
4133.523218  	91.586377 
4134.487643  	91.598844 
4135.452067  	91.627795 
4136.416492  	91.651686 
4137.380916  	91.673041 
4138.345341  	91.632504 
4139.309765  	91.558680 
4140.274190  	91.581528 
4141.238614  	91.625159 
4142.203039  	91.606012 
4143.167463  	91.662670 
4144.131887  	91.641304 
4145.096312  	91.625894 
4146.060736  	91.618984 
4147.025161  	91.601932 
4147.989585  	91.625383 
4148.954010  	91.614859 
4149.918434  	91.630022 
4150.882859  	91.711614 
4151.847283  	91.732304 
4152.811708  	91.650151 
4153.776132  	91.590514 
4154.740556  	91.623574 
4155.704981  	91.621795 
4156.669405  	91.619707 
4157.633830  	91.626159 
4158.598254  	91.643519 
4159.562679  	91.663981 
4160.527103  	91.626333 
4161.491528  	91.604147 
4162.455952  	91.636383 
4163.420377  	91.676685 
4164.384801  	91.671563 
4165.349225  	91.646361 
4166.313650  	91.627926 
4167.278074  	91.588908 
4168.242499  	91.568018 
4169.206923  	91.597339 
4170.171348  	91.640625 
4171.135772  	91.655083 
4172.100197  	91.615018 
4173.064621  	91.598247 
4174.029046  	91.634891 
4174.993470  	91.607129 
4175.957894  	91.612578 
4176.922319  	91.645552 
4177.886743  	91.640295 
4178.851168  	91.611329 
4179.815592  	91.562338 
4180.780017  	91.539213 
4181.744441  	91.595167 
4182.708866  	91.620960 
4183.673290  	91.608203 
4184.637715  	91.587697 
4185.602139  	91.605158 
4186.566563  	91.582084 
4187.530988  	91.574716 
4188.495412  	91.576289 
4189.459837  	91.608894 
4190.424261  	91.629924 
4191.388686  	91.653951 
4192.353110  	91.661391 
4193.317535  	91.626981 
4194.281959  	91.581741 
4195.246384  	91.601418 
4196.210808  	91.639575 
4197.175233  	91.663250 
4198.139657  	91.668276 
4199.104081  	91.659570 
4200.068506  	91.631013 
4201.032930  	91.613676 
4201.997355  	91.641014 
4202.961779  	91.651544 
4203.926204  	91.621461 
4204.890628  	91.632887 
4205.855053  	91.634287 
4206.819477  	91.609428 
4207.783902  	91.634946 
4208.748326  	91.641446 
4209.712750  	91.654776 
4210.677175  	91.685136 
4211.641599  	91.677613 
4212.606024  	91.649419 
4213.570448  	91.658439 
4214.534873  	91.699392 
4215.499297  	91.621043 
4216.463722  	91.575769 
4217.428146  	91.544440 
4218.392571  	91.511524 
4219.356995  	91.555270 
4220.321419  	91.649822 
4221.285844  	91.652228 
4222.250268  	91.620522 
4223.214693  	91.546706 
4224.179117  	91.520059 
4225.143542  	91.558632 
4226.107966  	91.632686 
4227.072391  	91.710671 
4228.036815  	91.626330 
4229.001240  	91.540392 
4229.965664  	91.576816 
4230.930088  	91.604372 
4231.894513  	91.665025 
4232.858937  	91.662939 
4233.823362  	91.663398 
4234.787786  	91.622179 
4235.752211  	91.590295 
4236.716635  	91.626713 
4237.681060  	91.644390 
4238.645484  	91.596029 
4239.609909  	91.589744 
4240.574333  	91.610682 
4241.538757  	91.668962 
4242.503182  	91.722262 
4243.467606  	91.689770 
4244.432031  	91.598401 
4245.396455  	91.573750 
4246.360880  	91.635507 
4247.325304  	91.641193 
4248.289729  	91.617512 
4249.254153  	91.639838 
4250.218578  	91.703470 
4251.183002  	91.718151 
4252.147427  	91.675910 
4253.111851  	91.612644 
4254.076275  	91.544326 
4255.040700  	91.575773 
4256.005124  	91.613712 
4256.969549  	91.677624 
4257.933973  	91.664216 
4258.898398  	91.624894 
4259.862822  	91.615886 
4260.827247  	91.592431 
4261.791671  	91.566418 
4262.756096  	91.600183 
4263.720520  	91.585022 
4264.684944  	91.569453 
4265.649369  	91.544360 
4266.613793  	91.612917 
4267.578218  	91.644037 
4268.542642  	91.662853 
4269.507067  	91.655578 
4270.471491  	91.606182 
4271.435916  	91.613919 
4272.400340  	91.606061 
4273.364765  	91.583602 
4274.329189  	91.576189 
4275.293613  	91.601515 
4276.258038  	91.642868 
4277.222462  	91.634818 
4278.186887  	91.569230 
4279.151311  	91.499307 
4280.115736  	91.464123 
4281.080160  	91.530708 
4282.044585  	91.574577 
4283.009009  	91.550311 
4283.973434  	91.554771 
4284.937858  	91.563792 
4285.902282  	91.532432 
4286.866707  	91.538775 
4287.831131  	91.629841 
4288.795556  	91.664532 
4289.759980  	91.598958 
4290.724405  	91.557494 
4291.688829  	91.603992 
4292.653254  	91.592923 
4293.617678  	91.631293 
4294.582103  	91.659739 
4295.546527  	91.670170 
4296.510951  	91.652470 
4297.475376  	91.608442 
4298.439800  	91.559980 
4299.404225  	91.577469 
4300.368649  	91.617488 
4301.333074  	91.598109 
4302.297498  	91.483427 
4303.261923  	91.484682 
4304.226347  	91.614695 
4305.190772  	91.709344 
4306.155196  	91.690130 
4307.119620  	91.691308 
4308.084045  	91.632204 
4309.048469  	91.639033 
4310.012894  	91.626400 
4310.977318  	91.605739 
4311.941743  	91.603556 
4312.906167  	91.602884 
4313.870592  	91.599931 
4314.835016  	91.604083 
4315.799441  	91.581758 
4316.763865  	91.553158 
4317.728290  	91.612987 
4318.692714  	91.687162 
4319.657138  	91.655224 
4320.621563  	91.623500 
4321.585987  	91.613619 
4322.550412  	91.596658 
4323.514836  	91.547253 
4324.479261  	91.587898 
4325.443685  	91.630413 
4326.408110  	91.663162 
4327.372534  	91.685096 
4328.336959  	91.604849 
4329.301383  	91.588453 
4330.265807  	91.668509 
4331.230232  	91.702989 
4332.194656  	91.643449 
4333.159081  	91.647538 
4334.123505  	91.663654 
4335.087930  	91.598056 
4336.052354  	91.573982 
4337.016779  	91.597228 
4337.981203  	91.656358 
4338.945628  	91.661232 
4339.910052  	91.634002 
4340.874476  	91.614396 
4341.838901  	91.638768 
4342.803325  	91.614626 
4343.767750  	91.603585 
4344.732174  	91.610756 
4345.696599  	91.577155 
4346.661023  	91.583152 
4347.625448  	91.576182 
4348.589872  	91.538063 
4349.554297  	91.586373 
4350.518721  	91.661557 
4351.483145  	91.671560 
4352.447570  	91.600412 
4353.411994  	91.616147 
4354.376419  	91.596376 
4355.340843  	91.608128 
4356.305268  	91.689610 
4357.269692  	91.679810 
4358.234117  	91.620959 
4359.198541  	91.610956 
4360.162966  	91.630663 
4361.127390  	91.585166 
4362.091814  	91.599137 
4363.056239  	91.621775 
4364.020663  	91.635345 
4364.985088  	91.628387 
4365.949512  	91.583436 
4366.913937  	91.597131 
4367.878361  	91.587736 
4368.842786  	91.631199 
4369.807210  	91.667934 
4370.771635  	91.594276 
4371.736059  	91.526414 
4372.700484  	91.589526 
4373.664908  	91.643230 
4374.629332  	91.666101 
4375.593757  	91.647528 
4376.558181  	91.673245 
4377.522606  	91.635533 
4378.487030  	91.554000 
4379.451455  	91.536236 
4380.415879  	91.560670 
4381.380304  	91.601864 
4382.344728  	91.649200 
4383.309153  	91.640295 
4384.273577  	91.642488 
4385.238001  	91.628202 
4386.202426  	91.594632 
4387.166850  	91.592759 
4388.131275  	91.642476 
4389.095699  	91.595251 
4390.060124  	91.572367 
4391.024548  	91.559384 
4391.988973  	91.603112 
4392.953397  	91.654707 
4393.917822  	91.633429 
4394.882246  	91.572320 
4395.846670  	91.528888 
4396.811095  	91.525764 
4397.775519  	91.599358 
4398.739944  	91.652076 
4399.704368  	91.681485 
4400.668793  	91.728537 
4401.633217  	91.642193 
4402.597642  	91.571945 
4403.562066  	91.655735 
4404.526491  	91.687358 
4405.490915  	91.660230 
4406.455339  	91.591487 
4407.419764  	91.499579 
4408.384188  	91.549137 
4409.348613  	91.636452 
4410.313037  	91.626067 
4411.277462  	91.583552 
4412.241886  	91.585529 
4413.206311  	91.605571 
4414.170735  	91.622387 
4415.135160  	91.600156 
4416.099584  	91.543146 
4417.064008  	91.491203 
4418.028433  	91.486812 
4418.992857  	91.530268 
4419.957282  	91.541894 
4420.921706  	91.565230 
4421.886131  	91.618932 
4422.850555  	91.624306 
4423.814980  	91.575076 
4424.779404  	91.515411 
4425.743829  	91.518770 
4426.708253  	91.542048 
4427.672677  	91.502556 
4428.637102  	91.459145 
4429.601526  	91.483752 
4430.565951  	91.475948 
4431.530375  	91.497303 
4432.494800  	91.491959 
4433.459224  	91.446006 
4434.423649  	91.475131 
4435.388073  	91.506237 
4436.352498  	91.561733 
4437.316922  	91.646501 
4438.281347  	91.650356 
4439.245771  	91.576004 
4440.210195  	91.592207 
4441.174620  	91.542468 
4442.139044  	91.508952 
4443.103469  	91.590257 
4444.067893  	91.618182 
4445.032318  	91.562381 
4445.996742  	91.575149 
4446.961167  	91.606999 
4447.925591  	91.569513 
4448.890016  	91.474693 
4449.854440  	91.400435 
4450.818864  	91.462565 
4451.783289  	91.536539 
4452.747713  	91.479942 
4453.712138  	91.475532 
4454.676562  	91.460853 
4455.640987  	91.464752 
4456.605411  	91.547734 
4457.569836  	91.604752 
4458.534260  	91.541104 
4459.498685  	91.486161 
4460.463109  	91.505234 
4461.427533  	91.541336 
4462.391958  	91.530826 
4463.356382  	91.487209 
4464.320807  	91.535319 
4465.285231  	91.559868 
4466.249656  	91.535748 
4467.214080  	91.530388 
4468.178505  	91.503470 
4469.142929  	91.520021 
4470.107354  	91.584407 
4471.071778  	91.637095 
4472.036202  	91.660253 
4473.000627  	91.626403 
4473.965051  	91.494896 
4474.929476  	91.493017 
4475.893900  	91.598645 
4476.858325  	91.596824 
4477.822749  	91.573968 
4478.787174  	91.612858 
4479.751598  	91.649167 
4480.716023  	91.614607 
4481.680447  	91.568133 
4482.644871  	91.570355 
4483.609296  	91.552518 
4484.573720  	91.587003 
4485.538145  	91.602485 
4486.502569  	91.623114 
4487.466994  	91.633132 
4488.431418  	91.642678 
4489.395843  	91.608216 
4490.360267  	91.613336 
4491.324692  	91.586695 
4492.289116  	91.536299 
4493.253541  	91.542591 
4494.217965  	91.627003 
4495.182389  	91.646645 
4496.146814  	91.599355 
4497.111238  	91.585095 
4498.075663  	91.593022 
4499.040087  	91.581902 
4500.004512  	91.601366 
4500.968936  	91.656325 
4501.933361  	91.713538 
4502.897785  	91.719785 
4503.862210  	91.690193 
4504.826634  	91.659988 
4505.791058  	91.680937 
4506.755483  	91.634998 
4507.719907  	91.581332 
4508.684332  	91.668723 
4509.648756  	91.663872 
4510.613181  	91.555068 
4511.577605  	91.564375 
4512.542030  	91.642855 
4513.506454  	91.667500 
4514.470879  	91.612434 
4515.435303  	91.566186 
4516.399727  	91.584997 
4517.364152  	91.605203 
4518.328576  	91.602969 
4519.293001  	91.604577 
4520.257425  	91.617887 
4521.221850  	91.603096 
4522.186274  	91.634261 
4523.150699  	91.639016 
4524.115123  	91.572269 
4525.079548  	91.601364 
4526.043972  	91.580240 
4527.008396  	91.515466 
4527.972821  	91.547752 
4528.937245  	91.614992 
4529.901670  	91.528000 
4530.866094  	91.513152 
4531.830519  	91.577658 
4532.794943  	91.586505 
4533.759368  	91.604557 
4534.723792  	91.628509 
4535.688217  	91.616925 
4536.652641  	91.627168 
4537.617065  	91.692741 
4538.581490  	91.709753 
4539.545914  	91.675816 
4540.510339  	91.673237 
4541.474763  	91.607682 
4542.439188  	91.575474 
4543.403612  	91.612607 
4544.368037  	91.632208 
4545.332461  	91.578408 
4546.296886  	91.606328 
4547.261310  	91.614949 
4548.225734  	91.595569 
4549.190159  	91.624128 
4550.154583  	91.659769 
4551.119008  	91.554499 
4552.083432  	91.514738 
4553.047857  	91.583526 
4554.012281  	91.690164 
4554.976706  	91.688808 
4555.941130  	91.636995 
4556.905555  	91.551249 
4557.869979  	91.511649 
4558.834404  	91.576790 
4559.798828  	91.547785 
4560.763252  	91.488905 
4561.727677  	91.516300 
4562.692101  	91.626311 
4563.656526  	91.691823 
4564.620950  	91.655548 
4565.585375  	91.603905 
4566.549799  	91.618954 
4567.514224  	91.708260 
4568.478648  	91.669172 
4569.443073  	91.565232 
4570.407497  	91.546333 
4571.371921  	91.570685 
4572.336346  	91.566571 
4573.300770  	91.595663 
4574.265195  	91.550226 
4575.229619  	91.532085 
4576.194044  	91.559725 
4577.158468  	91.587066 
4578.122893  	91.627112 
4579.087317  	91.633061 
4580.051742  	91.623478 
4581.016166  	91.671294 
4581.980590  	91.694202 
4582.945015  	91.622048 
4583.909439  	91.566764 
4584.873864  	91.577876 
4585.838288  	91.565177 
4586.802713  	91.596699 
4587.767137  	91.557162 
4588.731562  	91.569379 
4589.695986  	91.614536 
4590.660411  	91.584436 
4591.624835  	91.548670 
4592.589259  	91.528685 
4593.553684  	91.600954 
4594.518108  	91.599351 
4595.482533  	91.563943 
4596.446957  	91.549850 
4597.411382  	91.491104 
4598.375806  	91.500085 
4599.340231  	91.598838 
4600.304655  	91.654819 
4601.269080  	91.633222 
4602.233504  	91.616621 
4603.197928  	91.596976 
4604.162353  	91.627396 
4605.126777  	91.641974 
4606.091202  	91.598057 
4607.055626  	91.550147 
4608.020051  	91.518642 
4608.984475  	91.550358 
4609.948900  	91.677346 
4610.913324  	91.683299 
4611.877749  	91.546690 
4612.842173  	91.512116 
4613.806598  	91.634211 
4614.771022  	91.620912 
4615.735446  	91.581249 
4616.699871  	91.621891 
4617.664295  	91.582103 
4618.628720  	91.552937 
4619.593144  	91.536996 
4620.557569  	91.576215 
4621.521993  	91.569715 
4622.486418  	91.544552 
4623.450842  	91.543786 
4624.415267  	91.516445 
4625.379691  	91.579512 
4626.344115  	91.508564 
4627.308540  	91.463239 
4628.272964  	91.447664 
4629.237389  	91.460959 
4630.201813  	91.508911 
4631.166238  	91.534603 
4632.130662  	91.578158 
4633.095087  	91.533961 
4634.059511  	91.485558 
4635.023936  	91.596341 
4635.988360  	91.613322 
4636.952784  	91.487850 
4637.917209  	91.437223 
4638.881633  	91.412127 
4639.846058  	91.403959 
4640.810482  	91.457794 
4641.774907  	91.532705 
4642.739331  	91.497445 
4643.703756  	91.492784 
4644.668180  	91.512695 
4645.632605  	91.473366 
4646.597029  	91.499956 
4647.561453  	91.515520 
4648.525878  	91.536122 
4649.490302  	91.565051 
4650.454727  	91.610322 
4651.419151  	91.599641 
4652.383576  	91.563660 
4653.348000  	91.562992 
4654.312425  	91.601185 
4655.276849  	91.684228 
4656.241274  	91.600156 
4657.205698  	91.529352 
4658.170122  	91.502963 
4659.134547  	91.471762 
4660.098971  	91.447494 
4661.063396  	91.546482 
4662.027820  	91.629963 
4662.992245  	91.563589 
4663.956669  	91.510812 
4664.921094  	91.498965 
4665.885518  	91.511237 
4666.849943  	91.514932 
4667.814367  	91.554474 
4668.778791  	91.606059 
4669.743216  	91.554669 
4670.707640  	91.508230 
4671.672065  	91.550672 
4672.636489  	91.559044 
4673.600914  	91.567720 
4674.565338  	91.579733 
4675.529763  	91.545363 
4676.494187  	91.591592 
4677.458612  	91.640531 
4678.423036  	91.617978 
4679.387461  	91.606408 
4680.351885  	91.559255 
4681.316309  	91.509618 
4682.280734  	91.470381 
4683.245158  	91.416836 
4684.209583  	91.460711 
4685.174007  	91.533124 
4686.138432  	91.543171 
4687.102856  	91.497293 
4688.067281  	91.422809 
4689.031705  	91.407277 
4689.996130  	91.452764 
4690.960554  	91.440483 
4691.924978  	91.473170 
4692.889403  	91.488623 
4693.853827  	91.464591 
4694.818252  	91.529213 
4695.782676  	91.558265 
4696.747101  	91.564881 
4697.711525  	91.589363 
4698.675950  	91.500152 
4699.640374  	91.417627 