##TITLE=No Description
##DATA TYPE=INFRARED SPECTRUM
##XUNITS=1/CM
##YUNITS=%T
400.236149  	105.069658 
401.200574  	104.200826 
402.164998  	93.915454 
403.129423  	77.577698 
404.093847  	88.980779 
405.058272  	94.926587 
406.022696  	91.865464 
406.987120  	92.220960 
407.951545  	101.564179 
408.915969  	102.319492 
409.880394  	106.448455 
410.844818  	98.800929 
411.809243  	101.288789 
412.773667  	101.941052 
413.738092  	93.095657 
414.702516  	82.419042 
415.666941  	77.997032 
416.631365  	85.320408 
417.595789  	92.532815 
418.560214  	96.921034 
419.524638  	91.570752 
420.489063  	89.291174 
421.453487  	87.256472 
422.417912  	88.174852 
423.382336  	89.077410 
424.346761  	85.492705 
425.311185  	83.100931 
426.275610  	84.060403 
427.240034  	84.580036 
428.204458  	85.999648 
429.168883  	86.560320 
430.133307  	86.430656 
431.097732  	85.420033 
432.062156  	82.993906 
433.026581  	81.609293 
433.991005  	81.425431 
434.955430  	82.096820 
435.919854  	82.933613 
436.884279  	82.873056 
437.848703  	83.002853 
438.813127  	83.269888 
439.777552  	84.505669 
440.741976  	85.288620 
441.706401  	85.313257 
442.670825  	85.598358 
443.635250  	84.407941 
444.599674  	85.210803 
445.564099  	86.603070 
446.528523  	86.189420 
447.492948  	86.324239 
448.457372  	87.916044 
449.421796  	86.609878 
450.386221  	85.806775 
451.350645  	85.964228 
452.315070  	85.497446 
453.279494  	85.109160 
454.243919  	85.623064 
455.208343  	86.153559 
456.172768  	86.237608 
457.137192  	85.888303 
458.101617  	85.564233 
459.066041  	85.744953 
460.030466  	85.544770 
460.994890  	85.978693 
461.959314  	86.690930 
462.923739  	86.764101 
463.888163  	86.089494 
464.852588  	85.785272 
465.817012  	86.984188 
466.781437  	87.225168 
467.745861  	85.910950 
468.710286  	85.190558 
469.674710  	84.720272 
470.639135  	85.232732 
471.603559  	85.865313 
472.567983  	86.019418 
473.532408  	86.258178 
474.496832  	85.626378 
475.461257  	85.549625 
476.425681  	85.081545 
477.390106  	85.827377 
478.354530  	86.788923 
479.318955  	86.096682 
480.283379  	85.668042 
481.247804  	85.845942 
482.212228  	85.200755 
483.176652  	85.536561 
484.141077  	86.327993 
485.105501  	85.633343 
486.069926  	84.953576 
487.034350  	85.646400 
487.998775  	86.044937 
488.963199  	86.284778 
489.927624  	86.178320 
490.892048  	85.448666 
491.856473  	85.346713 
492.820897  	85.713792 
493.785321  	85.286884 
494.749746  	84.329020 
495.714170  	84.210126 
496.678595  	83.989258 
497.643019  	83.688366 
498.607444  	83.895313 
499.571868  	83.160411 
500.536293  	82.390465 
501.500717  	82.012787 
502.465142  	81.715517 
503.429566  	81.897972 
504.393990  	81.718141 
505.358415  	81.461303 
506.322839  	80.595735 
507.287264  	80.845075 
508.251688  	82.535422 
509.216113  	83.746841 
510.180537  	84.246642 
511.144962  	85.171643 
512.109386  	86.017438 
513.073811  	85.900105 
514.038235  	85.930960 
515.002660  	85.818813 
515.967084  	85.334219 
516.931508  	85.434723 
517.895933  	86.045351 
518.860357  	85.921536 
519.824782  	85.322933 
520.789206  	85.843331 
521.753631  	86.590157 
522.718055  	86.825338 
523.682480  	86.564819 
524.646904  	86.454591 
525.611329  	86.511615 
526.575753  	86.525741 
527.540177  	87.072726 
528.504602  	87.188329 
529.469026  	86.828724 
530.433451  	86.771254 
531.397875  	87.155648 
532.362300  	87.609569 
533.326724  	87.713791 
534.291149  	87.501516 
535.255573  	87.604294 
536.219998  	88.097917 
537.184422  	88.642781 
538.148846  	88.290543 
539.113271  	88.135209 
540.077695  	88.240701 
541.042120  	88.509813 
542.006544  	88.598294 
542.970969  	88.689342 
543.935393  	89.043867 
544.899818  	89.038264 
545.864242  	88.946192 
546.828667  	88.871911 
547.793091  	88.696768 
548.757515  	88.738602 
549.721940  	88.946179 
550.686364  	88.952594 
551.650789  	89.228463 
552.615213  	89.016714 
553.579638  	89.212842 
554.544062  	89.227260 
555.508487  	89.263305 
556.472911  	89.107217 
557.437336  	88.965665 
558.401760  	89.360431 
559.366184  	89.659872 
560.330609  	89.427506 
561.295033  	89.300084 
562.259458  	89.362644 
563.223882  	89.049294 
564.188307  	88.975104 
565.152731  	89.234948 
566.117156  	89.146211 
567.081580  	88.977927 
568.046005  	89.024820 
569.010429  	89.015018 
569.974853  	89.077831 
570.939278  	89.066856 
571.903702  	89.000919 
572.868127  	88.908366 
573.832551  	88.722364 
574.796976  	88.838201 
575.761400  	88.451572 
576.725825  	88.648001 
577.690249  	89.171978 
578.654674  	89.318972 
579.619098  	89.086994 
580.583523  	88.746708 
581.547947  	89.158209 
582.512371  	89.618836 
583.476796  	89.438727 
584.441220  	89.158190 
585.405645  	89.166849 
586.370069  	89.531336 
587.334494  	89.555348 
588.298918  	89.646312 
589.263343  	89.432017 
590.227767  	89.270761 
591.192192  	89.075925 
592.156616  	88.932325 
593.121040  	89.242642 
594.085465  	89.359723 
595.049889  	89.342569 
596.014314  	89.438720 
596.978738  	89.338061 
597.943163  	89.315600 
598.907587  	89.272316 
599.872012  	88.913049 
600.836436  	89.031975 
601.800861  	89.293151 
602.765285  	89.177208 
603.729709  	89.025566 
604.694134  	89.088081 
605.658558  	89.238125 
606.622983  	89.276190 
607.587407  	89.132499 
608.551832  	89.042563 
609.516256  	89.228963 
610.480681  	89.202898 
611.445105  	89.133674 
612.409530  	89.137259 
613.373954  	89.152408 
614.338378  	88.895524 
615.302803  	88.749977 
616.267227  	88.758077 
617.231652  	88.748679 
618.196076  	88.726460 
619.160501  	88.917599 
620.124925  	88.649297 
621.089350  	88.416412 
622.053774  	88.410790 
623.018199  	88.634489 
623.982623  	88.490954 
624.947047  	88.233452 
625.911472  	88.047454 
626.875896  	88.083899 
627.840321  	87.928115 
628.804745  	87.870794 
629.769170  	87.577397 
630.733594  	87.043812 
631.698019  	86.799823 
632.662443  	86.876997 
633.626868  	87.142580 
634.591292  	87.517202 
635.555717  	87.653498 
636.520141  	88.079402 
637.484565  	88.204037 
638.448990  	88.163258 
639.413414  	88.078898 
640.377839  	88.098028 
641.342263  	88.144833 
642.306688  	87.924697 
643.271112  	87.844178 
644.235537  	87.862738 
645.199961  	87.788773 
646.164386  	87.840326 
647.128810  	87.785481 
648.093234  	87.630258 
649.057659  	87.600508 
650.022083  	87.477945 
650.986508  	87.393633 
651.950932  	87.354628 
652.915357  	87.154532 
653.879781  	87.138321 
654.844206  	87.242580 
655.808630  	87.179875 
656.773055  	86.935858 
657.737479  	86.900038 
658.701903  	86.766647 
659.666328  	86.661018 
660.630752  	86.606424 
661.595177  	86.474538 
662.559601  	86.308271 
663.524026  	86.224814 
664.488450  	86.195727 
665.452875  	86.075238 
666.417299  	85.864477 
667.381724  	85.869902 
668.346148  	85.845551 
669.310572  	85.304569 
670.274997  	84.941125 
671.239421  	84.883235 
672.203846  	84.893057 
673.168270  	84.595757 
674.132695  	84.116437 
675.097119  	83.726369 
676.061544  	83.359386 
677.025968  	83.105140 
677.990393  	82.834342 
678.954817  	82.481928 
679.919241  	82.287363 
680.883666  	82.212695 
681.848090  	82.115890 
682.812515  	82.004008 
683.776939  	81.846580 
684.741364  	81.688875 
685.705788  	81.505335 
686.670213  	81.352009 
687.634637  	80.928202 
688.599062  	80.416820 
689.563486  	79.969905 
690.527910  	79.618115 
691.492335  	79.075962 
692.456759  	78.511106 
693.421184  	77.879450 
694.385608  	77.302638 
695.350033  	76.439001 
696.314457  	75.450378 
697.278882  	74.365927 
698.243306  	73.242777 
699.207731  	72.116015 
700.172155  	70.919909 
701.136580  	69.600678 
702.101004  	68.557637 
703.065428  	67.705878 
704.029853  	66.789109 
704.994277  	65.762140 
705.958702  	64.706109 
706.923126  	63.472380 
707.887551  	62.161442 
708.851975  	60.856952 
709.816400  	59.448602 
710.780824  	57.889073 
711.745249  	56.365483 
712.709673  	54.719426 
713.674097  	52.860363 
714.638522  	50.998597 
715.602946  	49.076275 
716.567371  	47.051352 
717.531795  	45.173406 
718.496220  	43.442804 
719.460644  	42.191074 
720.425069  	41.515263 
721.389493  	41.311964 
722.353918  	41.461247 
723.318342  	42.268862 
724.282766  	43.911188 
725.247191  	46.391240 
726.211615  	49.157946 
727.176040  	52.013871 
728.140464  	54.777918 
729.104889  	57.534896 
730.069313  	60.271349 
731.033738  	63.040617 
731.998162  	65.792813 
732.962587  	68.637046 
733.927011  	71.462391 
734.891435  	74.342561 
735.855860  	77.144743 
736.820284  	79.748948 
737.784709  	82.083713 
738.749133  	84.284227 
739.713558  	86.252041 
740.677982  	87.887103 
741.642407  	89.172068 
742.606831  	90.194953 
743.571256  	90.925956 
744.535680  	91.468249 
745.500104  	91.937739 
746.464529  	92.321663 
747.428953  	92.526956 
748.393378  	92.722702 
749.357802  	92.817898 
750.322227  	92.796432 
751.286651  	92.776987 
752.251076  	92.890783 
753.215500  	92.980574 
754.179925  	92.936218 
755.144349  	92.850144 
756.108774  	92.876097 
757.073198  	92.838407 
758.037622  	92.720399 
759.002047  	92.602177 
759.966471  	92.632526 
760.930896  	92.592530 
761.895320  	92.490690 
762.859745  	92.508846 
763.824169  	92.552636 
764.788594  	92.499198 
765.753018  	92.417662 
766.717443  	92.199021 
767.681867  	92.004728 
768.646291  	91.842365 
769.610716  	91.782142 
770.575140  	91.689988 
771.539565  	91.589572 
772.503989  	91.277962 
773.468414  	91.156956 
774.432838  	91.137387 
775.397263  	91.055735 
776.361687  	90.859882 
777.326112  	90.754121 
778.290536  	90.661656 
779.254960  	90.561165 
780.219385  	90.458030 
781.183809  	90.470824 
782.148234  	90.032651 
783.112658  	89.751970 
784.077083  	89.477951 
785.041507  	89.146986 
786.005932  	88.859924 
786.970356  	88.306932 
787.934781  	87.769006 
788.899205  	87.388716 
789.863629  	87.049986 
790.828054  	86.634365 
791.792478  	86.207557 
792.756903  	85.964428 
793.721327  	86.143007 
794.685752  	86.488065 
795.650176  	87.160161 
796.614601  	87.961967 
797.579025  	88.596565 
798.543450  	88.796752 
799.507874  	88.876179 
800.472298  	89.027958 
801.436723  	89.119909 
802.401147  	89.161809 
803.365572  	89.119998 
804.329996  	89.111170 
805.294421  	89.061298 
806.258845  	89.024165 
807.223270  	89.103490 
808.187694  	89.087922 
809.152119  	89.062118 
810.116543  	89.125810 
811.080967  	89.146511 
812.045392  	89.081826 
813.009816  	89.102237 
813.974241  	89.115460 
814.938665  	89.114031 
815.903090  	89.102044 
816.867514  	89.053327 
817.831939  	89.023403 
818.796363  	89.007338 
819.760788  	88.973902 
820.725212  	88.948945 
821.689637  	88.826375 
822.654061  	88.679787 
823.618485  	88.557833 
824.582910  	88.410852 
825.547334  	88.154579 
826.511759  	87.931685 
827.476183  	87.805383 
828.440608  	87.644715 
829.405032  	87.390292 
830.369457  	87.146485 
831.333881  	86.955403 
832.298306  	86.692119 
833.262730  	86.388591 
834.227154  	86.102361 
835.191579  	85.748233 
836.156003  	85.318506 
837.120428  	84.883418 
838.084852  	84.402092 
839.049277  	84.048377 
840.013701  	83.695944 
840.978126  	83.202892 
841.942550  	82.701915 
842.906975  	82.111954 
843.871399  	81.473782 
844.835823  	80.965775 
845.800248  	80.549514 
846.764672  	80.283192 
847.729097  	80.267751 
848.693521  	80.401120 
849.657946  	80.817646 
850.622370  	81.351756 
851.586795  	81.780732 
852.551219  	82.052459 
853.515644  	82.322713 
854.480068  	82.591665 
855.444492  	82.787321 
856.408917  	82.938518 
857.373341  	83.084370 
858.337766  	83.288616 
859.302190  	83.469028 
860.266615  	83.529321 
861.231039  	83.504251 
862.195464  	83.382884 
863.159888  	83.145102 
864.124313  	82.750149 
865.088737  	82.162121 
866.053161  	81.328994 
867.017586  	80.065773 
867.982010  	78.363816 
868.946435  	76.171654 
869.910859  	73.371698 
870.875284  	70.445126 
871.839708  	68.772452 
872.804133  	69.635711 
873.768557  	72.445888 
874.732982  	75.475588 
875.697406  	77.850481 
876.661831  	79.623680 
877.626255  	81.011024 
878.590679  	82.176644 
879.555104  	83.252168 
880.519528  	84.237760 
881.483953  	85.045307 
882.448377  	85.753183 
883.412802  	86.467343 
884.377226  	87.097216 
885.341651  	87.565341 
886.306075  	87.875008 
887.270500  	88.182436 
888.234924  	88.530061 
889.199348  	88.664988 
890.163773  	88.665240 
891.128197  	88.729315 
892.092622  	88.782762 
893.057046  	88.721893 
894.021471  	88.677893 
894.985895  	88.665102 
895.950320  	88.594730 
896.914744  	88.519431 
897.879169  	88.461221 
898.843593  	88.479478 
899.808017  	88.548634 
900.772442  	88.606824 
901.736866  	88.708056 
902.701291  	88.886402 
903.665715  	89.086978 
904.630140  	89.259521 
905.594564  	89.402972 
906.558989  	89.603561 
907.523413  	89.857704 
908.487838  	90.008701 
909.452262  	90.143123 
910.416686  	90.385684 
911.381111  	90.557950 
912.345535  	90.602427 
913.309960  	90.643307 
914.274384  	90.721788 
915.238809  	90.760633 
916.203233  	90.762402 
917.167658  	90.834961 
918.132082  	90.879883 
919.096507  	90.878580 
920.060931  	90.937718 
921.025355  	90.952650 
921.989780  	90.884768 
922.954204  	90.826667 
923.918629  	90.819575 
924.883053  	90.834928 
925.847478  	90.810712 
926.811902  	90.722223 
927.776327  	90.673599 
928.740751  	90.645108 
929.705176  	90.626767 
930.669600  	90.582004 
931.634024  	90.530239 
932.598449  	90.525862 
933.562873  	90.481463 
934.527298  	90.405056 
935.491722  	90.291911 
936.456147  	90.243306 
937.420571  	90.241790 
938.384996  	90.160737 
939.349420  	90.065424 
940.313845  	90.005455 
941.278269  	89.945181 
942.242694  	89.847027 
943.207118  	89.736644 
944.171542  	89.657344 
945.135967  	89.567801 
946.100391  	89.419619 
947.064816  	89.254652 
948.029240  	89.136268 
948.993665  	89.007427 
949.958089  	88.873389 
950.922514  	88.758004 
951.886938  	88.630250 
952.851363  	88.448585 
953.815787  	88.231445 
954.780211  	88.073894 
955.744636  	87.906513 
956.709060  	87.651676 
957.673485  	87.406201 
958.637909  	87.122992 
959.602334  	86.782495 
960.566758  	86.447745 
961.531183  	86.110104 
962.495607  	85.737498 
963.460032  	85.344408 
964.424456  	84.939833 
965.388880  	84.479287 
966.353305  	84.058783 
967.317729  	83.740398 
968.282154  	83.340760 
969.246578  	82.956012 
970.211003  	82.714109 
971.175427  	82.616813 
972.139852  	82.667216 
973.104276  	82.871656 
974.068701  	83.203725 
975.033125  	83.611968 
975.997549  	84.063172 
976.961974  	84.508437 
977.926398  	84.938970 
978.890823  	85.316401 
979.855247  	85.648057 
980.819672  	85.911261 
981.784096  	86.150636 
982.748521  	86.338210 
983.712945  	86.482605 
984.677370  	86.553297 
985.641794  	86.558158 
986.606218  	86.542234 
987.570643  	86.541157 
988.535067  	86.530229 
989.499492  	86.534021 
990.463916  	86.549468 
991.428341  	86.617598 
992.392765  	86.651089 
993.357190  	86.656838 
994.321614  	86.676175 
995.286039  	86.645808 
996.250463  	86.564529 
997.214888  	86.439451 
998.179312  	86.302554 
999.143736  	86.120180 
1000.108161  	85.906047 
1001.072585  	85.717375 
1002.037010  	85.525333 
1003.001434  	85.253276 
1003.965859  	84.894276 
1004.930283  	84.502148 
1005.894708  	84.072748 
1006.859132  	83.526428 
1007.823557  	82.815862 
1008.787981  	82.006516 
1009.752405  	81.084610 
1010.716830  	79.878663 
1011.681254  	78.309936 
1012.645679  	76.413751 
1013.610103  	74.192382 
1014.574528  	71.689675 
1015.538952  	69.401441 
1016.503377  	67.847658 
1017.467801  	67.197921 
1018.432226  	67.392918 
1019.396650  	68.255743 
1020.361074  	69.545309 
1021.325499  	70.980583 
1022.289923  	72.248786 
1023.254348  	73.452672 
1024.218772  	74.904331 
1025.183197  	76.722003 
1026.147621  	78.638674 
1027.112046  	80.298543 
1028.076470  	81.481803 
1029.040895  	82.183174 
1030.005319  	82.543101 
1030.969743  	82.726069 
1031.934168  	82.839133 
1032.898592  	82.856980 
1033.863017  	82.724093 
1034.827441  	82.486629 
1035.791866  	82.302446 
1036.756290  	82.130433 
1037.720715  	81.941562 
1038.685139  	81.752840 
1039.649564  	81.613233 
1040.613988  	81.483665 
1041.578412  	81.291069 
1042.542837  	81.176877 
1043.507261  	81.178426 
1044.471686  	81.193351 
1045.436110  	81.219805 
1046.400535  	81.323427 
1047.364959  	81.449079 
1048.329384  	81.485510 
1049.293808  	81.577183 
1050.258233  	81.793999 
1051.222657  	81.999239 
1052.187081  	82.074538 
1053.151506  	82.154847 
1054.115930  	82.279238 
1055.080355  	82.320119 
1056.044779  	82.248292 
1057.009204  	82.140606 
1057.973628  	82.017419 
1058.938053  	81.847948 
1059.902477  	81.549217 
1060.866902  	81.142187 
1061.831326  	80.838457 
1062.795751  	80.526183 
1063.760175  	80.034815 
1064.724599  	79.479668 
1065.689024  	78.984000 
1066.653448  	78.458581 
1067.617873  	77.801966 
1068.582297  	77.058023 
1069.546722  	76.337046 
1070.511146  	75.583100 
1071.475571  	74.753785 
1072.439995  	73.857341 
1073.404420  	72.849554 
1074.368844  	71.746206 
1075.333268  	70.569928 
1076.297693  	69.306536 
1077.262117  	67.966333 
1078.226542  	66.660046 
1079.190966  	65.394185 
1080.155391  	64.145395 
1081.119815  	62.994663 
1082.084240  	61.933791 
1083.048664  	60.976665 
1084.013089  	60.195827 
1084.977513  	59.528118 
1085.941937  	58.860185 
1086.906362  	58.273775 
1087.870786  	57.777340 
1088.835211  	57.312429 
1089.799635  	56.828328 
1090.764060  	56.419353 
1091.728484  	56.119012 
1092.692909  	55.844610 
1093.657333  	55.575501 
1094.621758  	55.383221 
1095.586182  	55.277768 
1096.550606  	55.281339 
1097.515031  	55.387676 
1098.479455  	55.569984 
1099.443880  	55.823645 
1100.408304  	56.155305 
1101.372729  	56.568939 
1102.337153  	57.050923 
1103.301578  	57.548882 
1104.266002  	58.152835 
1105.230427  	58.826789 
1106.194851  	59.486375 
1107.159275  	60.152704 
1108.123700  	60.841367 
1109.088124  	61.453219 
1110.052549  	61.961532 
1111.016973  	62.368094 
1111.981398  	62.674536 
1112.945822  	62.945411 
1113.910247  	63.129318 
1114.874671  	63.181345 
1115.839096  	63.100319 
1116.803520  	62.931134 
1117.767945  	62.733632 
1118.732369  	62.602204 
1119.696793  	62.608535 
1120.661218  	62.676085 
1121.625642  	62.745158 
1122.590067  	62.936397 
1123.554491  	63.239714 
1124.518916  	63.579892 
1125.483340  	63.995363 
1126.447765  	64.511337 
1127.412189  	65.098728 
1128.376614  	65.762481 
1129.341038  	66.535113 
1130.305462  	67.434745 
1131.269887  	68.456258 
1132.234311  	69.531441 
1133.198736  	70.661518 
1134.163160  	71.894779 
1135.127585  	73.179767 
1136.092009  	74.466240 
1137.056434  	75.731471 
1138.020858  	76.975889 
1138.985283  	78.115933 
1139.949707  	79.145124 
1140.914131  	80.170740 
1141.878556  	81.130871 
1142.842980  	81.981953 
1143.807405  	82.800272 
1144.771829  	83.590583 
1145.736254  	84.274662 
1146.700678  	84.881996 
1147.665103  	85.444038 
1148.629527  	85.975575 
1149.593952  	86.454715 
1150.558376  	86.884778 
1151.522800  	87.254882 
1152.487225  	87.629831 
1153.451649  	87.959069 
1154.416074  	88.249587 
1155.380498  	88.468675 
1156.344923  	88.659878 
1157.309347  	88.878088 
1158.273772  	89.036142 
1159.238196  	89.088916 
1160.202621  	89.199957 
1161.167045  	89.303205 
1162.131469  	89.304651 
1163.095894  	89.278232 
1164.060318  	89.277972 
1165.024743  	89.209174 
1165.989167  	89.050793 
1166.953592  	88.828819 
1167.918016  	88.588388 
1168.882441  	88.278469 
1169.846865  	87.879182 
1170.811290  	87.490990 
1171.775714  	87.211038 
1172.740138  	87.023000 
1173.704563  	86.848288 
1174.668987  	86.727771 
1175.633412  	86.810472 
1176.597836  	86.979197 
1177.562261  	87.118682 
1178.526685  	87.264984 
1179.491110  	87.458560 
1180.455534  	87.677912 
1181.419959  	87.938074 
1182.384383  	88.128480 
1183.348808  	88.262746 
1184.313232  	88.400885 
1185.277656  	88.476896 
1186.242081  	88.481825 
1187.206505  	88.494427 
1188.170930  	88.499159 
1189.135354  	88.426932 
1190.099779  	88.329342 
1191.064203  	88.243431 
1192.028628  	88.078866 
1192.993052  	87.812105 
1193.957477  	87.533901 
1194.921901  	87.264170 
1195.886325  	86.967882 
1196.850750  	86.609740 
1197.815174  	86.266937 
1198.779599  	85.965554 
1199.744023  	85.658441 
1200.708448  	85.261038 
1201.672872  	84.836806 
1202.637297  	84.473517 
1203.601721  	84.124769 
1204.566146  	83.737204 
1205.530570  	83.331097 
1206.494994  	82.922303 
1207.459419  	82.528336 
1208.423843  	82.107960 
1209.388268  	81.632906 
1210.352692  	81.178955 
1211.317117  	80.659663 
1212.281541  	80.064794 
1213.245966  	79.497698 
1214.210390  	78.897765 
1215.174815  	78.218983 
1216.139239  	77.456648 
1217.103663  	76.655888 
1218.068088  	75.819562 
1219.032512  	74.954124 
1219.996937  	74.071299 
1220.961361  	73.201642 
1221.925786  	72.398625 
1222.890210  	71.620400 
1223.854635  	70.827842 
1224.819059  	70.030593 
1225.783484  	69.234516 
1226.747908  	68.389804 
1227.712332  	67.395961 
1228.676757  	66.269482 
1229.641181  	65.051130 
1230.605606  	63.728869 
1231.570030  	62.317931 
1232.534455  	60.903417 
1233.498879  	59.517020 
1234.463304  	58.165072 
1235.427728  	56.852776 
1236.392153  	55.704551 
1237.356577  	54.756839 
1238.321002  	53.931008 
1239.285426  	53.219632 
1240.249850  	52.695586 
1241.214275  	52.338917 
1242.178699  	52.091050 
1243.143124  	51.936123 
1244.107548  	51.877620 
1245.071973  	51.940933 
1246.036397  	52.049712 
1247.000822  	52.179096 
1247.965246  	52.368593 
1248.929671  	52.590243 
1249.894095  	52.828689 
1250.858519  	53.070554 
1251.822944  	53.309457 
1252.787368  	53.554733 
1253.751793  	53.782326 
1254.716217  	53.969282 
1255.680642  	54.181303 
1256.645066  	54.385207 
1257.609491  	54.562334 
1258.573915  	54.717573 
1259.538340  	54.925280 
1260.502764  	55.183844 
1261.467188  	55.578266 
1262.431613  	56.024223 
1263.396037  	56.523541 
1264.360462  	57.059327 
1265.324886  	57.609969 
1266.289311  	58.228284 
1267.253735  	58.956867 
1268.218160  	59.688593 
1269.182584  	60.365758 
1270.147009  	61.077942 
1271.111433  	61.845785 
1272.075857  	62.560568 
1273.040282  	63.361998 
1274.004706  	64.110483 
1274.969131  	64.802359 
1275.933555  	65.464178 
1276.897980  	66.108743 
1277.862404  	66.774573 
1278.826829  	67.441196 
1279.791253  	68.058493 
1280.755678  	68.674768 
1281.720102  	69.346513 
1282.684526  	70.019911 
1283.648951  	70.639080 
1284.613375  	71.288292 
1285.577800  	71.967908 
1286.542224  	72.577482 
1287.506649  	73.079130 
1288.471073  	73.732205 
1289.435498  	74.517555 
1290.399922  	75.203706 
1291.364347  	75.901375 
1292.328771  	76.663809 
1293.293195  	77.404400 
1294.257620  	78.153095 
1295.222044  	78.859227 
1296.186469  	79.529376 
1297.150893  	80.283031 
1298.115318  	81.118603 
1299.079742  	81.842669 
1300.044167  	82.545426 
1301.008591  	83.219979 
1301.973016  	83.838425 
1302.937440  	84.367251 
1303.901865  	84.846919 
1304.866289  	85.291036 
1305.830713  	85.688486 
1306.795138  	86.031819 
1307.759562  	86.334017 
1308.723987  	86.692465 
1309.688411  	87.151844 
1310.652836  	87.497175 
1311.617260  	87.701066 
1312.581685  	87.690801 
1313.546109  	87.990801 
1314.510534  	88.350972 
1315.474958  	88.725474 
1316.439382  	88.853609 
1317.403807  	88.944300 
1318.368231  	89.114562 
1319.332656  	89.163216 
1320.297080  	89.561812 
1321.261505  	89.906341 
1322.225929  	90.196600 
1323.190354  	90.344601 
1324.154778  	90.474052 
1325.119203  	90.579567 
1326.083627  	90.607195 
1327.048051  	90.571427 
1328.012476  	90.464700 
1328.976900  	90.232693 
1329.941325  	89.835063 
1330.905749  	89.349319 
1331.870174  	88.648932 
1332.834598  	87.636461 
1333.799023  	86.432467 
1334.763447  	85.055379 
1335.727872  	83.398200 
1336.692296  	81.488507 
1337.656720  	79.978170 
1338.621145  	78.330314 
1339.585569  	76.915545 
1340.549994  	76.777604 
1341.514418  	77.834741 
1342.478843  	78.890071 
1343.443267  	79.950296 
1344.407692  	81.349331 
1345.372116  	82.949298 
1346.336541  	84.550409 
1347.300965  	86.012458 
1348.265389  	87.229487 
1349.229814  	88.145013 
1350.194238  	89.038704 
1351.158663  	89.787476 
1352.123087  	90.291052 
1353.087512  	90.688639 
1354.051936  	90.865983 
1355.016361  	90.896876 
1355.980785  	91.286695 
1356.945210  	91.481627 
1357.909634  	91.438226 
1358.874059  	91.509399 
1359.838483  	91.502339 
1360.802907  	90.870454 
1361.767332  	90.329196 
1362.731756  	89.476927 
1363.696181  	89.358421 
1364.660605  	90.334428 
1365.625030  	90.386258 
1366.589454  	90.124130 
1367.553879  	89.654216 
1368.518303  	89.009715 
1369.482728  	88.910940 
1370.447152  	89.240423 
1371.411576  	89.229075 
1372.376001  	89.055422 
1373.340425  	88.448828 
1374.304850  	88.029346 
1375.269274  	88.501431 
1376.233699  	89.325280 
1377.198123  	89.526890 
1378.162548  	89.363149 
1379.126972  	89.472296 
1380.091397  	89.623868 
1381.055821  	89.792434 
1382.020245  	89.832535 
1382.984670  	89.796430 
1383.949094  	89.776351 
1384.913519  	89.732137 
1385.877943  	89.313600 
1386.842368  	88.361002 
1387.806792  	88.195673 
1388.771217  	89.153105 
1389.735641  	89.515245 
1390.700066  	89.429046 
1391.664490  	89.432535 
1392.628914  	89.383039 
1393.593339  	88.775096 
1394.557763  	87.506163 
1395.522188  	87.217741 
1396.486612  	87.668623 
1397.451037  	87.385382 
1398.415461  	86.445065 
1399.379886  	85.830984 
1400.344310  	86.009835 
1401.308735  	85.804954 
1402.273159  	84.916472 
1403.237583  	83.825590 
1404.202008  	82.275363 
1405.166432  	80.373462 
1406.130857  	79.486346 
1407.095281  	78.843627 
1408.059706  	77.994084 
1409.024130  	77.586124 
1409.988555  	77.612751 
1410.952979  	78.328894 
1411.917404  	79.548539 
1412.881828  	81.492860 
1413.846252  	83.435624 
1414.810677  	85.209694 
1415.775101  	86.430469 
1416.739526  	87.233606 
1417.703950  	87.848169 
1418.668375  	88.080799 
1419.632799  	88.514063 
1420.597224  	90.749610 
1421.561648  	91.639371 
1422.526073  	91.904210 
1423.490497  	91.239392 
1424.454922  	91.146688 
1425.419346  	92.240755 
1426.383770  	92.618941 
1427.348195  	92.571205 
1428.312619  	92.319680 
1429.277044  	91.854431 
1430.241468  	91.456473 
1431.205893  	91.841138 
1432.170317  	91.785824 
1433.134742  	91.445259 
1434.099166  	91.460829 
1435.063591  	91.143881 
1436.028015  	89.818155 
1436.992439  	88.870127 
1437.956864  	90.266959 
1438.921288  	90.844277 
1439.885713  	90.841252 
1440.850137  	90.781522 
1441.814562  	90.725543 
1442.778986  	90.673903 
1443.743411  	90.567564 
1444.707835  	90.456911 
1445.672260  	90.302154 
1446.636684  	90.040269 
1447.601108  	89.225193 
1448.565533  	89.079716 
1449.529957  	89.778581 
1450.494382  	89.868910 
1451.458806  	89.412839 
1452.423231  	89.024300 
1453.387655  	89.335667 
1454.352080  	88.973402 
1455.316504  	87.919982 
1456.280929  	87.003244 
1457.245353  	86.394041 
1458.209777  	86.665454 
1459.174202  	87.599134 
1460.138626  	89.028743 
1461.103051  	89.814793 
1462.067475  	90.019059 
1463.031900  	90.050408 
1463.996324  	89.619411 
1464.960749  	88.758273 
1465.925173  	89.232863 
1466.889598  	89.634187 
1467.854022  	89.430703 
1468.818446  	89.095799 
1469.782871  	88.493730 
1470.747295  	87.544505 
1471.711720  	85.910613 
1472.676144  	85.214380 
1473.640569  	86.295708 
1474.604993  	88.103501 
1475.569418  	88.439526 
1476.533842  	88.344564 
1477.498267  	89.796023 
1478.462691  	90.648130 
1479.427116  	90.939723 
1480.391540  	90.955794 
1481.355964  	90.718252 
1482.320389  	91.404955 
1483.284813  	92.050923 
1484.249238  	92.344483 
1485.213662  	92.340957 
1486.178087  	91.974383 
1487.142511  	91.531886 
1488.106936  	91.774001 
1489.071360  	91.067692 
1490.035785  	89.882623 
1491.000209  	91.147972 
1491.964633  	92.825204 
1492.929058  	93.480564 
1493.893482  	93.506769 
1494.857907  	93.154061 
1495.822331  	92.129247 
1496.786756  	91.562863 
1497.751180  	92.042742 
1498.715605  	91.378985 
1499.680029  	91.272504 
1500.644454  	91.359167 
1501.608878  	90.498677 
1502.573302  	89.777609 
1503.537727  	89.199331 
1504.502151  	88.016319 
1505.466576  	86.033976 
1506.431000  	82.970524 
1507.395425  	83.210308 
1508.359849  	85.838225 
1509.324274  	87.883905 
1510.288698  	89.562118 
1511.253123  	90.982382 
1512.217547  	91.116837 
1513.181971  	92.004276 
1514.146396  	92.470170 
1515.110820  	91.648641 
1516.075245  	90.689606 
1517.039669  	89.527240 
1518.004094  	91.188226 
1518.968518  	92.369995 
1519.932943  	91.446728 
1520.897367  	89.202627 
1521.861792  	89.499494 
1522.826216  	90.762393 
1523.790640  	91.738138 
1524.755065  	91.347983 
1525.719489  	90.890660 
1526.683914  	91.461420 
1527.648338  	91.156939 
1528.612763  	91.590303 
1529.577187  	92.637131 
1530.541612  	92.968457 
1531.506036  	92.239295 
1532.470461  	91.722021 
1533.434885  	90.833011 
1534.399309  	91.270720 
1535.363734  	92.225494 
1536.328158  	92.656421 
1537.292583  	92.708690 
1538.257007  	91.686131 
1539.221432  	89.162844 
1540.185856  	88.991542 
1541.150281  	90.225944 
1542.114705  	90.196687 
1543.079130  	90.289579 
1544.043554  	90.442999 
1545.007979  	90.093593 
1545.972403  	91.154608 
1546.936827  	92.501669 
1547.901252  	92.749272 
1548.865676  	92.234988 
1549.830101  	90.665632 
1550.794525  	91.179688 
1551.758950  	92.451687 
1552.723374  	92.436109 
1553.687799  	91.596592 
1554.652223  	90.709880 
1555.616648  	91.713611 
1556.581072  	91.851088 
1557.545496  	90.529656 
1558.509921  	86.778538 
1559.474345  	86.412635 
1560.438770  	89.331576 
1561.403194  	91.642466 
1562.367619  	92.355133 
1563.332043  	92.521837 
1564.296468  	92.140717 
1565.260892  	91.849390 
1566.225317  	92.404452 
1567.189741  	92.528655 
1568.154165  	92.044658 
1569.118590  	90.720633 
1570.083014  	90.449383 
1571.047439  	91.694595 
1572.011863  	91.924967 
1572.976288  	91.762736 
1573.940712  	91.557266 
1574.905137  	90.991413 
1575.869561  	89.720689 
1576.833986  	89.048229 
1577.798410  	89.930447 
1578.762834  	90.555497 
1579.727259  	90.880103 
1580.691683  	91.173944 
1581.656108  	91.446438 
1582.620532  	91.712927 
1583.584957  	91.961017 
1584.549381  	92.240856 
1585.513806  	92.426343 
1586.478230  	92.580003 
1587.442655  	92.680444 
1588.407079  	92.714935 
1589.371503  	92.603265 
1590.335928  	92.583077 
1591.300352  	92.651652 
1592.264777  	92.701542 
1593.229201  	92.720685 
1594.193626  	92.504007 
1595.158050  	92.439684 
1596.122475  	92.531757 
1597.086899  	92.593759 
1598.051324  	92.673670 
1599.015748  	92.589406 
1599.980173  	92.523450 
1600.944597  	92.300084 
1601.909021  	92.160538 
1602.873446  	91.921687 
1603.837870  	91.887362 
1604.802295  	92.029534 
1605.766719  	91.931325 
1606.731144  	91.541524 
1607.695568  	91.336763 
1608.659993  	91.248111 
1609.624417  	90.890838 
1610.588842  	91.065952 
1611.553266  	91.172521 
1612.517690  	91.087736 
1613.482115  	91.043454 
1614.446539  	90.922202 
1615.410964  	90.494228 
1616.375388  	89.504064 
1617.339813  	89.582930 
1618.304237  	90.652949 
1619.268662  	91.034188 
1620.233086  	91.112776 
1621.197511  	91.166501 
1622.161935  	90.819934 
1623.126359  	89.904135 
1624.090784  	90.045006 
1625.055208  	90.897910 
1626.019633  	91.017090 
1626.984057  	90.717367 
1627.948482  	90.182037 
1628.912906  	90.599165 
1629.877331  	90.941115 
1630.841755  	90.953044 
1631.806180  	90.904282 
1632.770604  	90.863698 
1633.735028  	90.500449 
1634.699453  	89.491767 
1635.663877  	87.888654 
1636.628302  	88.782406 
1637.592726  	88.950779 
1638.557151  	89.673393 
1639.521575  	90.053997 
1640.486000  	90.010379 
1641.450424  	90.010492 
1642.414849  	89.919527 
1643.379273  	89.898566 
1644.343697  	89.755424 
1645.308122  	88.912321 
1646.272546  	87.500079 
1647.236971  	86.933131 
1648.201395  	87.318149 
1649.165820  	88.539591 
1650.130244  	88.963463 
1651.094669  	88.570527 
1652.059093  	87.487691 
1653.023518  	84.455770 
1653.987942  	84.278050 
1654.952366  	86.453010 
1655.916791  	87.680571 
1656.881215  	87.834091 
1657.845640  	87.898562 
1658.810064  	87.894585 
1659.774489  	87.709682 
1660.738913  	87.193580 
1661.703338  	86.470927 
1662.667762  	85.563033 
1663.632187  	85.648622 
1664.596611  	85.836028 
1665.561036  	85.604868 
1666.525460  	85.205268 
1667.489884  	84.462132 
1668.454309  	82.983668 
1669.418733  	81.951325 
1670.383158  	82.406510 
1671.347582  	81.946292 
1672.312007  	81.877872 
1673.276431  	82.009236 
1674.240856  	81.322836 
1675.205280  	79.947910 
1676.169705  	79.933157 
1677.134129  	80.172778 
1678.098553  	79.750805 
1679.062978  	78.868310 
1680.027402  	77.319336 
1680.991827  	76.958236 
1681.956251  	76.992145 
1682.920676  	75.674118 
1683.885100  	72.461649 
1684.849525  	72.408864 
1685.813949  	74.980905 
1686.778374  	75.270679 
1687.742798  	74.470504 
1688.707222  	73.551875 
1689.671647  	73.020995 
1690.636071  	72.375595 
1691.600496  	71.918112 
1692.564920  	71.021630 
1693.529345  	69.760658 
1694.493769  	68.272870 
1695.458194  	66.129337 
1696.422618  	63.945648 
1697.387043  	63.388788 
1698.351467  	62.341857 
1699.315891  	60.645774 
1700.280316  	57.161714 
1701.244740  	56.416591 
1702.209165  	56.346451 
1703.173589  	55.311045 
1704.138014  	53.663975 
1705.102438  	52.213192 
1706.066863  	51.200145 
1707.031287  	50.189458 
1707.995712  	49.869841 
1708.960136  	49.497254 
1709.924560  	48.877568 
1710.888985  	48.701412 
1711.853409  	48.941717 
1712.817834  	49.024943 
1713.782258  	49.017603 
1714.746683  	49.242029 
1715.711107  	50.536453 
1716.675532  	51.374472 
1717.639956  	51.558140 
1718.604381  	53.628639 
1719.568805  	56.280080 
1720.533230  	57.900516 
1721.497654  	59.175398 
1722.462078  	60.347113 
1723.426503  	61.316008 
1724.390927  	62.821087 
1725.355352  	64.235158 
1726.319776  	65.463958 
1727.284201  	66.678110 
1728.248625  	67.882962 
1729.213050  	68.485262 
1730.177474  	69.152400 
1731.141899  	71.164466 
1732.106323  	72.251961 
1733.070747  	72.129949 
1734.035172  	71.822008 
1734.999596  	75.228364 
1735.964021  	77.785453 
1736.928445  	79.050646 
1737.892870  	80.219916 
1738.857294  	80.990746 
1739.821719  	81.740311 
1740.786143  	83.930968 
1741.750568  	85.298060 
1742.714992  	85.553572 
1743.679416  	85.955199 
1744.643841  	87.608839 
1745.608265  	88.836367 
1746.572690  	89.280051 
1747.537114  	89.544803 
1748.501539  	89.775156 
1749.465963  	90.416602 
1750.430388  	90.952529 
1751.394812  	90.660382 
1752.359237  	92.087760 
1753.323661  	93.234088 
1754.288085  	93.734683 
1755.252510  	93.870456 
1756.216934  	93.361518 
1757.181359  	92.944013 
1758.145783  	93.628348 
1759.110208  	94.072671 
1760.074632  	94.282503 
1761.039057  	93.791282 
1762.003481  	93.006396 
1762.967906  	93.997094 
1763.932330  	94.666662 
1764.896754  	94.804934 
1765.861179  	94.837789 
1766.825603  	94.702791 
1767.790028  	93.865282 
1768.754452  	93.677738 
1769.718877  	94.562530 
1770.683301  	94.276170 
1771.647726  	93.265378 
1772.612150  	92.916656 
1773.576575  	93.957827 
1774.540999  	94.550221 
1775.505423  	94.242676 
1776.469848  	94.523853 
1777.434272  	95.090878 
1778.398697  	94.949587 
1779.363121  	94.658388 
1780.327546  	94.247204 
1781.291970  	94.228971 
1782.256395  	94.905832 
1783.220819  	95.137753 
1784.185244  	94.776899 
1785.149668  	94.285552 
1786.114093  	94.826890 
1787.078517  	95.226872 
1788.042941  	95.219317 
1789.007366  	95.140950 
1789.971790  	94.860743 
1790.936215  	93.972698 
1791.900639  	93.499159 
1792.865064  	93.426852 
1793.829488  	94.361463 
1794.793913  	94.770894 
1795.758337  	94.218190 
1796.722762  	94.282758 
1797.687186  	94.968627 
1798.651610  	94.918311 
1799.616035  	94.353386 
1800.580459  	94.355882 
1801.544884  	94.222257 
1802.509308  	94.061641 
1803.473733  	94.730832 
1804.438157  	95.165925 
1805.402582  	95.177540 
1806.367006  	95.113574 
1807.331431  	94.840065 
1808.295855  	94.746053 
1809.260279  	95.051661 
1810.224704  	94.600056 
1811.189128  	94.279349 
1812.153553  	94.612578 
1813.117977  	94.946693 
1814.082402  	95.241370 
1815.046826  	95.243146 
1816.011251  	95.222356 
1816.975675  	94.995382 
1817.940100  	94.870573 
1818.904524  	95.159355 
1819.868948  	95.262892 
1820.833373  	95.162190 
1821.797797  	95.063637 
1822.762222  	94.902594 
1823.726646  	94.929042 
1824.691071  	94.411067 
1825.655495  	93.882553 
1826.619920  	94.838617 
1827.584344  	95.154720 
1828.548769  	94.729958 
1829.513193  	93.720201 
1830.477617  	93.805228 
1831.442042  	94.873625 
1832.406466  	95.168644 
1833.370891  	95.055481 
1834.335315  	95.287244 
1835.299740  	95.475836 
1836.264164  	95.308570 
1837.228589  	94.886031 
1838.193013  	95.098941 
1839.157438  	95.443168 
1840.121862  	95.552722 
1841.086287  	95.496186 
1842.050711  	95.142322 
1843.015135  	94.797699 
1843.979560  	94.109478 
1844.943984  	94.085692 
1845.908409  	94.913988 
1846.872833  	95.130012 
1847.837258  	94.732888 
1848.801682  	94.951121 
1849.766107  	95.470454 
1850.730531  	95.715485 
1851.694956  	95.754949 
1852.659380  	95.706308 
1853.623804  	95.762484 
1854.588229  	95.740465 
1855.552653  	95.724875 
1856.517078  	95.709218 
1857.481502  	95.700325 
1858.445927  	95.546374 
1859.410351  	95.506088 
1860.374776  	95.572429 
1861.339200  	95.497656 
1862.303625  	95.534408 
1863.268049  	95.723593 
1864.232473  	95.775747 
1865.196898  	95.757880 
1866.161322  	95.435705 
1867.125747  	95.040086 
1868.090171  	94.509447 
1869.054596  	94.133470 
1870.019020  	94.629039 
1870.983445  	95.296981 
1871.947869  	95.664839 
1872.912294  	95.923234 
1873.876718  	96.000426 
1874.841142  	95.932309 
1875.805567  	95.852230 
1876.769991  	95.874808 
1877.734416  	95.948239 
1878.698840  	95.922152 
1879.663265  	95.830182 
1880.627689  	95.874980 
1881.592114  	95.824396 
1882.556538  	95.834917 
1883.520963  	95.941215 
1884.485387  	95.855297 
1885.449811  	95.732505 
1886.414236  	95.856735 
1887.378660  	95.876074 
1888.343085  	95.635261 
1889.307509  	94.927456 
1890.271934  	94.952602 
1891.236358  	95.571992 
1892.200783  	95.755168 
1893.165207  	95.794193 
1894.129632  	95.685699 
1895.094056  	95.294086 
1896.058480  	95.495028 
1897.022905  	95.859748 
1897.987329  	95.875807 
1898.951754  	95.785885 
1899.916178  	95.801845 
1900.880603  	95.835800 
1901.845027  	95.679686 
1902.809452  	95.737704 
1903.773876  	95.826587 
1904.738301  	95.750834 
1905.702725  	95.752188 
1906.667150  	95.711183 
1907.631574  	95.439481 
1908.595998  	95.445997 
1909.560423  	95.359571 
1910.524847  	95.257629 
1911.489272  	95.666607 
1912.453696  	95.723379 
1913.418121  	95.695276 
1914.382545  	95.690523 
1915.346970  	95.708997 
1916.311394  	95.710759 
1917.275819  	95.245790 
1918.240243  	94.531061 
1919.204667  	95.157327 
1920.169092  	95.523795 
1921.133516  	95.465327 
1922.097941  	95.020459 
1923.062365  	94.616973 
1924.026790  	95.317162 
1924.991214  	95.755031 
1925.955639  	95.597483 
1926.920063  	95.656318 
1927.884488  	95.796882 
1928.848912  	95.777714 
1929.813336  	95.769785 
1930.777761  	95.783271 
1931.742185  	95.642822 
1932.706610  	95.595377 
1933.671034  	95.693324 
1934.635459  	95.757365 
1935.599883  	95.650748 
1936.564308  	95.692893 
1937.528732  	95.550909 
1938.493157  	95.519862 
1939.457581  	95.698552 
1940.422005  	95.534721 
1941.386430  	95.049304 
1942.350854  	94.298892 
1943.315279  	94.461782 
1944.279703  	95.213115 
1945.244128  	95.265719 
1946.208552  	95.209519 
1947.172977  	95.193884 
1948.137401  	95.283584 
1949.101826  	95.344926 
1950.066250  	95.523889 
1951.030674  	95.489789 
1951.995099  	95.341067 
1952.959523  	95.389256 
1953.923948  	95.340510 
1954.888372  	95.269234 
1955.852797  	95.297401 
1956.817221  	95.341232 
1957.781646  	95.434844 
1958.746070  	95.386494 
1959.710495  	95.379901 
1960.674919  	95.217786 
1961.639344  	95.282708 
1962.603768  	95.145114 
1963.568192  	95.031359 
1964.532617  	95.298131 
1965.497041  	95.678905 
1966.461466  	95.528369 
1967.425890  	95.173907 
1968.390315  	95.337315 
1969.354739  	95.500642 
1970.319164  	95.466648 
1971.283588  	95.578375 
1972.248013  	95.634295 
1973.212437  	95.848703 
1974.176861  	95.671959 
1975.141286  	95.345203 
1976.105710  	95.592105 
1977.070135  	96.088524 
1978.034559  	95.867551 
1978.998984  	95.180211 
1979.963408  	95.025852 
1980.927833  	95.260728 
1981.892257  	95.262921 
1982.856682  	95.389832 
1983.821106  	95.428508 
1984.785530  	95.361597 
1985.749955  	95.245703 
1986.714379  	95.396238 
1987.678804  	95.212368 
1988.643228  	95.266487 
1989.607653  	95.700881 
1990.572077  	95.589114 
1991.536502  	95.095323 
1992.500926  	95.229844 
1993.465351  	95.411751 
1994.429775  	95.511766 
1995.394199  	95.689354 
1996.358624  	95.808896 
1997.323048  	95.738880 
1998.287473  	95.651339 
1999.251897  	95.802156 
2000.216322  	96.044267 
2001.180746  	96.142496 
2002.145171  	96.066759 
2003.109595  	95.935005 
2004.074020  	96.148129 
2005.038444  	96.469898 
2006.002868  	96.464529 
2006.967293  	96.503185 
2007.931717  	96.234787 
2008.896142  	95.899389 
2009.860566  	95.954830 
2010.824991  	95.989792 
2011.789415  	95.918900 
2012.753840  	95.801492 
2013.718264  	95.760884 
2014.682689  	95.748976 
2015.647113  	95.956991 
2016.611537  	95.658946 
2017.575962  	95.579714 
2018.540386  	95.823657 
2019.504811  	96.113642 
2020.469235  	96.489545 
2021.433660  	96.464518 
2022.398084  	96.104021 
2023.362509  	96.173414 
2024.326933  	96.460149 
2025.291358  	96.363988 
2026.255782  	96.146038 
2027.220207  	96.074523 
2028.184631  	96.108016 
2029.149055  	96.432571 
2030.113480  	96.530178 
2031.077904  	96.812010 
2032.042329  	96.447827 
2033.006753  	96.086225 
2033.971178  	96.280782 
2034.935602  	96.480682 
2035.900027  	96.418660 
2036.864451  	96.380194 
2037.828876  	96.269569 
2038.793300  	96.295393 
2039.757724  	96.189713 
2040.722149  	95.885814 
2041.686573  	95.669871 
2042.650998  	95.862316 
2043.615422  	95.892391 
2044.579847  	95.896841 
2045.544271  	96.241639 
2046.508696  	96.419262 
2047.473120  	96.275183 
2048.437545  	96.260772 
2049.401969  	96.225482 
2050.366393  	95.966588 
2051.330818  	95.795546 
2052.295242  	96.112824 
2053.259667  	96.281426 
2054.224091  	95.991838 
2055.188516  	95.776064 
2056.152940  	95.708989 
2057.117365  	95.570955 
2058.081789  	95.679650 
2059.046214  	95.806217 
2060.010638  	95.673872 
2060.975062  	95.481048 
2061.939487  	95.657335 
2062.903911  	95.711302 
2063.868336  	95.659077 
2064.832760  	95.528516 
2065.797185  	95.618045 
2066.761609  	95.860378 
2067.726034  	95.937897 
2068.690458  	95.855326 
2069.654883  	95.923621 
2070.619307  	95.818550 
2071.583731  	95.700505 
2072.548156  	95.725849 
2073.512580  	95.699584 
2074.477005  	95.604014 
2075.441429  	95.716649 
2076.405854  	95.587424 
2077.370278  	95.545460 
2078.334703  	95.720722 
2079.299127  	95.762784 
2080.263552  	95.762500 
2081.227976  	95.817163 
2082.192401  	95.777269 
2083.156825  	95.620297 
2084.121249  	95.632722 
2085.085674  	95.770147 
2086.050098  	95.799313 
2087.014523  	95.695440 
2087.978947  	95.554672 
2088.943372  	95.505247 
2089.907796  	95.447513 
2090.872221  	95.560514 
2091.836645  	95.793385 
2092.801070  	95.745323 
2093.765494  	95.737894 
2094.729918  	95.806572 
2095.694343  	95.795187 
2096.658767  	95.599002 
2097.623192  	95.501589 
2098.587616  	95.644118 
2099.552041  	95.742052 
2100.516465  	95.728089 
2101.480890  	95.646525 
2102.445314  	95.520172 
2103.409739  	95.538145 
2104.374163  	95.590708 
2105.338587  	95.583827 
2106.303012  	95.590539 
2107.267436  	95.532169 
2108.231861  	95.534975 
2109.196285  	95.619770 
2110.160710  	95.776669 
2111.125134  	95.804579 
2112.089559  	95.617740 
2113.053983  	95.526825 
2114.018408  	95.571465 
2114.982832  	95.595689 
2115.947256  	95.534622 
2116.911681  	95.610976 
2117.876105  	95.788296 
2118.840530  	95.851140 
2119.804954  	95.781880 
2120.769379  	95.651079 
2121.733803  	95.633116 
2122.698228  	95.863593 
2123.662652  	95.952156 
2124.627077  	95.850123 
2125.591501  	95.904800 
2126.555925  	95.988007 
2127.520350  	95.929787 
2128.484774  	95.946758 
2129.449199  	96.093735 
2130.413623  	96.175528 
2131.378048  	96.256097 
2132.342472  	96.394024 
2133.306897  	96.385482 
2134.271321  	96.320250 
2135.235746  	96.126199 
2136.200170  	95.857201 
2137.164594  	95.980251 
2138.129019  	96.210594 
2139.093443  	96.327341 
2140.057868  	96.368755 
2141.022292  	96.275554 
2141.986717  	96.051787 
2142.951141  	96.167970 
2143.915566  	96.471076 
2144.879990  	96.357173 
2145.844415  	96.227694 
2146.808839  	96.376990 
2147.773264  	96.503887 
2148.737688  	96.435070 
2149.702112  	96.399709 
2150.666537  	96.687628 
2151.630961  	96.791448 
2152.595386  	97.082222 
2153.559810  	97.185651 
2154.524235  	97.101747 
2155.488659  	97.067169 
2156.453084  	97.275889 
2157.417508  	97.319138 
2158.381933  	97.134539 
2159.346357  	96.518098 
2160.310781  	96.026438 
2161.275206  	95.875638 
2162.239630  	96.016227 
2163.204055  	96.106312 
2164.168479  	96.214070 
2165.132904  	96.315735 
2166.097328  	96.250954 
2167.061753  	96.312247 
2168.026177  	96.085048 
2168.990602  	95.855820 
2169.955026  	96.200396 
2170.919450  	96.686311 
2171.883875  	96.504130 
2172.848299  	96.279929 
2173.812724  	96.330195 
2174.777148  	96.459203 
2175.741573  	96.541883 
2176.705997  	96.279829 
2177.670422  	96.274512 
2178.634846  	96.550667 
2179.599271  	96.509571 
2180.563695  	96.442443 
2181.528119  	96.593016 
2182.492544  	96.525183 
2183.456968  	96.201409 
2184.421393  	96.161872 
2185.385817  	96.715903 
2186.350242  	96.651078 
2187.314666  	95.943365 
2188.279091  	95.871232 
2189.243515  	96.188367 
2190.207940  	96.260214 
2191.172364  	96.346423 
2192.136788  	96.383765 
2193.101213  	96.311544 
2194.065637  	96.356900 
2195.030062  	96.093293 
2195.994486  	95.794276 
2196.958911  	95.988630 
2197.923335  	96.123395 
2198.887760  	96.082005 
2199.852184  	96.185603 
2200.816609  	96.421722 
2201.781033  	96.348285 
2202.745458  	96.208866 
2203.709882  	96.216674 
2204.674306  	96.099493 
2205.638731  	96.041045 
2206.603155  	96.107297 
2207.567580  	96.086130 
2208.532004  	96.139192 
2209.496429  	96.164630 
2210.460853  	95.994681 
2211.425278  	95.835187 
2212.389702  	95.896953 
2213.354127  	95.732880 
2214.318551  	95.567638 
2215.282975  	95.537472 
2216.247400  	95.604519 
2217.211824  	95.826856 
2218.176249  	96.060285 
2219.140673  	96.056630 
2220.105098  	95.914524 
2221.069522  	95.840609 
2222.033947  	95.884109 
2222.998371  	95.973233 
2223.962796  	96.018232 
2224.927220  	95.977999 
2225.891644  	95.959939 
2226.856069  	96.017955 
2227.820493  	95.965967 
2228.784918  	95.896785 
2229.749342  	95.887696 
2230.713767  	95.801914 
2231.678191  	95.645226 
2232.642616  	95.661442 
2233.607040  	95.809264 
2234.571465  	95.741305 
2235.535889  	95.690803 
2236.500313  	95.676957 
2237.464738  	95.623942 
2238.429162  	95.706177 
2239.393587  	95.740395 
2240.358011  	95.719444 
2241.322436  	95.860570 
2242.286860  	95.888691 
2243.251285  	95.732400 
2244.215709  	95.613813 
2245.180134  	95.558638 
2246.144558  	95.602756 
2247.108982  	95.724583 
2248.073407  	95.753428 
2249.037831  	95.670701 
2250.002256  	95.712719 
2250.966680  	95.850535 
2251.931105  	95.889854 
2252.895529  	95.876056 
2253.859954  	95.845533 
2254.824378  	95.755249 
2255.788803  	95.687276 
2256.753227  	95.645543 
2257.717651  	95.680925 
2258.682076  	95.632350 
2259.646500  	95.602543 
2260.610925  	95.502005 
2261.575349  	95.492837 
2262.539774  	95.561372 
2263.504198  	95.687644 
2264.468623  	95.659852 
2265.433047  	95.656413 
2266.397472  	95.760187 
2267.361896  	95.679563 
2268.326321  	95.597388 
2269.290745  	95.522653 
2270.255169  	95.575364 
2271.219594  	95.691350 
2272.184018  	95.636970 
2273.148443  	95.523326 
2274.112867  	95.617132 
2275.077292  	95.648369 
2276.041716  	95.479519 
2277.006141  	95.483426 
2277.970565  	95.550077 
2278.934990  	95.514223 
2279.899414  	95.424835 
2280.863838  	95.442877 
2281.828263  	95.460684 
2282.792687  	95.429742 
2283.757112  	95.351144 
2284.721536  	95.277014 
2285.685961  	95.227856 
2286.650385  	95.353236 
2287.614810  	95.382922 
2288.579234  	95.288865 
2289.543659  	95.226339 
2290.508083  	95.321302 
2291.472507  	95.348905 
2292.436932  	95.424243 
2293.401356  	95.394302 
2294.365781  	95.258184 
2295.330205  	95.265020 
2296.294630  	95.285356 
2297.259054  	95.233579 
2298.223479  	95.175119 
2299.187903  	95.222310 
2300.152328  	95.349818 
2301.116752  	95.369518 
2302.081176  	95.350061 
2303.045601  	95.290754 
2304.010025  	95.362480 
2304.974450  	95.221795 
2305.938874  	95.180585 
2306.903299  	95.147583 
2307.867723  	95.215268 
2308.832148  	95.127163 
2309.796572  	95.167212 
2310.760997  	95.203413 
2311.725421  	95.236717 
2312.689845  	95.271958 
2313.654270  	95.324493 
2314.618694  	95.417221 
2315.583119  	95.520522 
2316.547543  	95.526541 
2317.511968  	95.568121 
2318.476392  	95.547672 
2319.440817  	95.497808 
2320.405241  	95.472701 
2321.369666  	95.554048 
2322.334090  	95.656355 
2323.298515  	95.695726 
2324.262939  	95.678727 
2325.227363  	95.916443 
2326.191788  	96.237916 
2327.156212  	96.468805 
2328.120637  	96.513308 
2329.085061  	96.504376 
2330.049486  	96.570423 
2331.013910  	96.663062 
2331.978335  	96.730568 
2332.942759  	96.799417 
2333.907184  	96.917924 
2334.871608  	97.001535 
2335.836032  	97.120491 
2336.800457  	97.220503 
2337.764881  	97.223781 
2338.729306  	97.184569 
2339.693730  	97.092514 
2340.658155  	97.153799 
2341.622579  	97.280029 
2342.587004  	97.235849 
2343.551428  	97.086852 
2344.515853  	96.886075 
2345.480277  	96.654032 
2346.444701  	96.395291 
2347.409126  	96.258812 
2348.373550  	95.974022 
2349.337975  	95.847969 
2350.302399  	96.097765 
2351.266824  	96.472548 
2352.231248  	96.856584 
2353.195673  	97.003944 
2354.160097  	97.026952 
2355.124522  	97.194269 
2356.088946  	97.470488 
2357.053370  	97.564091 
2358.017795  	97.598684 
2358.982219  	97.647928 
2359.946644  	97.899073 
2360.911068  	98.005338 
2361.875493  	97.764471 
2362.839917  	97.647325 
2363.804342  	97.603772 
2364.768766  	97.505617 
2365.733191  	97.510830 
2366.697615  	97.355599 
2367.662039  	97.175816 
2368.626464  	96.983067 
2369.590888  	96.698901 
2370.555313  	96.415755 
2371.519737  	96.225129 
2372.484162  	96.071753 
2373.448586  	96.037163 
2374.413011  	95.919277 
2375.377435  	95.697425 
2376.341860  	95.602525 
2377.306284  	95.510840 
2378.270708  	95.408441 
2379.235133  	95.329914 
2380.199557  	95.338755 
2381.163982  	95.352034 
2382.128406  	95.365580 
2383.092831  	95.372275 
2384.057255  	95.401482 
2385.021680  	95.430297 
2385.986104  	95.458976 
2386.950529  	95.525754 
2387.914953  	95.591158 
2388.879378  	95.587054 
2389.843802  	95.590514 
2390.808226  	95.589090 
2391.772651  	95.594405 
2392.737075  	95.596992 
2393.701500  	95.627830 
2394.665924  	95.666549 
2395.630349  	95.640645 
2396.594773  	95.595838 
2397.559198  	95.594059 
2398.523622  	95.642928 
2399.488047  	95.697913 
2400.452471  	95.666540 
2401.416895  	95.623926 
2402.381320  	95.621858 
2403.345744  	95.702945 
2404.310169  	95.729987 
2405.274593  	95.676837 
2406.239018  	95.657891 
2407.203442  	95.654814 
2408.167867  	95.620422 
2409.132291  	95.605567 
2410.096716  	95.586650 
2411.061140  	95.562696 
2412.025564  	95.573195 
2412.989989  	95.610732 
2413.954413  	95.624662 
2414.918838  	95.646625 
2415.883262  	95.602442 
2416.847687  	95.566781 
2417.812111  	95.637189 
2418.776536  	95.655594 
2419.740960  	95.632584 
2420.705385  	95.712532 
2421.669809  	95.703005 
2422.634233  	95.652460 
2423.598658  	95.628801 
2424.563082  	95.645697 
2425.527507  	95.695660 
2426.491931  	95.650488 
2427.456356  	95.609802 
2428.420780  	95.710543 
2429.385205  	95.733811 
2430.349629  	95.667579 
2431.314054  	95.636983 
2432.278478  	95.676407 
2433.242902  	95.678458 
2434.207327  	95.654910 
2435.171751  	95.682345 
2436.136176  	95.723841 
2437.100600  	95.736756 
2438.065025  	95.716756 
2439.029449  	95.760136 
2439.993874  	95.722064 
2440.958298  	95.650992 
2441.922723  	95.647540 
2442.887147  	95.623467 
2443.851572  	95.684991 
2444.815996  	95.721484 
2445.780420  	95.654039 
2446.744845  	95.592863 
2447.709269  	95.611636 
2448.673694  	95.667187 
2449.638118  	95.676153 
2450.602543  	95.661649 
2451.566967  	95.635083 
2452.531392  	95.633410 
2453.495816  	95.610982 
2454.460241  	95.634252 
2455.424665  	95.684990 
2456.389089  	95.660388 
2457.353514  	95.657731 
2458.317938  	95.657515 
2459.282363  	95.639601 
2460.246787  	95.665828 
2461.211212  	95.663350 
2462.175636  	95.657461 
2463.140061  	95.666351 
2464.104485  	95.715809 
2465.068910  	95.770842 
2466.033334  	95.745040 
2466.997758  	95.693977 
2467.962183  	95.675307 
2468.926607  	95.621420 
2469.891032  	95.617726 
2470.855456  	95.696769 
2471.819881  	95.731216 
2472.784305  	95.725658 
2473.748730  	95.719219 
2474.713154  	95.770187 
2475.677579  	95.743271 
2476.642003  	95.681680 
2477.606427  	95.682091 
2478.570852  	95.712615 
2479.535276  	95.689688 
2480.499701  	95.618973 
2481.464125  	95.602465 
2482.428550  	95.661834 
2483.392974  	95.706997 
2484.357399  	95.762180 
2485.321823  	95.717591 
2486.286248  	95.638839 
2487.250672  	95.634566 
2488.215096  	95.710299 
2489.179521  	95.707690 
2490.143945  	95.656118 
2491.108370  	95.592876 
2492.072794  	95.611667 
2493.037219  	95.613010 
2494.001643  	95.667429 
2494.966068  	95.713981 
2495.930492  	95.756139 
2496.894917  	95.717933 
2497.859341  	95.667553 
2498.823765  	95.682734 
2499.788190  	95.652469 
2500.752614  	95.612833 
2501.717039  	95.599024 
2502.681463  	95.571648 
2503.645888  	95.557492 
2504.610312  	95.526420 
2505.574737  	95.537948 
2506.539161  	95.582127 
2507.503586  	95.615688 
2508.468010  	95.633535 
2509.432435  	95.642117 
2510.396859  	95.616092 
2511.361283  	95.622210 
2512.325708  	95.549330 
2513.290132  	95.515136 
2514.254557  	95.590629 
2515.218981  	95.639074 
2516.183406  	95.627458 
2517.147830  	95.648990 
2518.112255  	95.579366 
2519.076679  	95.508976 
2520.041104  	95.513556 
2521.005528  	95.512819 
2521.969952  	95.453606 
2522.934377  	95.470194 
2523.898801  	95.592596 
2524.863226  	95.635791 
2525.827650  	95.578644 
2526.792075  	95.565144 
2527.756499  	95.535957 
2528.720924  	95.557257 
2529.685348  	95.529402 
2530.649773  	95.524478 
2531.614197  	95.540984 
2532.578621  	95.561244 
2533.543046  	95.566710 
2534.507470  	95.560634 
2535.471895  	95.541194 
2536.436319  	95.534911 
2537.400744  	95.564093 
2538.365168  	95.551082 
2539.329593  	95.523379 
2540.294017  	95.537697 
2541.258442  	95.499642 
2542.222866  	95.473987 
2543.187290  	95.531364 
2544.151715  	95.581307 
2545.116139  	95.566476 
2546.080564  	95.512514 
2547.044988  	95.471392 
2548.009413  	95.410655 
2548.973837  	95.400458 
2549.938262  	95.426332 
2550.902686  	95.469367 
2551.867111  	95.481433 
2552.831535  	95.451579 
2553.795959  	95.433434 
2554.760384  	95.478337 
2555.724808  	95.520467 
2556.689233  	95.444131 
2557.653657  	95.432889 
2558.618082  	95.465745 
2559.582506  	95.497930 
2560.546931  	95.486515 
2561.511355  	95.437733 
2562.475780  	95.443750 
2563.440204  	95.473853 
2564.404629  	95.504732 
2565.369053  	95.509304 
2566.333477  	95.502669 
2567.297902  	95.529598 
2568.262326  	95.537046 
2569.226751  	95.406567 
2570.191175  	95.370541 
2571.155600  	95.491449 
2572.120024  	95.514904 
2573.084449  	95.534000 
2574.048873  	95.485646 
2575.013298  	95.394624 
2575.977722  	95.387159 
2576.942146  	95.418985 
2577.906571  	95.494555 
2578.870995  	95.507477 
2579.835420  	95.453537 
2580.799844  	95.452031 
2581.764269  	95.431803 
2582.728693  	95.451393 
2583.693118  	95.434780 
2584.657542  	95.367618 
2585.621967  	95.379976 
2586.586391  	95.416567 
2587.550815  	95.421957 
2588.515240  	95.440459 
2589.479664  	95.436205 
2590.444089  	95.442198 
2591.408513  	95.496591 
2592.372938  	95.512677 
2593.337362  	95.410353 
2594.301787  	95.365443 
2595.266211  	95.405164 
2596.230636  	95.473205 
2597.195060  	95.521851 
2598.159484  	95.524059 
2599.123909  	95.525726 
2600.088333  	95.511842 
2601.052758  	95.455509 
2602.017182  	95.418390 
2602.981607  	95.416560 
2603.946031  	95.444670 
2604.910456  	95.476645 
2605.874880  	95.467194 
2606.839305  	95.467331 
2607.803729  	95.473227 
2608.768153  	95.445572 
2609.732578  	95.421854 
2610.697002  	95.431411 
2611.661427  	95.473976 
2612.625851  	95.529722 
2613.590276  	95.519114 
2614.554700  	95.472002 
2615.519125  	95.431166 
2616.483549  	95.447049 
2617.447974  	95.455850 
2618.412398  	95.459015 
2619.376822  	95.449348 
2620.341247  	95.463652 
2621.305671  	95.442214 
2622.270096  	95.398263 
2623.234520  	95.406989 
2624.198945  	95.414797 
2625.163369  	95.446820 
2626.127794  	95.404852 
2627.092218  	95.380440 
2628.056643  	95.418655 
2629.021067  	95.417218 
2629.985492  	95.401219 
2630.949916  	95.435342 
2631.914340  	95.423678 
2632.878765  	95.389565 
2633.843189  	95.434116 
2634.807614  	95.434354 
2635.772038  	95.436559 
2636.736463  	95.436226 
2637.700887  	95.453013 
2638.665312  	95.452203 
2639.629736  	95.444704 
2640.594161  	95.457524 
2641.558585  	95.448081 
2642.523009  	95.426595 
2643.487434  	95.438387 
2644.451858  	95.492039 
2645.416283  	95.496203 
2646.380707  	95.494758 
2647.345132  	95.477453 
2648.309556  	95.470007 
2649.273981  	95.473830 
2650.238405  	95.505190 
2651.202830  	95.504523 
2652.167254  	95.463466 
2653.131678  	95.436485 
2654.096103  	95.450793 
2655.060527  	95.457148 
2656.024952  	95.453546 
2656.989376  	95.437169 
2657.953801  	95.437877 
2658.918225  	95.477406 
2659.882650  	95.481688 
2660.847074  	95.462142 
2661.811499  	95.508887 
2662.775923  	95.539541 
2663.740347  	95.541710 
2664.704772  	95.516713 
2665.669196  	95.533345 
2666.633621  	95.570979 
2667.598045  	95.568574 
2668.562470  	95.531911 
2669.526894  	95.515671 
2670.491319  	95.520200 
2671.455743  	95.571359 
2672.420168  	95.593696 
2673.384592  	95.568987 
2674.349016  	95.566625 
2675.313441  	95.587909 
2676.277865  	95.591053 
2677.242290  	95.564220 
2678.206714  	95.548025 
2679.171139  	95.565967 
2680.135563  	95.572770 
2681.099988  	95.564895 
2682.064412  	95.562287 
2683.028837  	95.553716 
2683.993261  	95.547021 
2684.957686  	95.566005 
2685.922110  	95.581059 
2686.886534  	95.565707 
2687.850959  	95.547746 
2688.815383  	95.568205 
2689.779808  	95.563417 
2690.744232  	95.544453 
2691.708657  	95.552151 
2692.673081  	95.557667 
2693.637506  	95.554245 
2694.601930  	95.569991 
2695.566355  	95.563008 
2696.530779  	95.545067 
2697.495203  	95.530842 
2698.459628  	95.532147 
2699.424052  	95.568303 
2700.388477  	95.572121 
2701.352901  	95.527776 
2702.317326  	95.540318 
2703.281750  	95.590390 
2704.246175  	95.613023 
2705.210599  	95.592117 
2706.175024  	95.556410 
2707.139448  	95.546548 
2708.103872  	95.534552 
2709.068297  	95.551046 
2710.032721  	95.547744 
2710.997146  	95.511716 
2711.961570  	95.513785 
2712.925995  	95.531044 
2713.890419  	95.524848 
2714.854844  	95.545964 
2715.819268  	95.574129 
2716.783693  	95.560146 
2717.748117  	95.550907 
2718.712541  	95.563749 
2719.676966  	95.554245 
2720.641390  	95.536184 
2721.605815  	95.545736 
2722.570239  	95.541241 
2723.534664  	95.554456 
2724.499088  	95.563027 
2725.463513  	95.521459 
2726.427937  	95.517226 
2727.392362  	95.535539 
2728.356786  	95.509636 
2729.321210  	95.500877 
2730.285635  	95.524246 
2731.250059  	95.526761 
2732.214484  	95.536267 
2733.178908  	95.523234 
2734.143333  	95.509503 
2735.107757  	95.501287 
2736.072182  	95.502396 
2737.036606  	95.521084 
2738.001031  	95.504112 
2738.965455  	95.470129 
2739.929879  	95.467733 
2740.894304  	95.472117 
2741.858728  	95.477287 
2742.823153  	95.486504 
2743.787577  	95.489708 
2744.752002  	95.494577 
2745.716426  	95.467056 
2746.680851  	95.452547 
2747.645275  	95.464633 
2748.609700  	95.475512 
2749.574124  	95.491227 
2750.538549  	95.492060 
2751.502973  	95.427424 
2752.467397  	95.433023 
2753.431822  	95.475279 
2754.396246  	95.489027 
2755.360671  	95.474905 
2756.325095  	95.478973 
2757.289520  	95.472779 
2758.253944  	95.505635 
2759.218369  	95.526058 
2760.182793  	95.484262 
2761.147218  	95.450067 
2762.111642  	95.432362 
2763.076066  	95.450835 
2764.040491  	95.493669 
2765.004915  	95.485253 
2765.969340  	95.461567 
2766.933764  	95.467774 
2767.898189  	95.472921 
2768.862613  	95.461635 
2769.827038  	95.444612 
2770.791462  	95.453183 
2771.755887  	95.444188 
2772.720311  	95.428417 
2773.684735  	95.434970 
2774.649160  	95.449087 
2775.613584  	95.462231 
2776.578009  	95.472135 
2777.542433  	95.469214 
2778.506858  	95.448153 
2779.471282  	95.424785 
2780.435707  	95.413541 
2781.400131  	95.420886 
2782.364556  	95.412575 
2783.328980  	95.423386 
2784.293404  	95.429317 
2785.257829  	95.428324 
2786.222253  	95.436403 
2787.186678  	95.423191 
2788.151102  	95.400155 
2789.115527  	95.443859 
2790.079951  	95.443908 
2791.044376  	95.433645 
2792.008800  	95.420857 
2792.973225  	95.407268 
2793.937649  	95.399995 
2794.902073  	95.398107 
2795.866498  	95.381281 
2796.830922  	95.377835 
2797.795347  	95.379588 
2798.759771  	95.381223 
2799.724196  	95.360664 
2800.688620  	95.321077 
2801.653045  	95.307044 
2802.617469  	95.290311 
2803.581894  	95.283360 
2804.546318  	95.316722 
2805.510743  	95.326610 
2806.475167  	95.303935 
2807.439591  	95.292228 
2808.404016  	95.288639 
2809.368440  	95.306260 
2810.332865  	95.340416 
2811.297289  	95.329764 
2812.261714  	95.304608 
2813.226138  	95.311997 
2814.190563  	95.289290 
2815.154987  	95.307359 
2816.119412  	95.306898 
2817.083836  	95.275480 
2818.048260  	95.276403 
2819.012685  	95.305327 
2819.977109  	95.334323 
2820.941534  	95.324988 
2821.905958  	95.305071 
2822.870383  	95.261459 
2823.834807  	95.264536 
2824.799232  	95.291577 
2825.763656  	95.291154 
2826.728081  	95.268709 
2827.692505  	95.267594 
2828.656929  	95.264089 
2829.621354  	95.285541 
2830.585778  	95.295489 
2831.550203  	95.277759 
2832.514627  	95.227062 
2833.479052  	95.194095 
2834.443476  	95.200576 
2835.407901  	95.210959 
2836.372325  	95.204934 
2837.336750  	95.186322 
2838.301174  	95.137633 
2839.265598  	95.111486 
2840.230023  	95.092864 
2841.194447  	95.075589 
2842.158872  	95.039274 
2843.123296  	94.991550 
2844.087721  	94.899181 
2845.052145  	94.778968 
2846.016570  	94.680693 
2846.980994  	94.605095 
2847.945419  	94.513297 
2848.909843  	94.364388 
2849.874267  	94.256246 
2850.838692  	94.257688 
2851.803116  	94.305532 
2852.767541  	94.360571 
2853.731965  	94.439870 
2854.696390  	94.534783 
2855.660814  	94.591784 
2856.625239  	94.654904 
2857.589663  	94.699513 
2858.554088  	94.731125 
2859.518512  	94.791606 
2860.482936  	94.826265 
2861.447361  	94.820361 
2862.411785  	94.871737 
2863.376210  	94.896309 
2864.340634  	94.837612 
2865.305059  	94.841130 
2866.269483  	94.874710 
2867.233908  	94.867800 
2868.198332  	94.852781 
2869.162757  	94.847886 
2870.127181  	94.850525 
2871.091606  	94.812328 
2872.056030  	94.807273 
2873.020454  	94.832104 
2873.984879  	94.840972 
2874.949303  	94.811190 
2875.913728  	94.786902 
2876.878152  	94.787265 
2877.842577  	94.776261 
2878.807001  	94.783324 
2879.771426  	94.818883 
2880.735850  	94.788061 
2881.700275  	94.736256 
2882.664699  	94.721209 
2883.629123  	94.704462 
2884.593548  	94.686746 
2885.557972  	94.693113 
2886.522397  	94.670491 
2887.486821  	94.650867 
2888.451246  	94.616154 
2889.415670  	94.598835 
2890.380095  	94.593874 
2891.344519  	94.591842 
2892.308944  	94.608469 
2893.273368  	94.578359 
2894.237792  	94.534326 
2895.202217  	94.484172 
2896.166641  	94.487144 
2897.131066  	94.470757 
2898.095490  	94.430351 
2899.059915  	94.420038 
2900.024339  	94.366187 
2900.988764  	94.308179 
2901.953188  	94.283772 
2902.917613  	94.246125 
2903.882037  	94.140062 
2904.846461  	94.091634 
2905.810886  	94.059124 
2906.775310  	94.014423 
2907.739735  	93.932629 
2908.704159  	93.879197 
2909.668584  	93.885314 
2910.633008  	93.851064 
2911.597433  	93.797917 
2912.561857  	93.779703 
2913.526282  	93.733494 
2914.490706  	93.633571 
2915.455130  	93.548703 
2916.419555  	93.518390 
2917.383979  	93.487395 
2918.348404  	93.440061 
2919.312828  	93.485838 
2920.277253  	93.543249 
2921.241677  	93.585607 
2922.206102  	93.662549 
2923.170526  	93.693004 
2924.134951  	93.784059 
2925.099375  	93.872937 
2926.063800  	93.911795 
2927.028224  	93.987378 
2927.992648  	94.070061 
2928.957073  	94.119788 
2929.921497  	94.179256 
2930.885922  	94.237775 
2931.850346  	94.263731 
2932.814771  	94.289574 
2933.779195  	94.299531 
2934.743620  	94.327781 
2935.708044  	94.349865 
2936.672469  	94.371032 
2937.636893  	94.423883 
2938.601317  	94.408421 
2939.565742  	94.410332 
2940.530166  	94.438692 
2941.494591  	94.405485 
2942.459015  	94.321774 
2943.423440  	94.288859 
2944.387864  	94.265126 
2945.352289  	94.233662 
2946.316713  	94.224186 
2947.281138  	94.206787 
2948.245562  	94.185215 
2949.209986  	94.106524 
2950.174411  	94.009297 
2951.138835  	93.979961 
2952.103260  	93.934009 
2953.067684  	93.854719 
2954.032109  	93.789070 
2954.996533  	93.727977 
2955.960958  	93.691880 
2956.925382  	93.645152 
2957.889807  	93.593026 
2958.854231  	93.564434 
2959.818655  	93.517067 
2960.783080  	93.479004 
2961.747504  	93.435023 
2962.711929  	93.410843 
2963.676353  	93.360505 
2964.640778  	93.288295 
2965.605202  	93.261266 
2966.569627  	93.222790 
2967.534051  	93.237011 
2968.498476  	93.282114 
2969.462900  	93.272358 
2970.427324  	93.241540 
2971.391749  	93.238188 
2972.356173  	93.289511 
2973.320598  	93.367362 
2974.285022  	93.424328 
2975.249447  	93.474371 
2976.213871  	93.562676 
2977.178296  	93.619012 
2978.142720  	93.644305 
2979.107145  	93.740872 
2980.071569  	93.870980 
2981.035993  	93.906149 
2982.000418  	93.970958 
2982.964842  	94.062671 
2983.929267  	94.128011 
2984.893691  	94.172741 
2985.858116  	94.233482 
2986.822540  	94.293056 
2987.786965  	94.309494 
2988.751389  	94.326767 
2989.715814  	94.375669 
2990.680238  	94.404989 
2991.644663  	94.395215 
2992.609087  	94.399697 
2993.573511  	94.434257 
2994.537936  	94.442343 
2995.502360  	94.469387 
2996.466785  	94.482605 
2997.431209  	94.504897 
2998.395634  	94.522090 
2999.360058  	94.512689 
3000.324483  	94.530735 
3001.288907  	94.528990 
3002.253332  	94.529964 
3003.217756  	94.559440 
3004.182180  	94.517331 
3005.146605  	94.480758 
3006.111029  	94.545349 
3007.075454  	94.620755 
3008.039878  	94.641307 
3009.004303  	94.690620 
3009.968727  	94.663332 
3010.933152  	94.627530 
3011.897576  	94.624802 
3012.862001  	94.603386 
3013.826425  	94.694848 
3014.790849  	94.770980 
3015.755274  	94.743707 
3016.719698  	94.787810 
3017.684123  	94.854775 
3018.648547  	94.904192 
3019.612972  	94.925609 
3020.577396  	94.956480 
3021.541821  	94.967346 
3022.506245  	94.978629 
3023.470670  	94.999946 
3024.435094  	95.033880 
3025.399518  	95.062015 
3026.363943  	95.091469 
3027.328367  	95.151780 
3028.292792  	95.148250 
3029.257216  	95.146014 
3030.221641  	95.110390 
3031.186065  	95.039864 
3032.150490  	95.016614 
3033.114914  	95.110327 
3034.079339  	95.133801 
3035.043763  	95.145470 
3036.008187  	95.182139 
3036.972612  	95.227238 
3037.937036  	95.237832 
3038.901461  	95.225487 
3039.865885  	95.221033 
3040.830310  	95.218593 
3041.794734  	95.198297 
3042.759159  	95.164697 
3043.723583  	95.183181 
3044.688008  	95.209915 
3045.652432  	95.208088 
3046.616857  	95.172562 
3047.581281  	95.111379 
3048.545705  	94.994310 
3049.510130  	94.951502 
3050.474554  	94.981402 
3051.438979  	94.979608 
3052.403403  	94.947765 
3053.367828  	94.919220 
3054.332252  	94.889949 
3055.296677  	94.864293 
3056.261101  	94.765819 
3057.225526  	94.741203 
3058.189950  	94.843667 
3059.154374  	94.931368 
3060.118799  	94.941932 
3061.083223  	94.958241 
3062.047648  	95.006841 
3063.012072  	94.975926 
3063.976497  	94.910103 
3064.940921  	94.874238 
3065.905346  	94.892206 
3066.869770  	94.845318 
3067.834195  	94.844502 
3068.798619  	94.901209 
3069.763043  	94.922527 
3070.727468  	94.962345 
3071.691892  	94.978523 
3072.656317  	94.949464 
3073.620741  	94.928079 
3074.585166  	94.968053 
3075.549590  	95.020849 
3076.514015  	95.013548 
3077.478439  	94.964799 
3078.442864  	94.914918 
3079.407288  	94.869151 
3080.371712  	94.875774 
3081.336137  	94.921531 
3082.300561  	94.931805 
3083.264986  	94.944331 
3084.229410  	94.960596 
3085.193835  	94.997472 
3086.158259  	95.052598 
3087.122684  	95.025473 
3088.087108  	95.008133 
3089.051533  	95.039259 
3090.015957  	95.055716 
3090.980381  	95.071831 
3091.944806  	95.091011 
3092.909230  	95.074506 
3093.873655  	95.047610 
3094.838079  	95.044481 
3095.802504  	95.046856 
3096.766928  	95.070614 
3097.731353  	95.086190 
3098.695777  	95.061173 
3099.660202  	95.035698 
3100.624626  	95.004449 
3101.589050  	94.943703 
3102.553475  	94.907675 
3103.517899  	94.973191 
3104.482324  	95.090852 
3105.446748  	95.065613 
3106.411173  	95.021901 
3107.375597  	95.037818 
3108.340022  	95.072413 
3109.304446  	95.102684 
3110.268871  	95.065544 
3111.233295  	95.066677 
3112.197720  	95.028735 
3113.162144  	95.026806 
3114.126568  	95.066543 
3115.090993  	95.076204 
3116.055417  	95.092762 
3117.019842  	95.151072 
3117.984266  	95.135633 
3118.948691  	95.065990 
3119.913115  	95.180703 
3120.877540  	95.254143 
3121.841964  	95.172321 
3122.806389  	95.115731 
3123.770813  	95.138241 
3124.735237  	95.139677 
3125.699662  	95.141625 
3126.664086  	95.143750 
3127.628511  	95.174015 
3128.592935  	95.170760 
3129.557360  	95.169619 
3130.521784  	95.199874 
3131.486209  	95.249687 
3132.450633  	95.199838 
3133.415058  	95.126787 
3134.379482  	95.214434 
3135.343906  	95.270823 
3136.308331  	95.234622 
3137.272755  	95.212097 
3138.237180  	95.267364 
3139.201604  	95.308418 
3140.166029  	95.301800 
3141.130453  	95.309668 
3142.094878  	95.257011 
3143.059302  	95.201214 
3144.023727  	95.261669 
3144.988151  	95.326976 
3145.952575  	95.262310 
3146.917000  	95.240912 
3147.881424  	95.307764 
3148.845849  	95.352713 
3149.810273  	95.319980 
3150.774698  	95.314957 
3151.739122  	95.339765 
3152.703547  	95.357510 
3153.667971  	95.361011 
3154.632396  	95.336995 
3155.596820  	95.300160 
3156.561244  	95.267901 
3157.525669  	95.276953 
3158.490093  	95.274839 
3159.454518  	95.295868 
3160.418942  	95.300573 
3161.383367  	95.291372 
3162.347791  	95.264266 
3163.312216  	95.264306 
3164.276640  	95.311640 
3165.241065  	95.379341 
3166.205489  	95.350159 
3167.169914  	95.318268 
3168.134338  	95.318963 
3169.098762  	95.314884 
3170.063187  	95.292537 
3171.027611  	95.255330 
3171.992036  	95.271457 
3172.956460  	95.329461 
3173.920885  	95.327189 
3174.885309  	95.290678 
3175.849734  	95.271249 
3176.814158  	95.273547 
3177.778583  	95.210846 
3178.743007  	95.194534 
3179.707431  	95.248712 
3180.671856  	95.280168 
3181.636280  	95.357285 
3182.600705  	95.344129 
3183.565129  	95.263265 
3184.529554  	95.238124 
3185.493978  	95.235788 
3186.458403  	95.263416 
3187.422827  	95.307352 
3188.387252  	95.320541 
3189.351676  	95.324127 
3190.316100  	95.327505 
3191.280525  	95.336595 
3192.244949  	95.305551 
3193.209374  	95.310129 
3194.173798  	95.322503 
3195.138223  	95.315966 
3196.102647  	95.276494 
3197.067072  	95.196344 
3198.031496  	95.133410 
3198.995921  	95.263459 
3199.960345  	95.370811 
3200.924769  	95.329686 
3201.889194  	95.323802 
3202.853618  	95.361089 
3203.818043  	95.299720 
3204.782467  	95.244027 
3205.746892  	95.256216 
3206.711316  	95.247025 
3207.675741  	95.241874 
3208.640165  	95.258487 
3209.604590  	95.249572 
3210.569014  	95.233406 
3211.533438  	95.261343 
3212.497863  	95.261129 
3213.462287  	95.263139 
3214.426712  	95.215918 
3215.391136  	95.203410 
3216.355561  	95.237982 
3217.319985  	95.274386 
3218.284410  	95.268346 
3219.248834  	95.209904 
3220.213259  	95.223982 
3221.177683  	95.286286 
3222.142107  	95.282922 
3223.106532  	95.283997 
3224.070956  	95.233296 
3225.035381  	95.200267 
3225.999805  	95.244203 
3226.964230  	95.262276 
3227.928654  	95.228183 
3228.893079  	95.279906 
3229.857503  	95.326584 
3230.821928  	95.306036 
3231.786352  	95.255397 
3232.750777  	95.272171 
3233.715201  	95.249860 
3234.679625  	95.249151 
3235.644050  	95.253891 
3236.608474  	95.229220 
3237.572899  	95.272559 
3238.537323  	95.313978 
3239.501748  	95.244980 
3240.466172  	95.214663 
3241.430597  	95.277920 
3242.395021  	95.299214 
3243.359446  	95.251854 
3244.323870  	95.188145 
3245.288294  	95.127557 
3246.252719  	95.199788 
3247.217143  	95.302211 
3248.181568  	95.281733 
3249.145992  	95.227230 
3250.110417  	95.250986 
3251.074841  	95.251835 
3252.039266  	95.225142 
3253.003690  	95.205709 
3253.968115  	95.110471 
3254.932539  	95.101574 
3255.896963  	95.193776 
3256.861388  	95.208246 
3257.825812  	95.244190 
3258.790237  	95.219597 
3259.754661  	95.190232 
3260.719086  	95.219204 
3261.683510  	95.286192 
3262.647935  	95.263712 
3263.612359  	95.269755 
3264.576784  	95.279965 
3265.541208  	95.245699 
3266.505632  	95.210833 
3267.470057  	95.240506 
3268.434481  	95.254169 
3269.398906  	95.234316 
3270.363330  	95.217372 
3271.327755  	95.232357 
3272.292179  	95.234475 
3273.256604  	95.188127 
3274.221028  	95.179510 
3275.185453  	95.264148 
3276.149877  	95.225897 
3277.114301  	95.193558 
3278.078726  	95.247624 
3279.043150  	95.199342 
3280.007575  	95.165652 
3280.971999  	95.172491 
3281.936424  	95.213109 
3282.900848  	95.181019 
3283.865273  	95.144190 
3284.829697  	95.196681 
3285.794122  	95.171288 
3286.758546  	95.098789 
3287.722971  	95.082361 
3288.687395  	95.103878 
3289.651819  	95.200938 
3290.616244  	95.242046 
3291.580668  	95.161959 
3292.545093  	95.107641 
3293.509517  	95.140327 
3294.473942  	95.173489 
3295.438366  	95.157857 
3296.402791  	95.119433 
3297.367215  	95.111177 
3298.331640  	95.134143 
3299.296064  	95.180557 
3300.260488  	95.212463 
3301.224913  	95.214588 
3302.189337  	95.255865 
3303.153762  	95.237113 
3304.118186  	95.182352 
3305.082611  	95.155695 
3306.047035  	95.193169 
3307.011460  	95.206033 
3307.975884  	95.145151 
3308.940309  	95.067728 
3309.904733  	95.115749 
3310.869157  	95.129006 
3311.833582  	95.136198 
3312.798006  	95.172905 
3313.762431  	95.158835 
3314.726855  	95.169457 
3315.691280  	95.157435 
3316.655704  	95.185777 
3317.620129  	95.236192 
3318.584553  	95.235886 
3319.548978  	95.180110 
3320.513402  	95.162660 
3321.477826  	95.192124 
3322.442251  	95.198644 
3323.406675  	95.214580 
3324.371100  	95.193355 
3325.335524  	95.168969 
3326.299949  	95.223263 
3327.264373  	95.195551 
3328.228798  	95.143646 
3329.193222  	95.122796 
3330.157647  	95.109011 
3331.122071  	95.129220 
3332.086495  	95.200386 
3333.050920  	95.200673 
3334.015344  	95.120858 
3334.979769  	95.054199 
3335.944193  	95.090273 
3336.908618  	95.046236 
3337.873042  	95.044397 
3338.837467  	95.125210 
3339.801891  	95.160495 
3340.766316  	95.177797 
3341.730740  	95.137732 
3342.695164  	95.140033 
3343.659589  	95.204620 
3344.624013  	95.285603 
3345.588438  	95.258044 
3346.552862  	95.182130 
3347.517287  	95.147299 
3348.481711  	95.190379 
3349.446136  	95.224883 
3350.410560  	95.207959 
3351.374985  	95.265573 
3352.339409  	95.306499 
3353.303834  	95.201249 
3354.268258  	95.219539 
3355.232682  	95.218565 
3356.197107  	95.111595 
3357.161531  	95.160287 
3358.125956  	95.207952 
3359.090380  	95.185662 
3360.054805  	95.164022 
3361.019229  	95.141710 
3361.983654  	95.091478 
3362.948078  	95.193540 
3363.912503  	95.219582 
3364.876927  	95.110904 
3365.841351  	95.145198 
3366.805776  	95.209279 
3367.770200  	95.124449 
3368.734625  	95.112303 
3369.699049  	95.190026 
3370.663474  	95.270674 
3371.627898  	95.285676 
3372.592323  	95.208146 
3373.556747  	95.147805 
3374.521172  	95.204031 
3375.485596  	95.231051 
3376.450020  	95.219114 
3377.414445  	95.208083 
3378.378869  	95.230298 
3379.343294  	95.283261 
3380.307718  	95.219167 
3381.272143  	95.226216 
3382.236567  	95.224602 
3383.200992  	95.186439 
3384.165416  	95.131936 
3385.129841  	95.077425 
3386.094265  	95.064835 
3387.058689  	95.123150 
3388.023114  	95.169591 
3388.987538  	95.194537 
3389.951963  	95.194027 
3390.916387  	95.132401 
3391.880812  	95.095529 
3392.845236  	94.910926 
3393.809661  	94.940782 
3394.774085  	95.150769 
3395.738510  	95.201430 
3396.702934  	95.124653 
3397.667358  	95.030317 
3398.631783  	95.172459 
3399.596207  	95.316207 
3400.560632  	95.231010 
3401.525056  	95.131863 
3402.489481  	95.103022 
3403.453905  	95.016980 
3404.418330  	94.992690 
3405.382754  	95.013033 
3406.347179  	95.049508 
3407.311603  	95.061822 
3408.276028  	95.114801 
3409.240452  	95.036990 
3410.204876  	94.922834 
3411.169301  	94.964862 
3412.133725  	95.031218 
3413.098150  	95.035584 
3414.062574  	94.951412 
3415.026999  	94.874086 
3415.991423  	94.852242 
3416.955848  	94.909572 
3417.920272  	94.824965 
3418.884697  	94.729351 
3419.849121  	94.545024 
3420.813545  	94.302391 
3421.777970  	94.301604 
3422.742394  	94.410198 
3423.706819  	94.543564 
3424.671243  	94.643322 
3425.635668  	94.663597 
3426.600092  	94.625919 
3427.564517  	94.590576 
3428.528941  	94.594769 
3429.493366  	94.638527 
3430.457790  	94.599608 
3431.422214  	94.600194 
3432.386639  	94.620248 
3433.351063  	94.692774 
3434.315488  	94.749098 
3435.279912  	94.677094 
3436.244337  	94.676659 
3437.208761  	94.725128 
3438.173186  	94.771133 
3439.137610  	94.755426 
3440.102035  	94.724596 
3441.066459  	94.771596 
3442.030883  	94.733163 
3442.995308  	94.573234 
3443.959732  	94.701752 
3444.924157  	94.762886 
3445.888581  	94.739139 
3446.853006  	94.386121 
3447.817430  	94.165310 
3448.781855  	94.670531 
3449.746279  	94.939472 
3450.710704  	94.986277 
3451.675128  	94.956776 
3452.639552  	94.920484 
3453.603977  	94.944207 
3454.568401  	94.979514 
3455.532826  	94.955774 
3456.497250  	94.980986 
3457.461675  	95.030409 
3458.426099  	94.983489 
3459.390524  	94.955639 
3460.354948  	95.010312 
3461.319373  	94.919438 
3462.283797  	94.831513 
3463.248221  	94.841190 
3464.212646  	95.040151 
3465.177070  	95.133925 
3466.141495  	95.072571 
3467.105919  	94.901515 
3468.070344  	94.990684 
3469.034768  	95.153287 
3469.999193  	95.124983 
3470.963617  	95.083391 
3471.928042  	95.100455 
3472.892466  	95.067759 
3473.856891  	95.026555 
3474.821315  	94.967715 
3475.785739  	95.091595 
3476.750164  	95.197188 
3477.714588  	95.150474 
3478.679013  	95.119371 
3479.643437  	95.101793 
3480.607862  	94.826376 
3481.572286  	94.655452 
3482.536711  	94.508020 
3483.501135  	94.806319 
3484.465560  	95.087846 
3485.429984  	95.025406 
3486.394408  	95.018483 
3487.358833  	95.002521 
3488.323257  	94.757889 
3489.287682  	94.860205 
3490.252106  	95.163203 
3491.216531  	95.167534 
3492.180955  	95.153730 
3493.145380  	95.270319 
3494.109804  	95.304268 
3495.074229  	95.135789 
3496.038653  	94.893312 
3497.003077  	94.762407 
3497.967502  	94.948399 
3498.931926  	95.140810 
3499.896351  	95.031322 
3500.860775  	94.962547 
3501.825200  	94.736811 
3502.789624  	94.257155 
3503.754049  	94.122091 
3504.718473  	94.501063 
3505.682898  	94.832285 
3506.647322  	95.057976 
3507.611746  	95.165354 
3508.576171  	94.945217 
3509.540595  	94.348204 
3510.505020  	94.503010 
3511.469444  	94.912574 
3512.433869  	94.944070 
3513.398293  	94.939864 
3514.362718  	95.065573 
3515.327142  	95.210215 
3516.291567  	95.149605 
3517.255991  	94.954156 
3518.220415  	94.928813 
3519.184840  	95.001401 
3520.149264  	95.035556 
3521.113689  	95.101046 
3522.078113  	94.953278 
3523.042538  	94.247213 
3524.006962  	93.926080 
3524.971387  	94.242767 
3525.935811  	94.406747 
3526.900236  	94.386871 
3527.864660  	94.253655 
3528.829085  	94.306080 
3529.793509  	94.501757 
3530.757933  	94.718280 
3531.722358  	94.728576 
3532.686782  	94.957628 
3533.651207  	95.158917 
3534.615631  	95.178867 
3535.580056  	94.900646 
3536.544480  	94.310928 
3537.508905  	94.476586 
3538.473329  	94.936856 
3539.437754  	94.917585 
3540.402178  	94.937470 
3541.366602  	94.980984 
3542.331027  	94.991983 
3543.295451  	94.738288 
3544.259876  	94.367156 
3545.224300  	93.639851 
3546.188725  	93.472541 
3547.153149  	93.567610 
3548.117574  	94.018876 
3549.081998  	94.728200 
3550.046423  	94.879778 
3551.010847  	94.786776 
3551.975271  	94.287110 
3552.939696  	94.016966 
3553.904120  	94.344706 
3554.868545  	94.708306 
3555.832969  	95.000113 
3556.797394  	94.932077 
3557.761818  	94.935186 
3558.726243  	95.036681 
3559.690667  	94.666228 
3560.655092  	94.234297 
3561.619516  	94.590620 
3562.583940  	94.606573 
3563.548365  	94.491491 
3564.512789  	94.437894 
3565.477214  	93.659589 
3566.441638  	91.694978 
3567.406063  	91.748552 
3568.370487  	92.328759 
3569.334912  	93.625779 
3570.299336  	94.532544 
3571.263761  	94.695644 
3572.228185  	95.000439 
3573.192609  	95.030728 
3574.157034  	94.902975 
3575.121458  	94.824797 
3576.085883  	94.925300 
3577.050307  	94.814228 
3578.014732  	94.799200 
3578.979156  	94.919952 
3579.943581  	94.654067 
3580.908005  	94.598170 
3581.872430  	94.929866 
3582.836854  	94.944368 
3583.801278  	94.825078 
3584.765703  	94.837788 
3585.730127  	94.475531 
3586.694552  	93.062023 
3587.658976  	92.186487 
3588.623401  	92.436927 
3589.587825  	93.416290 
3590.552250  	94.664208 
3591.516674  	94.948822 
3592.481099  	94.855343 
3593.445523  	94.298068 
3594.409948  	94.379795 
3595.374372  	94.017601 
3596.338796  	93.824534 
3597.303221  	94.537458 
3598.267645  	94.542852 
3599.232070  	94.246778 
3600.196494  	94.316994 
3601.160919  	94.098404 
3602.125343  	94.375185 
3603.089768  	94.662952 
3604.054192  	94.984167 
3605.018617  	95.128542 
3605.983041  	94.954873 
3606.947465  	93.998260 
3607.911890  	93.517497 
3608.876314  	93.744905 
3609.840739  	93.481013 
3610.805163  	94.325715 
3611.769588  	94.311682 
3612.734012  	93.205495 
3613.698437  	93.302037 
3614.662861  	93.514671 
3615.627286  	93.569139 
3616.591710  	94.446556 
3617.556134  	93.954450 
3618.520559  	93.160001 
3619.484983  	93.046560 
3620.449408  	93.143121 
3621.413832  	93.818334 
3622.378257  	94.396896 
3623.342681  	94.762088 
3624.307106  	94.975481 
3625.271530  	94.937404 
3626.235955  	94.473005 
3627.200379  	94.199960 
3628.164803  	93.340530 
3629.129228  	90.868467 
3630.093652  	91.554296 
3631.058077  	93.708569 
3632.022501  	94.505678 
3632.986926  	94.526219 
3633.951350  	93.910157 
3634.915775  	94.293571 
3635.880199  	94.885998 
3636.844624  	94.921856 
3637.809048  	94.717205 
3638.773472  	94.697411 
3639.737897  	95.009352 
3640.702321  	95.058160 
3641.666746  	94.812798 
3642.631170  	94.441016 
3643.595595  	94.607622 
3644.560019  	94.915306 
3645.524444  	94.665312 
3646.488868  	93.722663 
3647.453293  	92.097056 
3648.417717  	92.204100 
3649.382142  	92.010477 
3650.346566  	91.150381 
3651.310990  	91.459942 
3652.275415  	93.484535 
3653.239839  	94.680875 
3654.204264  	94.960548 
3655.168688  	94.816379 
3656.133113  	93.981093 
3657.097537  	93.854984 
3658.061962  	94.874688 
3659.026386  	95.086652 
3659.990811  	94.945784 
3660.955235  	95.058792 
3661.919659  	95.280396 
3662.884084  	95.339329 
3663.848508  	95.326563 
3664.812933  	95.261587 
3665.777357  	95.338525 
3666.741782  	95.340358 
3667.706206  	95.187560 
3668.670631  	94.343276 
3669.635055  	93.327605 
3670.599480  	92.817228 
3671.563904  	93.337440 
3672.528328  	94.678838 
3673.492753  	94.842125 
3674.457177  	93.707340 
3675.421602  	91.154074 
3676.386026  	91.783978 
3677.350451  	93.473414 
3678.314875  	94.090038 
3679.279300  	94.044587 
3680.243724  	94.158631 
3681.208149  	94.981773 
3682.172573  	95.331805 
3683.136997  	95.338547 
3684.101422  	95.205319 
3685.065846  	95.114098 
3686.030271  	95.252193 
3686.994695  	95.069194 
3687.959120  	94.289722 
3688.923544  	93.344945 
3689.887969  	93.852860 
3690.852393  	93.328088 
3691.816818  	93.110458 
3692.781242  	94.628878 
3693.745666  	95.138829 
3694.710091  	95.243399 
3695.674515  	95.334076 
3696.638940  	95.237062 
3697.603364  	95.301363 
3698.567789  	95.518620 
3699.532213  	95.453354 
3700.496638  	95.348269 
3701.461062  	94.687071 
3702.425487  	94.220002 
3703.389911  	95.037620 
3704.354335  	95.351498 
3705.318760  	95.260593 
3706.283184  	95.301355 
3707.247609  	95.432357 
3708.212033  	95.379397 
3709.176458  	94.754491 
3710.140882  	94.123443 
3711.105307  	93.897616 
3712.069731  	92.839430 
3713.034156  	92.988179 
3713.998580  	94.458692 
3714.963005  	94.591753 
3715.927429  	94.831293 
3716.891853  	95.361846 
3717.856278  	95.427053 
3718.820702  	94.838332 
3719.785127  	94.629374 
3720.749551  	95.173238 
3721.713976  	94.775502 
3722.678400  	93.662631 
3723.642825  	94.277134 
3724.607249  	94.562008 
3725.571674  	93.836293 
3726.536098  	93.531793 
3727.500522  	93.845922 
3728.464947  	94.857570 
3729.429371  	95.398224 
3730.393796  	95.280724 
3731.358220  	94.832920 
3732.322645  	94.020192 
3733.287069  	94.198884 
3734.251494  	93.746504 
3735.215918  	90.920478 
3736.180343  	91.144417 
3737.144767  	92.688759 
3738.109191  	93.569744 
3739.073616  	93.905220 
3740.038040  	94.467889 
3741.002465  	94.230742 
3741.966889  	94.346103 
3742.931314  	94.768593 
3743.895738  	93.819863 
3744.860163  	90.637368 
3745.824587  	92.976458 
3746.789012  	94.039110 
3747.753436  	94.015607 
3748.717860  	93.772316 
3749.682285  	93.202424 
3750.646709  	93.114552 
3751.611134  	92.866491 
3752.575558  	91.807255 
3753.539983  	93.410947 
3754.504407  	94.390710 
3755.468832  	94.842390 
3756.433256  	94.575918 
3757.397681  	94.587423 
3758.362105  	94.817663 
3759.326529  	93.954839 
3760.290954  	93.474948 
3761.255378  	94.858371 
3762.219803  	95.272725 
3763.184227  	95.285006 
3764.148652  	95.291013 
3765.113076  	94.949488 
3766.077501  	94.168809 
3767.041925  	94.776946 
3768.006350  	95.285564 
3768.970774  	95.008706 
3769.935199  	94.035183 
3770.899623  	94.178760 
3771.864047  	94.982670 
3772.828472  	95.282429 
3773.792896  	95.381156 
3774.757321  	95.510450 
3775.721745  	95.641790 
3776.686170  	95.735862 
3777.650594  	95.640739 
3778.615019  	95.195369 
3779.579443  	94.377297 
3780.543868  	94.573220 
3781.508292  	95.360397 
3782.472716  	95.439537 
3783.437141  	95.429256 
3784.401565  	95.092204 
3785.365990  	94.685722 
3786.330414  	95.023521 
3787.294839  	95.373423 
3788.259263  	95.516070 
3789.223688  	95.507112 
3790.188112  	95.515623 
3791.152537  	95.590018 
3792.116961  	95.597760 
3793.081385  	95.643127 
3794.045810  	95.673589 
3795.010234  	95.475251 
3795.974659  	94.932085 
3796.939083  	94.215580 
3797.903508  	94.584580 
3798.867932  	95.083246 
3799.832357  	95.092185 
3800.796781  	94.097026 
3801.761206  	92.641336 
3802.725630  	93.350049 
3803.690054  	94.378897 
3804.654479  	95.120661 
3805.618903  	95.188970 
3806.583328  	94.550074 
3807.547752  	93.975829 
3808.512177  	94.946489 
3809.476601  	95.321401 
3810.441026  	95.369424 
3811.405450  	95.486743 
3812.369875  	95.604642 
3813.334299  	95.665578 
3814.298723  	95.481829 
3815.263148  	94.802188 
3816.227572  	93.439299 
3817.191997  	94.054504 
3818.156421  	94.994406 
3819.120846  	94.903093 
3820.085270  	94.116629 
3821.049695  	92.513813 
3822.014119  	92.541323 
3822.978544  	94.298392 
3823.942968  	94.852519 
3824.907392  	95.000812 
3825.871817  	94.911926 
3826.836241  	94.394896 
3827.800666  	94.495593 
3828.765090  	95.110727 
3829.729515  	95.388458 
3830.693939  	95.252295 
3831.658364  	94.498603 
3832.622788  	94.559546 
3833.587213  	95.213689 
3834.551637  	94.847628 
3835.516062  	94.246025 
3836.480486  	94.773517 
3837.444910  	94.324898 
3838.409335  	93.187094 
3839.373759  	93.769205 
3840.338184  	93.342128 
3841.302608  	93.374967 
3842.267033  	94.574470 
3843.231457  	94.626496 
3844.195882  	93.973129 
3845.160306  	94.797299 
3846.124731  	95.337938 
3847.089155  	95.424270 
3848.053579  	95.410416 
3849.018004  	95.244998 
3849.982428  	94.842975 
3850.946853  	94.796667 
3851.911277  	93.957171 
3852.875702  	92.390498 
3853.840126  	91.841979 
3854.804551  	92.329521 
3855.768975  	94.207100 
3856.733400  	94.323682 
3857.697824  	93.877274 
3858.662248  	94.850698 
3859.626673  	95.507097 
3860.591097  	95.470106 
3861.555522  	94.846407 
3862.519946  	94.369228 
3863.484371  	94.669435 
3864.448795  	93.870782 
3865.413220  	92.828797 
3866.377644  	94.248162 
3867.342069  	95.251302 
3868.306493  	95.099357 
3869.270917  	93.850708 
3870.235342  	92.162525 
3871.199766  	93.516876 
3872.164191  	94.607317 
3873.128615  	94.799269 
3874.093040  	93.622359 
3875.057464  	93.669557 
3876.021889  	95.191690 
3876.986313  	95.568632 
3877.950738  	95.591222 
3878.915162  	95.460564 
3879.879586  	94.520734 
3880.844011  	92.883546 
3881.808435  	94.057236 
3882.772860  	94.977891 
3883.737284  	94.697845 
3884.701709  	94.610443 
3885.666133  	93.821173 
3886.630558  	93.548106 
3887.594982  	95.005342 
3888.559407  	95.494388 
3889.523831  	95.467755 
3890.488256  	95.033119 
3891.452680  	93.942681 
3892.417104  	93.952096 
3893.381529  	94.808977 
3894.345953  	94.771801 
3895.310378  	95.024391 
3896.274802  	95.468838 
3897.239227  	95.525643 
3898.203651  	94.905770 
3899.168076  	93.892655 
3900.132500  	93.823327 
3901.096925  	94.528129 
3902.061349  	93.374236 
3903.025773  	93.355377 
3903.990198  	93.768363 
3904.954622  	93.396273 
3905.919047  	93.723992 
3906.883471  	94.422713 
3907.847896  	95.290191 
3908.812320  	95.562501 
3909.776745  	95.612775 
3910.741169  	95.637235 
3911.705594  	95.603540 
3912.670018  	95.579595 
3913.634442  	95.610819 
3914.598867  	95.647923 
3915.563291  	95.488533 
3916.527716  	94.675351 
3917.492140  	94.035720 
3918.456565  	94.832314 
3919.420989  	95.084619 
3920.385414  	94.473891 
3921.349838  	94.930942 
3922.314263  	95.531846 
3923.278687  	95.229784 
3924.243111  	94.504587 
3925.207536  	94.113130 
3926.171960  	94.780486 
3927.136385  	95.496502 
3928.100809  	95.507022 
3929.065234  	95.313623 
3930.029658  	95.045881 
3930.994083  	94.854046 
3931.958507  	94.496441 
3932.922932  	94.177295 
3933.887356  	94.856503 
3934.851780  	95.230444 
3935.816205  	95.475909 
3936.780629  	95.594854 
3937.745054  	95.547316 
3938.709478  	95.432565 
3939.673903  	95.589003 
3940.638327  	95.623534 
3941.602752  	95.443664 
3942.567176  	94.680634 
3943.531601  	94.367672 
3944.496025  	95.099281 
3945.460449  	95.436942 
3946.424874  	95.478513 
3947.389298  	94.946323 
3948.353723  	94.604618 
3949.318147  	94.875616 
3950.282572  	94.668191 
3951.246996  	95.006661 
3952.211421  	95.499343 
3953.175845  	95.417730 
3954.140270  	95.496086 
3955.104694  	95.584275 
3956.069119  	95.521888 
3957.033543  	95.380530 
3957.997967  	95.378480 
3958.962392  	95.479990 
3959.926816  	95.516264 
3960.891241  	95.448960 
3961.855665  	95.126617 
3962.820090  	95.103441 
3963.784514  	95.539327 
3964.748939  	95.601326 
3965.713363  	95.638432 
3966.677788  	95.658931 
3967.642212  	95.638801 
3968.606636  	95.529566 
3969.571061  	95.382830 
3970.535485  	95.486356 
3971.499910  	95.546061 
3972.464334  	95.371602 
3973.428759  	95.460867 
3974.393183  	95.527497 
3975.357608  	95.397667 
3976.322032  	95.290879 
3977.286457  	95.445121 
3978.250881  	95.641952 
3979.215305  	95.681059 
3980.179730  	95.645659 
3981.144154  	95.604198 
3982.108579  	95.536464 
3983.073003  	95.554019 
3984.037428  	95.660576 
3985.001852  	95.687274 
3985.966277  	95.669524 
3986.930701  	95.667343 
3987.895126  	95.678025 
3988.859550  	95.672240 
3989.823974  	95.576328 
3990.788399  	95.409940 
3991.752823  	95.498340 
3992.717248  	95.631882 
3993.681672  	95.614327 
3994.646097  	95.540808 
3995.610521  	95.435357 
3996.574946  	95.589942 
3997.539370  	95.703246 
3998.503795  	95.728661 
3999.468219  	95.717947 
4000.432643  	95.757701 
4001.397068  	95.757778 
4002.361492  	95.704519 
4003.325917  	95.685902 
4004.290341  	95.714316 
4005.254766  	95.723505 
4006.219190  	95.739693 
4007.183615  	95.691092 
4008.148039  	95.535055 
4009.112464  	95.432494 
4010.076888  	95.573485 
4011.041313  	95.650568 
4012.005737  	95.708858 
4012.970161  	95.713920 
4013.934586  	95.711974 
4014.899010  	95.685451 
4015.863435  	95.624266 
4016.827859  	95.628038 
4017.792284  	95.666393 
4018.756708  	95.690366 
4019.721133  	95.637043 
4020.685557  	95.588236 
4021.649982  	95.639301 
4022.614406  	95.699960 
4023.578830  	95.694343 
4024.543255  	95.623240 
4025.507679  	95.519571 
4026.472104  	95.554409 
4027.436528  	95.656436 
4028.400953  	95.656018 
4029.365377  	95.617751 
4030.329802  	95.609518 
4031.294226  	95.621180 
4032.258651  	95.643309 
4033.223075  	95.709104 
4034.187499  	95.710966 
4035.151924  	95.654692 
4036.116348  	95.636778 
4037.080773  	95.667326 
4038.045197  	95.700937 
4039.009622  	95.685157 
4039.974046  	95.660666 
4040.938471  	95.683746 
4041.902895  	95.697082 
4042.867320  	95.704029 
4043.831744  	95.598124 
4044.796168  	95.508404 
4045.760593  	95.545975 
4046.725017  	95.669236 
4047.689442  	95.688074 
4048.653866  	95.644703 
4049.618291  	95.621047 
4050.582715  	95.623800 
4051.547140  	95.641479 
4052.511564  	95.654267 
4053.475989  	95.681436 
4054.440413  	95.671865 
4055.404837  	95.651855 
4056.369262  	95.704772 
4057.333686  	95.729391 
4058.298111  	95.714764 
4059.262535  	95.698002 
4060.226960  	95.668064 
4061.191384  	95.635605 
4062.155809  	95.688660 
4063.120233  	95.712986 
4064.084658  	95.698486 
4065.049082  	95.682999 
4066.013506  	95.700025 
4066.977931  	95.666337 
4067.942355  	95.653526 
4068.906780  	95.630403 
4069.871204  	95.655925 
4070.835629  	95.702535 
4071.800053  	95.723089 
4072.764478  	95.630267 
4073.728902  	95.568311 
4074.693327  	95.635525 
4075.657751  	95.677455 
4076.622176  	95.617788 
4077.586600  	95.621456 
4078.551024  	95.646241 
4079.515449  	95.621640 
4080.479873  	95.641578 
4081.444298  	95.639856 
4082.408722  	95.589093 
4083.373147  	95.575385 
4084.337571  	95.546286 
4085.301996  	95.528499 
4086.266420  	95.531504 
4087.230845  	95.567006 
4088.195269  	95.531337 
4089.159693  	95.554767 
4090.124118  	95.655756 
4091.088542  	95.659298 
4092.052967  	95.631162 
4093.017391  	95.618362 
4093.981816  	95.566583 
4094.946240  	95.569725 
4095.910665  	95.623160 
4096.875089  	95.682884 
4097.839514  	95.632958 
4098.803938  	95.542171 
4099.768362  	95.586347 
4100.732787  	95.632964 
4101.697211  	95.618540 
4102.661636  	95.635375 
4103.626060  	95.652887 
4104.590485  	95.590816 
4105.554909  	95.508131 
4106.519334  	95.516514 
4107.483758  	95.548206 
4108.448183  	95.612932 
4109.412607  	95.618289 
4110.377031  	95.570461 
4111.341456  	95.663531 
4112.305880  	95.730846 
4113.270305  	95.718267 
4114.234729  	95.701727 
4115.199154  	95.706600 
4116.163578  	95.677026 
4117.128003  	95.668177 
4118.092427  	95.671553 
4119.056852  	95.649457 
4120.021276  	95.634764 
4120.985700  	95.667339 
4121.950125  	95.682307 
4122.914549  	95.623417 
4123.878974  	95.619481 
4124.843398  	95.640347 
4125.807823  	95.682826 
4126.772247  	95.680612 
4127.736672  	95.636895 
4128.701096  	95.639813 
4129.665521  	95.618158 
4130.629945  	95.618032 
4131.594370  	95.677827 
4132.558794  	95.699684 
4133.523218  	95.677137 
4134.487643  	95.700736 
4135.452067  	95.703617 
4136.416492  	95.704575 
4137.380916  	95.734963 
4138.345341  	95.694434 
4139.309765  	95.629238 
4140.274190  	95.624709 
4141.238614  	95.616436 
4142.203039  	95.619177 
4143.167463  	95.738915 
4144.131887  	95.759660 
4145.096312  	95.709962 
4146.060736  	95.670473 
4147.025161  	95.652592 
4147.989585  	95.674446 
4148.954010  	95.636249 
4149.918434  	95.614937 
4150.882859  	95.659236 
4151.847283  	95.696297 
4152.811708  	95.712643 
4153.776132  	95.693875 
4154.740556  	95.666891 
4155.704981  	95.669305 
4156.669405  	95.684240 
4157.633830  	95.690673 
4158.598254  	95.674607 
4159.562679  	95.637328 
4160.527103  	95.625577 
4161.491528  	95.666067 
4162.455952  	95.724631 
4163.420377  	95.775640 
4164.384801  	95.792102 
4165.349225  	95.724853 
4166.313650  	95.707635 
4167.278074  	95.701409 
4168.242499  	95.705990 
4169.206923  	95.726844 
4170.171348  	95.750883 
4171.135772  	95.727258 
4172.100197  	95.682143 
4173.064621  	95.682547 
4174.029046  	95.740725 
4174.993470  	95.744373 
4175.957894  	95.759664 
4176.922319  	95.758942 
4177.886743  	95.722246 
4178.851168  	95.709131 
4179.815592  	95.697395 
4180.780017  	95.679791 
4181.744441  	95.696161 
4182.708866  	95.715783 
4183.673290  	95.736270 
4184.637715  	95.798109 
4185.602139  	95.796227 
4186.566563  	95.708287 
4187.530988  	95.678685 
4188.495412  	95.740971 
4189.459837  	95.778966 
4190.424261  	95.725128 
4191.388686  	95.732998 
4192.353110  	95.800113 
4193.317535  	95.741497 
4194.281959  	95.670672 
4195.246384  	95.697062 
4196.210808  	95.697972 
4197.175233  	95.666873 
4198.139657  	95.678333 
4199.104081  	95.678397 
4200.068506  	95.682464 
4201.032930  	95.691554 
4201.997355  	95.738952 
4202.961779  	95.817630 
4203.926204  	95.789693 
4204.890628  	95.743055 
4205.855053  	95.766520 
4206.819477  	95.754501 
4207.783902  	95.752941 
4208.748326  	95.744770 
4209.712750  	95.788974 
4210.677175  	95.814588 
4211.641599  	95.760611 
4212.606024  	95.745012 
4213.570448  	95.774751 
4214.534873  	95.772947 
4215.499297  	95.690922 
4216.463722  	95.715197 
4217.428146  	95.717238 
4218.392571  	95.697528 
4219.356995  	95.714882 
4220.321419  	95.773094 
4221.285844  	95.804193 
4222.250268  	95.777728 
4223.214693  	95.683188 
4224.179117  	95.657756 
4225.143542  	95.711665 
4226.107966  	95.775475 
4227.072391  	95.809552 
4228.036815  	95.707501 
4229.001240  	95.661051 
4229.965664  	95.673653 
4230.930088  	95.671110 
4231.894513  	95.732235 
4232.858937  	95.764927 
4233.823362  	95.768135 
4234.787786  	95.763713 
4235.752211  	95.753437 
4236.716635  	95.762540 
4237.681060  	95.767881 
4238.645484  	95.745160 
4239.609909  	95.719537 
4240.574333  	95.694707 
4241.538757  	95.785195 
4242.503182  	95.884732 
4243.467606  	95.871328 
4244.432031  	95.745410 
4245.396455  	95.679347 
4246.360880  	95.715251 
4247.325304  	95.742876 
4248.289729  	95.759479 
4249.254153  	95.743948 
4250.218578  	95.739105 
4251.183002  	95.792608 
4252.147427  	95.753970 
4253.111851  	95.701493 
4254.076275  	95.709133 
4255.040700  	95.741187 
4256.005124  	95.708696 
4256.969549  	95.737049 
4257.933973  	95.754594 
4258.898398  	95.731582 
4259.862822  	95.679840 
4260.827247  	95.655966 
4261.791671  	95.706382 
4262.756096  	95.745926 
4263.720520  	95.679638 
4264.684944  	95.648443 
4265.649369  	95.677795 
4266.613793  	95.731896 
4267.578218  	95.744151 
4268.542642  	95.760475 
4269.507067  	95.755410 
4270.471491  	95.719867 
4271.435916  	95.678501 
4272.400340  	95.665847 
4273.364765  	95.691774 
4274.329189  	95.736891 
4275.293613  	95.750008 
4276.258038  	95.737876 
4277.222462  	95.720691 
4278.186887  	95.715973 
4279.151311  	95.691999 
4280.115736  	95.662732 
4281.080160  	95.679536 
4282.044585  	95.728587 
4283.009009  	95.747638 
4283.973434  	95.704549 
4284.937858  	95.663050 
4285.902282  	95.613279 
4286.866707  	95.633367 
4287.831131  	95.703415 
4288.795556  	95.732565 
4289.759980  	95.685867 
4290.724405  	95.626930 
4291.688829  	95.659668 
4292.653254  	95.727025 
4293.617678  	95.790350 
4294.582103  	95.777752 
4295.546527  	95.751730 
4296.510951  	95.747072 
4297.475376  	95.764320 
4298.439800  	95.749741 
4299.404225  	95.755823 
4300.368649  	95.763538 
4301.333074  	95.730674 
4302.297498  	95.653833 
4303.261923  	95.629718 
4304.226347  	95.654068 
4305.190772  	95.774522 
4306.155196  	95.803724 
4307.119620  	95.768968 
4308.084045  	95.719141 
4309.048469  	95.730216 
4310.012894  	95.739462 
4310.977318  	95.741152 
4311.941743  	95.752119 
4312.906167  	95.746788 
4313.870592  	95.720981 
4314.835016  	95.779454 
4315.799441  	95.745605 
4316.763865  	95.674216 
4317.728290  	95.647786 
4318.692714  	95.712734 
4319.657138  	95.754403 
4320.621563  	95.781195 
4321.585987  	95.734281 
4322.550412  	95.705904 
4323.514836  	95.738196 
4324.479261  	95.764567 
4325.443685  	95.751866 
4326.408110  	95.771590 
4327.372534  	95.757224 
4328.336959  	95.743066 
4329.301383  	95.757543 
4330.265807  	95.819382 
4331.230232  	95.851872 
4332.194656  	95.773402 
4333.159081  	95.768450 
4334.123505  	95.812402 
4335.087930  	95.779078 
4336.052354  	95.763772 
4337.016779  	95.792799 
4337.981203  	95.791123 
4338.945628  	95.768036 
4339.910052  	95.771465 
4340.874476  	95.725820 
4341.838901  	95.762972 
4342.803325  	95.754487 
4343.767750  	95.721081 
4344.732174  	95.741834 
4345.696599  	95.721924 
4346.661023  	95.710563 
4347.625448  	95.698807 
4348.589872  	95.669013 
4349.554297  	95.754047 
4350.518721  	95.808458 
4351.483145  	95.804276 
4352.447570  	95.782614 
4353.411994  	95.759612 
4354.376419  	95.677926 
4355.340843  	95.658763 
4356.305268  	95.692262 
4357.269692  	95.776046 
4358.234117  	95.834245 
4359.198541  	95.803433 
4360.162966  	95.810229 
4361.127390  	95.812903 
4362.091814  	95.776797 
4363.056239  	95.762058 
4364.020663  	95.803056 
4364.985088  	95.792688 
4365.949512  	95.721770 
4366.913937  	95.698565 
4367.878361  	95.720717 
4368.842786  	95.742974 
4369.807210  	95.794152 
4370.771635  	95.821954 
4371.736059  	95.788348 
4372.700484  	95.799135 
4373.664908  	95.835319 
4374.629332  	95.833841 
4375.593757  	95.824671 
4376.558181  	95.842296 
4377.522606  	95.873718 
4378.487030  	95.789274 
4379.451455  	95.678432 
4380.415879  	95.701287 
4381.380304  	95.722660 
4382.344728  	95.767877 
4383.309153  	95.784839 
4384.273577  	95.753632 
4385.238001  	95.766435 
4386.202426  	95.795735 
4387.166850  	95.755108 
4388.131275  	95.711715 
4389.095699  	95.658786 
4390.060124  	95.659243 
4391.024548  	95.742034 
4391.988973  	95.859815 
4392.953397  	95.863325 
4393.917822  	95.785811 
4394.882246  	95.745269 
4395.846670  	95.775480 
4396.811095  	95.738666 
4397.775519  	95.761125 
4398.739944  	95.867802 
4399.704368  	95.861321 
4400.668793  	95.874538 
4401.633217  	95.787550 
4402.597642  	95.700127 
4403.562066  	95.782615 
4404.526491  	95.809485 
4405.490915  	95.753985 
4406.455339  	95.682301 
4407.419764  	95.709784 
4408.384188  	95.832696 
4409.348613  	95.898448 
4410.313037  	95.857134 
4411.277462  	95.748777 
4412.241886  	95.664041 
4413.206311  	95.690725 
4414.170735  	95.759056 
4415.135160  	95.791019 
4416.099584  	95.751872 
4417.064008  	95.715727 
4418.028433  	95.675859 
4418.992857  	95.669920 
4419.957282  	95.674062 
4420.921706  	95.677547 
4421.886131  	95.713236 
4422.850555  	95.765891 
4423.814980  	95.736043 
4424.779404  	95.697608 
4425.743829  	95.694433 
4426.708253  	95.650657 
4427.672677  	95.597478 
4428.637102  	95.632296 
4429.601526  	95.692275 
4430.565951  	95.693548 
4431.530375  	95.637302 
4432.494800  	95.584467 
4433.459224  	95.562160 
4434.423649  	95.580192 
4435.388073  	95.642556 
4436.352498  	95.741342 
4437.316922  	95.771791 
4438.281347  	95.772886 
4439.245771  	95.742322 
4440.210195  	95.739919 
4441.174620  	95.726792 
4442.139044  	95.655754 
4443.103469  	95.712083 
4444.067893  	95.722112 
4445.032318  	95.771891 
4445.996742  	95.782123 
4446.961167  	95.695208 
4447.925591  	95.684427 
4448.890016  	95.669075 
4449.854440  	95.634129 
4450.818864  	95.683257 
4451.783289  	95.696510 
4452.747713  	95.639235 
4453.712138  	95.683586 
4454.676562  	95.724402 
4455.640987  	95.694561 
4456.605411  	95.714549 
4457.569836  	95.754806 
4458.534260  	95.667724 
4459.498685  	95.604068 
4460.463109  	95.631403 
4461.427533  	95.705383 
4462.391958  	95.731484 
4463.356382  	95.720084 
4464.320807  	95.732428 
4465.285231  	95.731493 
4466.249656  	95.738566 
4467.214080  	95.774302 
4468.178505  	95.715715 
4469.142929  	95.694506 
4470.107354  	95.762240 
4471.071778  	95.796474 
4472.036202  	95.810042 
4473.000627  	95.830254 
4473.965051  	95.736945 
4474.929476  	95.661664 
4475.893900  	95.706119 
4476.858325  	95.751874 
4477.822749  	95.783403 
4478.787174  	95.785229 
4479.751598  	95.748820 
4480.716023  	95.749942 
4481.680447  	95.727373 
4482.644871  	95.706594 
4483.609296  	95.699793 
4484.573720  	95.692757 
4485.538145  	95.692236 
4486.502569  	95.671401 
4487.466994  	95.640695 
4488.431418  	95.751091 
4489.395843  	95.749558 
4490.360267  	95.743611 
4491.324692  	95.819872 
4492.289116  	95.792765 
4493.253541  	95.724310 
4494.217965  	95.772084 
4495.182389  	95.792351 
4496.146814  	95.793030 
4497.111238  	95.831643 
4498.075663  	95.824518 
4499.040087  	95.860005 
4500.004512  	95.880410 
4500.968936  	95.849638 
4501.933361  	95.771062 
4502.897785  	95.754405 
4503.862210  	95.829137 
4504.826634  	95.869488 
4505.791058  	95.855719 
4506.755483  	95.824652 
4507.719907  	95.818046 
4508.684332  	95.862448 
4509.648756  	95.840116 
4510.613181  	95.802765 
4511.577605  	95.827938 
4512.542030  	95.843156 
4513.506454  	95.820410 
4514.470879  	95.767603 
4515.435303  	95.716933 
4516.399727  	95.693780 
4517.364152  	95.733045 
4518.328576  	95.761994 
4519.293001  	95.799568 
4520.257425  	95.798857 
4521.221850  	95.771654 
4522.186274  	95.784721 
4523.150699  	95.755074 
4524.115123  	95.707659 
4525.079548  	95.721454 
4526.043972  	95.799796 
4527.008396  	95.801253 
4527.972821  	95.778493 
4528.937245  	95.828627 
4529.901670  	95.762923 
4530.866094  	95.769677 
4531.830519  	95.879505 
4532.794943  	95.825386 
4533.759368  	95.777864 
4534.723792  	95.803194 
4535.688217  	95.774178 
4536.652641  	95.794480 
4537.617065  	95.752712 
4538.581490  	95.767429 
4539.545914  	95.796723 
4540.510339  	95.794569 
4541.474763  	95.732781 
4542.439188  	95.742656 
4543.403612  	95.746698 
4544.368037  	95.696753 
4545.332461  	95.725307 
4546.296886  	95.786311 
4547.261310  	95.755367 
4548.225734  	95.740808 
4549.190159  	95.811648 
4550.154583  	95.864210 
4551.119008  	95.818078 
4552.083432  	95.761249 
4553.047857  	95.751666 
4554.012281  	95.812280 
4554.976706  	95.826213 
4555.941130  	95.749500 
4556.905555  	95.743886 
4557.869979  	95.810288 
4558.834404  	95.870126 
4559.798828  	95.824383 
4560.763252  	95.739659 
4561.727677  	95.727529 
4562.692101  	95.766098 
4563.656526  	95.846332 
4564.620950  	95.848259 
4565.585375  	95.757526 
4566.549799  	95.814789 
4567.514224  	95.915918 
4568.478648  	95.846119 
4569.443073  	95.774234 
4570.407497  	95.736563 
4571.371921  	95.793719 
4572.336346  	95.808885 
4573.300770  	95.857386 
4574.265195  	95.819859 
4575.229619  	95.750074 
4576.194044  	95.723874 
4577.158468  	95.694250 
4578.122893  	95.768716 
4579.087317  	95.824381 
4580.051742  	95.781876 
4581.016166  	95.806678 
4581.980590  	95.901928 
4582.945015  	95.868883 
4583.909439  	95.755650 
4584.873864  	95.720299 
4585.838288  	95.660125 
4586.802713  	95.733703 
4587.767137  	95.765708 
4588.731562  	95.731651 
4589.695986  	95.699786 
4590.660411  	95.741014 
4591.624835  	95.791524 
4592.589259  	95.811972 
4593.553684  	95.834117 
4594.518108  	95.839650 
4595.482533  	95.811652 
4596.446957  	95.773874 
4597.411382  	95.707095 
4598.375806  	95.734287 
4599.340231  	95.799359 
4600.304655  	95.828608 
4601.269080  	95.778267 
4602.233504  	95.745792 
4603.197928  	95.728625 
4604.162353  	95.793678 
4605.126777  	95.836698 
4606.091202  	95.848780 
4607.055626  	95.819283 
4608.020051  	95.801222 
4608.984475  	95.756490 
4609.948900  	95.752804 
4610.913324  	95.755973 
4611.877749  	95.780340 
4612.842173  	95.792369 
4613.806598  	95.819984 
4614.771022  	95.795191 
4615.735446  	95.764466 
4616.699871  	95.733840 
4617.664295  	95.695505 
4618.628720  	95.764881 
4619.593144  	95.806842 
4620.557569  	95.861803 
4621.521993  	95.835033 
4622.486418  	95.774242 
4623.450842  	95.798172 
4624.415267  	95.789922 
4625.379691  	95.827348 
4626.344115  	95.835003 
4627.308540  	95.772388 
4628.272964  	95.738377 
4629.237389  	95.802803 
4630.201813  	95.845154 
4631.166238  	95.883386 
4632.130662  	95.792911 
4633.095087  	95.620838 
4634.059511  	95.613546 
4635.023936  	95.718989 
4635.988360  	95.794507 
4636.952784  	95.830498 
4637.917209  	95.749026 
4638.881633  	95.612791 
4639.846058  	95.638119 
4640.810482  	95.743704 
4641.774907  	95.749878 
4642.739331  	95.719619 
4643.703756  	95.658385 
4644.668180  	95.701745 
4645.632605  	95.637214 
4646.597029  	95.693162 
4647.561453  	95.848798 
4648.525878  	95.858960 
4649.490302  	95.841702 
4650.454727  	95.819507 
4651.419151  	95.727193 
4652.383576  	95.721507 
4653.348000  	95.787749 
4654.312425  	95.893130 
4655.276849  	95.879831 
4656.241274  	95.792659 
4657.205698  	95.798033 
4658.170122  	95.814811 
4659.134547  	95.771162 
4660.098971  	95.770720 
4661.063396  	95.823704 
4662.027820  	95.865649 
4662.992245  	95.783277 
4663.956669  	95.766946 
4664.921094  	95.837239 
4665.885518  	95.868765 
4666.849943  	95.814276 
4667.814367  	95.714094 
4668.778791  	95.775178 
4669.743216  	95.822766 
4670.707640  	95.760332 
4671.672065  	95.716650 
4672.636489  	95.679919 
4673.600914  	95.716006 
4674.565338  	95.744584 
4675.529763  	95.744294 
4676.494187  	95.799833 
4677.458612  	95.872282 
4678.423036  	95.874116 
4679.387461  	95.882918 
4680.351885  	95.884835 
4681.316309  	95.813725 
4682.280734  	95.728181 
4683.245158  	95.667682 
4684.209583  	95.674568 
4685.174007  	95.746321 
4686.138432  	95.789300 
4687.102856  	95.761352 
4688.067281  	95.717351 
4689.031705  	95.682095 
4689.996130  	95.718221 
4690.960554  	95.796341 
4691.924978  	95.764852 
4692.889403  	95.697225 
4693.853827  	95.678288 
4694.818252  	95.687820 
4695.782676  	95.722957 
4696.747101  	95.748266 
4697.711525  	95.791314 
4698.675950  	95.769310 
4699.640374  	95.713147 