##TITLE=No Description
##DATA TYPE=INFRARED SPECTRUM
##XUNITS=1/CM
##YUNITS=%T
400.236149  	94.290315 
401.200574  	84.561137 
402.164998  	76.516571 
403.129423  	77.996878 
404.093847  	93.601609 
405.058272  	95.097564 
406.022696  	91.212423 
406.987120  	85.091830 
407.951545  	84.923896 
408.915969  	88.279293 
409.880394  	88.535076 
410.844818  	92.129775 
411.809243  	95.916487 
412.773667  	94.795320 
413.738092  	88.848974 
414.702516  	81.086726 
415.666941  	82.668969 
416.631365  	86.805461 
417.595789  	89.086460 
418.560214  	93.234006 
419.524638  	92.933311 
420.489063  	89.114621 
421.453487  	85.716641 
422.417912  	84.064159 
423.382336  	81.322218 
424.346761  	79.649971 
425.311185  	77.576301 
426.275610  	78.968956 
427.240034  	82.702999 
428.204458  	84.778717 
429.168883  	82.725851 
430.133307  	81.192307 
431.097732  	79.827848 
432.062156  	78.794619 
433.026581  	77.275949 
433.991005  	78.112107 
434.955430  	78.843737 
435.919854  	78.662103 
436.884279  	79.266869 
437.848703  	79.403493 
438.813127  	80.066980 
439.777552  	82.169360 
440.741976  	81.579427 
441.706401  	80.212039 
442.670825  	82.764082 
443.635250  	83.073072 
444.599674  	84.196145 
445.564099  	83.327427 
446.528523  	82.003662 
447.492948  	83.451680 
448.457372  	86.280901 
449.421796  	86.234828 
450.386221  	84.866622 
451.350645  	84.150400 
452.315070  	83.548800 
453.279494  	84.442518 
454.243919  	84.146366 
455.208343  	84.376890 
456.172768  	84.254494 
457.137192  	83.623592 
458.101617  	83.721792 
459.066041  	84.515254 
460.030466  	84.398488 
460.994890  	83.588868 
461.959314  	83.912003 
462.923739  	84.718458 
463.888163  	84.707483 
464.852588  	85.085559 
465.817012  	85.083676 
466.781437  	84.812307 
467.745861  	83.784567 
468.710286  	82.941302 
469.674710  	82.558422 
470.639135  	82.468319 
471.603559  	82.343649 
472.567983  	82.699138 
473.532408  	83.593545 
474.496832  	83.430108 
475.461257  	83.871247 
476.425681  	83.030257 
477.390106  	83.103540 
478.354530  	83.973214 
479.318955  	83.734536 
480.283379  	83.313920 
481.247804  	83.341462 
482.212228  	83.129569 
483.176652  	83.824051 
484.141077  	84.183959 
485.105501  	82.901544 
486.069926  	82.173219 
487.034350  	83.384594 
487.998775  	83.762901 
488.963199  	83.220311 
489.927624  	83.323454 
490.892048  	82.818643 
491.856473  	81.838069 
492.820897  	82.093696 
493.785321  	82.125476 
494.749746  	81.819039 
495.714170  	81.837448 
496.678595  	81.563411 
497.643019  	81.338449 
498.607444  	80.783282 
499.571868  	80.027869 
500.536293  	79.735362 
501.500717  	78.982464 
502.465142  	78.222660 
503.429566  	78.593614 
504.393990  	78.301194 
505.358415  	78.285300 
506.322839  	78.059286 
507.287264  	78.316900 
508.251688  	79.747556 
509.216113  	81.059878 
510.180537  	81.561440 
511.144962  	81.997134 
512.109386  	82.762292 
513.073811  	83.404712 
514.038235  	83.733772 
515.002660  	83.380107 
515.967084  	82.963107 
516.931508  	82.490438 
517.895933  	82.889778 
518.860357  	82.943704 
519.824782  	82.490126 
520.789206  	83.176342 
521.753631  	83.763255 
522.718055  	84.112007 
523.682480  	84.166680 
524.646904  	84.149663 
525.611329  	83.595076 
526.575753  	83.689304 
527.540177  	84.548601 
528.504602  	84.511437 
529.469026  	84.141269 
530.433451  	84.452260 
531.397875  	84.863952 
532.362300  	84.926535 
533.326724  	85.442895 
534.291149  	85.814448 
535.255573  	85.922936 
536.219998  	85.860288 
537.184422  	86.096012 
538.148846  	85.510622 
539.113271  	85.604710 
540.077695  	85.901613 
541.042120  	86.256081 
542.006544  	86.484927 
542.970969  	86.567229 
543.935393  	86.600537 
544.899818  	86.683627 
545.864242  	86.823216 
546.828667  	86.715009 
547.793091  	86.140145 
548.757515  	86.324788 
549.721940  	86.888691 
550.686364  	86.986803 
551.650789  	87.159865 
552.615213  	86.946544 
553.579638  	87.078579 
554.544062  	87.196591 
555.508487  	87.155829 
556.472911  	86.936463 
557.437336  	86.824142 
558.401760  	86.997004 
559.366184  	87.400121 
560.330609  	87.479938 
561.295033  	87.077534 
562.259458  	86.761041 
563.223882  	86.643070 
564.188307  	86.763466 
565.152731  	87.283440 
566.117156  	87.272319 
567.081580  	86.657850 
568.046005  	86.617279 
569.010429  	86.710411 
569.974853  	86.646665 
570.939278  	86.562649 
571.903702  	86.668393 
572.868127  	86.708614 
573.832551  	86.615529 
574.796976  	86.643960 
575.761400  	86.336702 
576.725825  	86.523523 
577.690249  	86.709912 
578.654674  	86.761906 
579.619098  	86.705762 
580.583523  	86.392036 
581.547947  	86.561490 
582.512371  	86.885743 
583.476796  	86.913479 
584.441220  	86.829032 
585.405645  	86.758966 
586.370069  	86.941905 
587.334494  	86.908735 
588.298918  	86.818688 
589.263343  	86.773732 
590.227767  	86.821340 
591.192192  	86.610087 
592.156616  	86.425311 
593.121040  	86.875824 
594.085465  	86.997705 
595.049889  	86.872704 
596.014314  	86.944889 
596.978738  	87.031677 
597.943163  	86.955678 
598.907587  	86.640356 
599.872012  	86.194931 
600.836436  	86.432660 
601.800861  	86.778157 
602.765285  	86.755959 
603.729709  	86.775246 
604.694134  	86.795747 
605.658558  	86.838717 
606.622983  	86.867788 
607.587407  	86.647925 
608.551832  	86.623077 
609.516256  	86.730943 
610.480681  	86.657819 
611.445105  	86.471386 
612.409530  	86.685525 
613.373954  	86.975005 
614.338378  	86.755349 
615.302803  	86.224696 
616.267227  	86.167351 
617.231652  	86.476725 
618.196076  	86.590956 
619.160501  	86.401985 
620.124925  	86.112112 
621.089350  	85.994884 
622.053774  	85.836701 
623.018199  	86.103914 
623.982623  	86.055874 
624.947047  	85.873531 
625.911472  	85.704748 
626.875896  	85.736406 
627.840321  	85.604493 
628.804745  	85.645313 
629.769170  	85.213331 
630.733594  	84.424080 
631.698019  	84.054113 
632.662443  	84.202566 
633.626868  	84.534086 
634.591292  	85.011024 
635.555717  	85.068650 
636.520141  	85.498362 
637.484565  	85.642455 
638.448990  	85.643244 
639.413414  	85.545969 
640.377839  	85.440749 
641.342263  	85.247220 
642.306688  	85.111846 
643.271112  	85.223323 
644.235537  	85.200190 
645.199961  	85.125836 
646.164386  	85.295638 
647.128810  	85.312424 
648.093234  	84.987220 
649.057659  	84.861116 
650.022083  	84.878235 
650.986508  	84.755839 
651.950932  	84.659591 
652.915357  	84.508886 
653.879781  	84.485943 
654.844206  	84.512752 
655.808630  	84.379095 
656.773055  	84.144855 
657.737479  	84.173579 
658.701903  	84.038846 
659.666328  	83.891251 
660.630752  	83.842337 
661.595177  	83.705153 
662.559601  	83.641307 
663.524026  	83.439540 
664.488450  	83.203243 
665.452875  	83.084470 
666.417299  	83.039349 
667.381724  	83.185809 
668.346148  	83.149722 
669.310572  	82.496744 
670.274997  	82.238053 
671.239421  	82.151459 
672.203846  	81.896395 
673.168270  	81.677972 
674.132695  	81.375300 
675.097119  	81.043598 
676.061544  	80.701677 
677.025968  	80.293248 
677.990393  	79.882737 
678.954817  	79.523090 
679.919241  	79.318327 
680.883666  	79.258621 
681.848090  	79.213067 
682.812515  	79.152336 
683.776939  	78.960359 
684.741364  	78.784031 
685.705788  	78.521325 
686.670213  	78.356097 
687.634637  	77.975618 
688.599062  	77.446244 
689.563486  	76.983213 
690.527910  	76.681766 
691.492335  	76.298201 
692.456759  	75.761230 
693.421184  	75.030570 
694.385608  	74.353750 
695.350033  	73.504944 
696.314457  	72.650419 
697.278882  	71.603490 
698.243306  	70.410308 
699.207731  	69.192517 
700.172155  	68.064826 
701.136580  	66.855907 
702.101004  	65.870820 
703.065428  	64.954622 
704.029853  	64.062314 
704.994277  	63.061471 
705.958702  	62.030865 
706.923126  	60.876269 
707.887551  	59.570708 
708.851975  	58.291740 
709.816400  	56.882792 
710.780824  	55.416720 
711.745249  	53.810811 
712.709673  	52.083924 
713.674097  	50.247730 
714.638522  	48.345349 
715.602946  	46.468643 
716.567371  	44.342806 
717.531795  	42.344782 
718.496220  	40.556775 
719.460644  	39.114901 
720.425069  	38.115341 
721.389493  	37.724909 
722.353918  	37.816498 
723.318342  	38.549840 
724.282766  	40.087246 
725.247191  	42.485343 
726.211615  	45.247266 
727.176040  	48.161163 
728.140464  	51.049409 
729.104889  	54.012386 
730.069313  	56.967453 
731.033738  	59.902000 
731.998162  	62.808085 
732.962587  	65.837877 
733.927011  	68.819114 
734.891435  	71.830761 
735.855860  	74.764364 
736.820284  	77.533372 
737.784709  	80.054874 
738.749133  	82.348378 
739.713558  	84.408175 
740.677982  	86.125961 
741.642407  	87.498639 
742.606831  	88.586928 
743.571256  	89.466713 
744.535680  	90.096029 
745.500104  	90.455709 
746.464529  	90.704670 
747.428953  	90.950563 
748.393378  	91.209341 
749.357802  	91.215424 
750.322227  	91.223933 
751.286651  	91.206644 
752.251076  	91.182575 
753.215500  	91.185021 
754.179925  	91.240521 
755.144349  	91.246797 
756.108774  	91.180251 
757.073198  	91.140866 
758.037622  	91.092598 
759.002047  	90.884518 
759.966471  	90.802567 
760.930896  	90.684662 
761.895320  	90.659898 
762.859745  	90.660856 
763.824169  	90.608304 
764.788594  	90.476248 
765.753018  	90.316037 
766.717443  	90.055842 
767.681867  	89.799995 
768.646291  	89.644720 
769.610716  	89.525498 
770.575140  	89.398815 
771.539565  	89.441964 
772.503989  	89.262582 
773.468414  	89.056522 
774.432838  	88.933451 
775.397263  	88.890132 
776.361687  	88.651120 
777.326112  	88.561481 
778.290536  	88.471981 
779.254960  	88.193075 
780.219385  	87.894204 
781.183809  	87.942386 
782.148234  	87.835326 
783.112658  	87.693831 
784.077083  	87.142350 
785.041507  	86.613420 
786.005932  	86.411677 
786.970356  	85.914814 
787.934781  	85.438786 
788.899205  	85.013026 
789.863629  	84.617341 
790.828054  	84.213271 
791.792478  	83.811426 
792.756903  	83.566951 
793.721327  	83.721837 
794.685752  	84.186044 
795.650176  	84.924629 
796.614601  	85.683243 
797.579025  	86.299365 
798.543450  	86.599447 
799.507874  	86.749634 
800.472298  	86.885079 
801.436723  	86.992230 
802.401147  	86.954720 
803.365572  	86.909999 
804.329996  	86.926542 
805.294421  	86.896861 
806.258845  	86.821093 
807.223270  	86.847684 
808.187694  	86.861602 
809.152119  	86.843290 
810.116543  	86.833510 
811.080967  	86.777950 
812.045392  	86.741405 
813.009816  	86.745821 
813.974241  	86.724665 
814.938665  	86.867412 
815.903090  	86.914176 
816.867514  	86.802600 
817.831939  	86.689737 
818.796363  	86.616861 
819.760788  	86.602518 
820.725212  	86.602957 
821.689637  	86.407045 
822.654061  	86.281986 
823.618485  	86.191613 
824.582910  	85.981442 
825.547334  	85.731230 
826.511759  	85.549129 
827.476183  	85.395611 
828.440608  	85.244558 
829.405032  	85.001978 
830.369457  	84.727677 
831.333881  	84.491543 
832.298306  	84.208052 
833.262730  	83.866220 
834.227154  	83.559869 
835.191579  	83.192119 
836.156003  	82.745586 
837.120428  	82.293839 
838.084852  	81.846591 
839.049277  	81.431839 
840.013701  	80.947641 
840.978126  	80.364307 
841.942550  	79.845007 
842.906975  	79.309048 
843.871399  	78.704737 
844.835823  	78.108142 
845.800248  	77.710598 
846.764672  	77.463582 
847.729097  	77.427535 
848.693521  	77.608180 
849.657946  	78.014612 
850.622370  	78.558652 
851.586795  	79.042000 
852.551219  	79.375773 
853.515644  	79.742071 
854.480068  	80.069837 
855.444492  	80.205933 
856.408917  	80.285842 
857.373341  	80.523895 
858.337766  	80.759250 
859.302190  	80.913395 
860.266615  	81.002161 
861.231039  	81.013199 
862.195464  	80.875489 
863.159888  	80.624695 
864.124313  	80.176397 
865.088737  	79.487567 
866.053161  	78.598876 
867.017586  	77.358728 
867.982010  	75.677239 
868.946435  	73.480368 
869.910859  	70.629842 
870.875284  	67.629367 
871.839708  	65.980257 
872.804133  	66.946051 
873.768557  	69.853405 
874.732982  	72.985762 
875.697406  	75.441601 
876.661831  	77.235623 
877.626255  	78.666106 
878.590679  	79.930913 
879.555104  	80.976433 
880.519528  	81.876618 
881.483953  	82.727590 
882.448377  	83.527951 
883.412802  	84.196249 
884.377226  	84.776370 
885.341651  	85.262128 
886.306075  	85.653324 
887.270500  	85.949759 
888.234924  	86.177534 
889.199348  	86.293847 
890.163773  	86.298311 
891.128197  	86.332385 
892.092622  	86.368454 
893.057046  	86.315858 
894.021471  	86.272705 
894.985895  	86.224717 
895.950320  	86.086945 
896.914744  	85.991909 
897.879169  	86.018053 
898.843593  	86.068476 
899.808017  	86.130021 
900.772442  	86.200309 
901.736866  	86.232851 
902.701291  	86.407776 
903.665715  	86.648206 
904.630140  	86.818814 
905.594564  	86.989121 
906.558989  	87.209632 
907.523413  	87.475919 
908.487838  	87.663315 
909.452262  	87.769799 
910.416686  	87.945126 
911.381111  	88.136927 
912.345535  	88.196122 
913.309960  	88.208159 
914.274384  	88.269195 
915.238809  	88.342129 
916.203233  	88.369389 
917.167658  	88.401480 
918.132082  	88.442579 
919.096507  	88.511213 
920.060931  	88.532356 
921.025355  	88.464376 
921.989780  	88.410151 
922.954204  	88.398384 
923.918629  	88.322296 
924.883053  	88.260630 
925.847478  	88.250544 
926.811902  	88.205829 
927.776327  	88.130077 
928.740751  	88.034024 
929.705176  	88.015695 
930.669600  	87.980555 
931.634024  	87.888200 
932.598449  	87.857582 
933.562873  	87.825543 
934.527298  	87.762971 
935.491722  	87.621383 
936.456147  	87.500853 
937.420571  	87.460505 
938.384996  	87.346155 
939.349420  	87.168367 
940.313845  	87.089983 
941.278269  	87.038066 
942.242694  	86.950549 
943.207118  	86.818488 
944.171542  	86.700194 
945.135967  	86.593726 
946.100391  	86.417275 
947.064816  	86.240078 
948.029240  	86.104094 
948.993665  	85.936543 
949.958089  	85.755377 
950.922514  	85.577641 
951.886938  	85.464853 
952.851363  	85.275345 
953.815787  	84.979285 
954.780211  	84.731963 
955.744636  	84.555603 
956.709060  	84.340434 
957.673485  	84.024233 
958.637909  	83.690011 
959.602334  	83.358230 
960.566758  	82.993419 
961.531183  	82.582445 
962.495607  	82.161186 
963.460032  	81.796569 
964.424456  	81.393846 
965.388880  	80.862785 
966.353305  	80.406466 
967.317729  	80.060874 
968.282154  	79.650708 
969.246578  	79.232129 
970.211003  	79.025637 
971.175427  	78.995615 
972.139852  	79.055674 
973.104276  	79.271550 
974.068701  	79.670541 
975.033125  	80.150603 
975.997549  	80.611039 
976.961974  	81.082629 
977.926398  	81.594292 
978.890823  	82.033789 
979.855247  	82.349599 
980.819672  	82.629464 
981.784096  	82.898353 
982.748521  	83.096062 
983.712945  	83.167541 
984.677370  	83.170870 
985.641794  	83.183931 
986.606218  	83.157769 
987.570643  	83.111994 
988.535067  	83.067680 
989.499492  	83.077883 
990.463916  	83.113442 
991.428341  	83.156346 
992.392765  	83.183175 
993.357190  	83.145899 
994.321614  	83.109500 
995.286039  	83.061062 
996.250463  	82.947372 
997.214888  	82.756504 
998.179312  	82.559893 
999.143736  	82.336666 
1000.108161  	82.071857 
1001.072585  	81.820348 
1002.037010  	81.581015 
1003.001434  	81.265478 
1003.965859  	80.866369 
1004.930283  	80.416118 
1005.894708  	79.896087 
1006.859132  	79.283581 
1007.823557  	78.528497 
1008.787981  	77.632232 
1009.752405  	76.600916 
1010.716830  	75.314543 
1011.681254  	73.714834 
1012.645679  	71.783648 
1013.610103  	69.487656 
1014.574528  	67.007193 
1015.538952  	64.824650 
1016.503377  	63.387518 
1017.467801  	62.809517 
1018.432226  	63.077120 
1019.396650  	64.042259 
1020.361074  	65.409829 
1021.325499  	66.884839 
1022.289923  	68.246498 
1023.254348  	69.588396 
1024.218772  	71.215221 
1025.183197  	73.258914 
1026.147621  	75.426038 
1027.112046  	77.249938 
1028.076470  	78.518506 
1029.040895  	79.261636 
1030.005319  	79.590576 
1030.969743  	79.710416 
1031.934168  	79.708290 
1032.898592  	79.646862 
1033.863017  	79.501598 
1034.827441  	79.240345 
1035.791866  	78.987492 
1036.756290  	78.772771 
1037.720715  	78.566507 
1038.685139  	78.327158 
1039.649564  	78.136401 
1040.613988  	77.948336 
1041.578412  	77.723752 
1042.542837  	77.584564 
1043.507261  	77.601069 
1044.471686  	77.600112 
1045.436110  	77.568947 
1046.400535  	77.620929 
1047.364959  	77.697182 
1048.329384  	77.720799 
1049.293808  	77.813023 
1050.258233  	77.960026 
1051.222657  	78.069585 
1052.187081  	78.115714 
1053.151506  	78.127123 
1054.115930  	78.198193 
1055.080355  	78.195184 
1056.044779  	78.044216 
1057.009204  	77.856134 
1057.973628  	77.687121 
1058.938053  	77.463087 
1059.902477  	77.121294 
1060.866902  	76.705826 
1061.831326  	76.338613 
1062.795751  	75.939664 
1063.760175  	75.444024 
1064.724599  	74.879141 
1065.689024  	74.343861 
1066.653448  	73.793824 
1067.617873  	73.125198 
1068.582297  	72.369806 
1069.546722  	71.623254 
1070.511146  	70.847450 
1071.475571  	69.970898 
1072.439995  	69.003822 
1073.404420  	68.021912 
1074.368844  	66.983316 
1075.333268  	65.797405 
1076.297693  	64.587295 
1077.262117  	63.365876 
1078.226542  	62.138804 
1079.190966  	60.885410 
1080.155391  	59.664616 
1081.119815  	58.511613 
1082.084240  	57.497827 
1083.048664  	56.676170 
1084.013089  	55.978714 
1084.977513  	55.304536 
1085.941937  	54.606260 
1086.906362  	53.996703 
1087.870786  	53.522829 
1088.835211  	53.107423 
1089.799635  	52.694381 
1090.764060  	52.261980 
1091.728484  	51.928057 
1092.692909  	51.676945 
1093.657333  	51.418688 
1094.621758  	51.205536 
1095.586182  	51.148653 
1096.550606  	51.195634 
1097.515031  	51.282789 
1098.479455  	51.436932 
1099.443880  	51.726694 
1100.408304  	52.112454 
1101.372729  	52.500190 
1102.337153  	52.993156 
1103.301578  	53.579418 
1104.266002  	54.204255 
1105.230427  	54.832663 
1106.194851  	55.518287 
1107.159275  	56.236567 
1108.123700  	56.944356 
1109.088124  	57.551112 
1110.052549  	58.050118 
1111.016973  	58.453786 
1111.981398  	58.775522 
1112.945822  	59.076651 
1113.910247  	59.291744 
1114.874671  	59.353903 
1115.839096  	59.253604 
1116.803520  	59.078886 
1117.767945  	58.902740 
1118.732369  	58.790019 
1119.696793  	58.805637 
1120.661218  	58.894624 
1121.625642  	59.031733 
1122.590067  	59.275437 
1123.554491  	59.602913 
1124.518916  	60.025802 
1125.483340  	60.564105 
1126.447765  	61.178742 
1127.412189  	61.875220 
1128.376614  	62.675631 
1129.341038  	63.616985 
1130.305462  	64.684932 
1131.269887  	65.844122 
1132.234311  	67.067547 
1133.198736  	68.363992 
1134.163160  	69.721156 
1135.127585  	71.047987 
1136.092009  	72.389622 
1137.056434  	73.750522 
1138.020858  	75.047332 
1138.985283  	76.229356 
1139.949707  	77.297556 
1140.914131  	78.318127 
1141.878556  	79.289357 
1142.842980  	80.141349 
1143.807405  	80.955497 
1144.771829  	81.749225 
1145.736254  	82.475242 
1146.700678  	83.116508 
1147.665103  	83.654833 
1148.629527  	84.155019 
1149.593952  	84.655664 
1150.558376  	85.123658 
1151.522800  	85.508137 
1152.487225  	85.870119 
1153.451649  	86.182623 
1154.416074  	86.444594 
1155.380498  	86.664742 
1156.344923  	86.893007 
1157.309347  	87.083629 
1158.273772  	87.188775 
1159.238196  	87.252121 
1160.202621  	87.373101 
1161.167045  	87.488083 
1162.131469  	87.492504 
1163.095894  	87.458030 
1164.060318  	87.419395 
1165.024743  	87.334182 
1165.989167  	87.180385 
1166.953592  	86.989852 
1167.918016  	86.747164 
1168.882441  	86.381020 
1169.846865  	85.954404 
1170.811290  	85.569716 
1171.775714  	85.280303 
1172.740138  	85.043621 
1173.704563  	84.810576 
1174.668987  	84.671606 
1175.633412  	84.719244 
1176.597836  	84.842867 
1177.562261  	84.967356 
1178.526685  	85.107832 
1179.491110  	85.283281 
1180.455534  	85.476215 
1181.419959  	85.677248 
1182.384383  	85.847023 
1183.348808  	85.946171 
1184.313232  	86.043029 
1185.277656  	86.082607 
1186.242081  	86.033984 
1187.206505  	85.982696 
1188.170930  	85.917223 
1189.135354  	85.781287 
1190.099779  	85.611379 
1191.064203  	85.422901 
1192.028628  	85.198392 
1192.993052  	84.868545 
1193.957477  	84.509956 
1194.921901  	84.182623 
1195.886325  	83.796581 
1196.850750  	83.359637 
1197.815174  	82.950277 
1198.779599  	82.568821 
1199.744023  	82.157126 
1200.708448  	81.675122 
1201.672872  	81.206613 
1202.637297  	80.785557 
1203.601721  	80.338657 
1204.566146  	79.868837 
1205.530570  	79.418139 
1206.494994  	78.947111 
1207.459419  	78.445083 
1208.423843  	77.930922 
1209.388268  	77.411649 
1210.352692  	76.887351 
1211.317117  	76.308465 
1212.281541  	75.661402 
1213.245966  	75.073224 
1214.210390  	74.459272 
1215.174815  	73.718835 
1216.139239  	72.904684 
1217.103663  	72.090616 
1218.068088  	71.246272 
1219.032512  	70.331321 
1219.996937  	69.405095 
1220.961361  	68.557182 
1221.925786  	67.743211 
1222.890210  	66.926175 
1223.854635  	66.127744 
1224.819059  	65.322546 
1225.783484  	64.510418 
1226.747908  	63.669582 
1227.712332  	62.730825 
1228.676757  	61.691856 
1229.641181  	60.532981 
1230.605606  	59.271497 
1231.570030  	57.944676 
1232.534455  	56.606872 
1233.498879  	55.271053 
1234.463304  	53.979255 
1235.427728  	52.786073 
1236.392153  	51.738527 
1237.356577  	50.807311 
1238.321002  	49.992328 
1239.285426  	49.360934 
1240.249850  	48.874505 
1241.214275  	48.517760 
1242.178699  	48.283925 
1243.143124  	48.155074 
1244.107548  	48.133803 
1245.071973  	48.257400 
1246.036397  	48.436174 
1247.000822  	48.621912 
1247.965246  	48.862198 
1248.929671  	49.154736 
1249.894095  	49.458996 
1250.858519  	49.777338 
1251.822944  	50.108848 
1252.787368  	50.422379 
1253.751793  	50.731359 
1254.716217  	51.016782 
1255.680642  	51.293916 
1256.645066  	51.568397 
1257.609491  	51.816063 
1258.573915  	52.037447 
1259.538340  	52.254264 
1260.502764  	52.523406 
1261.467188  	52.998303 
1262.431613  	53.487767 
1263.396037  	54.007479 
1264.360462  	54.600804 
1265.324886  	55.241309 
1266.289311  	55.921017 
1267.253735  	56.679411 
1268.218160  	57.451607 
1269.182584  	58.239916 
1270.147009  	59.019141 
1271.111433  	59.829523 
1272.075857  	60.640336 
1273.040282  	61.523975 
1274.004706  	62.321759 
1274.969131  	63.072418 
1275.933555  	63.794199 
1276.897980  	64.505490 
1277.862404  	65.211998 
1278.826829  	65.909878 
1279.791253  	66.538207 
1280.755678  	67.176588 
1281.720102  	67.847791 
1282.684526  	68.538837 
1283.648951  	69.196606 
1284.613375  	69.816652 
1285.577800  	70.455209 
1286.542224  	71.046923 
1287.506649  	71.500384 
1288.471073  	72.119670 
1289.435498  	72.937822 
1290.399922  	73.662693 
1291.364347  	74.378544 
1292.328771  	75.156328 
1293.293195  	75.916434 
1294.257620  	76.660541 
1295.222044  	77.364962 
1296.186469  	78.024621 
1297.150893  	78.771319 
1298.115318  	79.661439 
1299.079742  	80.409830 
1300.044167  	81.120767 
1301.008591  	81.808009 
1301.973016  	82.436893 
1302.937440  	82.974505 
1303.901865  	83.468648 
1304.866289  	83.914934 
1305.830713  	84.300622 
1306.795138  	84.638679 
1307.759562  	84.924997 
1308.723987  	85.302748 
1309.688411  	85.804295 
1310.652836  	86.151017 
1311.617260  	86.317572 
1312.581685  	86.210899 
1313.546109  	86.518526 
1314.510534  	86.924587 
1315.474958  	87.350574 
1316.439382  	87.471686 
1317.403807  	87.520458 
1318.368231  	87.676921 
1319.332656  	87.729723 
1320.297080  	88.206956 
1321.261505  	88.593631 
1322.225929  	88.901844 
1323.190354  	89.026496 
1324.154778  	89.171126 
1325.119203  	89.289353 
1326.083627  	89.296905 
1327.048051  	89.228737 
1328.012476  	89.072780 
1328.976900  	88.784430 
1329.941325  	88.319807 
1330.905749  	87.731586 
1331.870174  	86.902904 
1332.834598  	85.751616 
1333.799023  	84.347272 
1334.763447  	82.775269 
1335.727872  	80.910641 
1336.692296  	78.751420 
1337.656720  	77.122318 
1338.621145  	75.320132 
1339.585569  	73.830645 
1340.549994  	73.895227 
1341.514418  	75.400135 
1342.478843  	76.828283 
1343.443267  	78.184592 
1344.407692  	79.821159 
1345.372116  	81.549190 
1346.336541  	83.234221 
1347.300965  	84.768999 
1348.265389  	86.001035 
1349.229814  	86.882319 
1350.194238  	87.781012 
1351.158663  	88.547964 
1352.123087  	89.049388 
1353.087512  	89.464895 
1354.051936  	89.596212 
1355.016361  	89.519633 
1355.980785  	89.941970 
1356.945210  	90.184580 
1357.909634  	90.097776 
1358.874059  	90.161642 
1359.838483  	90.131958 
1360.802907  	89.369251 
1361.767332  	88.723675 
1362.731756  	87.657724 
1363.696181  	87.615164 
1364.660605  	88.907421 
1365.625030  	88.986589 
1366.589454  	88.719396 
1367.553879  	88.202754 
1368.518303  	87.428798 
1369.482728  	87.365417 
1370.447152  	87.772690 
1371.411576  	87.743641 
1372.376001  	87.539579 
1373.340425  	86.771871 
1374.304850  	86.238970 
1375.269274  	86.825634 
1376.233699  	87.826126 
1377.198123  	88.051797 
1378.162548  	87.810069 
1379.126972  	87.935004 
1380.091397  	88.139599 
1381.055821  	88.337320 
1382.020245  	88.340249 
1382.984670  	88.308415 
1383.949094  	88.318973 
1384.913519  	88.256954 
1385.877943  	87.726344 
1386.842368  	86.545199 
1387.806792  	86.347719 
1388.771217  	87.562212 
1389.735641  	88.023878 
1390.700066  	87.938945 
1391.664490  	87.960653 
1392.628914  	87.938330 
1393.593339  	87.181772 
1394.557763  	85.660727 
1395.522188  	85.370319 
1396.486612  	85.988495 
1397.451037  	85.697585 
1398.415461  	84.637542 
1399.379886  	84.025350 
1400.344310  	84.358359 
1401.308735  	84.228605 
1402.273159  	83.336118 
1403.237583  	82.203400 
1404.202008  	80.474082 
1405.166432  	78.410385 
1406.130857  	77.665143 
1407.095281  	77.076173 
1408.059706  	76.207987 
1409.024130  	75.811332 
1409.988555  	75.826841 
1410.952979  	76.532072 
1411.917404  	77.745447 
1412.881828  	79.838877 
1413.846252  	81.894904 
1414.810677  	83.697816 
1415.775101  	84.902283 
1416.739526  	85.618345 
1417.703950  	86.170289 
1418.668375  	86.340752 
1419.632799  	86.747348 
1420.597224  	89.366924 
1421.561648  	90.355087 
1422.526073  	90.667015 
1423.490497  	89.842154 
1424.454922  	89.664184 
1425.419346  	90.980847 
1426.383770  	91.446588 
1427.348195  	91.413075 
1428.312619  	91.097875 
1429.277044  	90.491058 
1430.241468  	90.049235 
1431.205893  	90.578336 
1432.170317  	90.469206 
1433.134742  	90.037759 
1434.099166  	90.135695 
1435.063591  	89.808084 
1436.028015  	88.185862 
1436.992439  	87.107625 
1437.956864  	88.836973 
1438.921288  	89.541438 
1439.885713  	89.592702 
1440.850137  	89.541790 
1441.814562  	89.481147 
1442.778986  	89.475612 
1443.743411  	89.370337 
1444.707835  	89.225256 
1445.672260  	89.071503 
1446.636684  	88.780787 
1447.601108  	87.786180 
1448.565533  	87.652864 
1449.529957  	88.529366 
1450.494382  	88.629119 
1451.458806  	88.061004 
1452.423231  	87.641053 
1453.387655  	88.068585 
1454.352080  	87.589490 
1455.316504  	86.295925 
1456.280929  	85.284228 
1457.245353  	84.602957 
1458.209777  	84.861835 
1459.174202  	85.987251 
1460.138626  	87.730997 
1461.103051  	88.700798 
1462.067475  	88.958416 
1463.031900  	88.992061 
1463.996324  	88.451014 
1464.960749  	87.437148 
1465.925173  	88.075037 
1466.889598  	88.557470 
1467.854022  	88.383652 
1468.818446  	88.086112 
1469.782871  	87.435307 
1470.747295  	86.340316 
1471.711720  	84.414500 
1472.676144  	83.608700 
1473.640569  	84.775552 
1474.604993  	86.812348 
1475.569418  	87.108268 
1476.533842  	86.883977 
1477.498267  	88.602945 
1478.462691  	89.599949 
1479.427116  	89.934250 
1480.391540  	89.858522 
1481.355964  	89.478487 
1482.320389  	90.254994 
1483.284813  	90.982923 
1484.249238  	91.299051 
1485.213662  	91.261789 
1486.178087  	90.734488 
1487.142511  	90.166150 
1488.106936  	90.424041 
1489.071360  	89.445866 
1490.035785  	87.977276 
1491.000209  	89.579945 
1491.964633  	91.557122 
1492.929058  	92.330690 
1493.893482  	92.371953 
1494.857907  	91.935350 
1495.822331  	90.652262 
1496.786756  	90.082134 
1497.751180  	90.659875 
1498.715605  	89.881279 
1499.680029  	89.864313 
1500.644454  	89.934582 
1501.608878  	88.907164 
1502.573302  	88.151327 
1503.537727  	87.584526 
1504.502151  	86.305301 
1505.466576  	84.140959 
1506.431000  	80.620985 
1507.395425  	80.460094 
1508.359849  	83.398164 
1509.324274  	85.759851 
1510.288698  	87.692241 
1511.253123  	89.369979 
1512.217547  	89.473471 
1513.181971  	90.521943 
1514.146396  	91.038975 
1515.110820  	90.022598 
1516.075245  	88.837036 
1517.039669  	87.406793 
1518.004094  	89.532018 
1518.968518  	90.940630 
1519.932943  	89.786619 
1520.897367  	87.076332 
1521.861792  	87.536007 
1522.826216  	89.095578 
1523.790640  	90.252002 
1524.755065  	89.716661 
1525.719489  	89.203848 
1526.683914  	89.877935 
1527.648338  	89.481418 
1528.612763  	90.058309 
1529.577187  	91.343788 
1530.541612  	91.675567 
1531.506036  	90.749516 
1532.470461  	90.142211 
1533.434885  	89.149196 
1534.399309  	89.678453 
1535.363734  	90.733075 
1536.328158  	91.270670 
1537.292583  	91.377757 
1538.257007  	90.184026 
1539.221432  	87.351176 
1540.185856  	87.248592 
1541.150281  	88.576441 
1542.114705  	88.547053 
1543.079130  	88.645632 
1544.043554  	88.691906 
1545.007979  	88.273653 
1545.972403  	89.665809 
1546.936827  	91.310533 
1547.901252  	91.605818 
1548.865676  	90.942932 
1549.830101  	88.911961 
1550.794525  	89.532094 
1551.758950  	91.172585 
1552.723374  	91.181330 
1553.687799  	90.142668 
1554.652223  	89.119933 
1555.616648  	90.264837 
1556.581072  	90.360646 
1557.545496  	88.855408 
1558.509921  	84.697934 
1559.474345  	84.179595 
1560.438770  	87.510637 
1561.403194  	90.187586 
1562.367619  	91.003296 
1563.332043  	91.184397 
1564.296468  	90.697504 
1565.260892  	90.348732 
1566.225317  	90.972167 
1567.189741  	91.155956 
1568.154165  	90.613304 
1569.118590  	88.992063 
1570.083014  	88.725050 
1571.047439  	90.209005 
1572.011863  	90.494427 
1572.976288  	90.323303 
1573.940712  	90.081672 
1574.905137  	89.444961 
1575.869561  	88.009250 
1576.833986  	87.396892 
1577.798410  	88.359024 
1578.762834  	89.047868 
1579.727259  	89.411961 
1580.691683  	89.738325 
1581.656108  	90.015625 
1582.620532  	90.270177 
1583.584957  	90.525032 
1584.549381  	90.810117 
1585.513806  	91.010839 
1586.478230  	91.174446 
1587.442655  	91.272902 
1588.407079  	91.338560 
1589.371503  	91.218228 
1590.335928  	91.188406 
1591.300352  	91.237156 
1592.264777  	91.266330 
1593.229201  	91.282362 
1594.193626  	90.992386 
1595.158050  	90.918732 
1596.122475  	91.061000 
1597.086899  	91.140658 
1598.051324  	91.228930 
1599.015748  	91.156276 
1599.980173  	91.087177 
1600.944597  	90.792087 
1601.909021  	90.641544 
1602.873446  	90.386883 
1603.837870  	90.370810 
1604.802295  	90.572000 
1605.766719  	90.475390 
1606.731144  	90.030202 
1607.695568  	89.823751 
1608.659993  	89.744400 
1609.624417  	89.321154 
1610.588842  	89.560173 
1611.553266  	89.688719 
1612.517690  	89.570989 
1613.482115  	89.540684 
1614.446539  	89.449963 
1615.410964  	88.999249 
1616.375388  	87.916376 
1617.339813  	88.048739 
1618.304237  	89.131456 
1619.268662  	89.512901 
1620.233086  	89.586744 
1621.197511  	89.599341 
1622.161935  	89.170544 
1623.126359  	88.122463 
1624.090784  	88.352579 
1625.055208  	89.308860 
1626.019633  	89.488557 
1626.984057  	89.154933 
1627.948482  	88.570095 
1628.912906  	89.097833 
1629.877331  	89.438956 
1630.841755  	89.428653 
1631.806180  	89.365297 
1632.770604  	89.291082 
1633.735028  	88.893171 
1634.699453  	87.749521 
1635.663877  	85.989842 
1636.628302  	87.018023 
1637.592726  	87.192688 
1638.557151  	88.050438 
1639.521575  	88.517162 
1640.486000  	88.472212 
1641.450424  	88.456309 
1642.414849  	88.353648 
1643.379273  	88.369396 
1644.343697  	88.206357 
1645.308122  	87.217525 
1646.272546  	85.657979 
1647.236971  	85.002480 
1648.201395  	85.347840 
1649.165820  	86.864413 
1650.130244  	87.415496 
1651.094669  	87.023682 
1652.059093  	85.795378 
1653.023518  	82.383161 
1653.987942  	82.137188 
1654.952366  	84.583720 
1655.916791  	86.057980 
1656.881215  	86.293719 
1657.845640  	86.394506 
1658.810064  	86.408695 
1659.774489  	86.251088 
1660.738913  	85.685077 
1661.703338  	84.856136 
1662.667762  	83.861178 
1663.632187  	84.074508 
1664.596611  	84.336817 
1665.561036  	84.127720 
1666.525460  	83.759677 
1667.489884  	82.948768 
1668.454309  	81.193687 
1669.418733  	80.148970 
1670.383158  	80.831571 
1671.347582  	80.269415 
1672.312007  	80.267173 
1673.276431  	80.510985 
1674.240856  	79.756591 
1675.205280  	78.233266 
1676.169705  	78.324151 
1677.134129  	78.624012 
1678.098553  	78.181620 
1679.062978  	77.206723 
1680.027402  	75.385249 
1680.991827  	75.038249 
1681.956251  	75.224884 
1682.920676  	73.733538 
1683.885100  	70.058148 
1684.849525  	70.255358 
1685.813949  	73.216082 
1686.778374  	73.493939 
1687.742798  	72.540612 
1688.707222  	71.575082 
1689.671647  	71.167644 
1690.636071  	70.586558 
1691.600496  	70.212841 
1692.564920  	69.361585 
1693.529345  	68.093015 
1694.493769  	66.483675 
1695.458194  	64.158434 
1696.422618  	62.027172 
1697.387043  	61.550332 
1698.351467  	60.500948 
1699.315891  	58.706023 
1700.280316  	55.019973 
1701.244740  	54.570553 
1702.209165  	54.440810 
1703.173589  	53.319605 
1704.138014  	51.596095 
1705.102438  	50.085580 
1706.066863  	48.925498 
1707.031287  	47.843402 
1707.995712  	47.520422 
1708.960136  	47.051872 
1709.924560  	46.245114 
1710.888985  	45.924088 
1711.853409  	46.097231 
1712.817834  	46.055816 
1713.782258  	45.884570 
1714.746683  	45.955480 
1715.711107  	47.240817 
1716.675532  	48.104610 
1717.639956  	48.133321 
1718.604381  	50.334689 
1719.568805  	53.229428 
1720.533230  	54.925425 
1721.497654  	56.250107 
1722.462078  	57.472527 
1723.426503  	58.486739 
1724.390927  	60.099017 
1725.355352  	61.588440 
1726.319776  	62.881048 
1727.284201  	64.188505 
1728.248625  	65.467043 
1729.213050  	65.994262 
1730.177474  	66.515090 
1731.141899  	68.742034 
1732.106323  	69.988919 
1733.070747  	69.862141 
1734.035172  	69.434905 
1734.999596  	73.128376 
1735.964021  	75.934833 
1736.928445  	77.279584 
1737.892870  	78.532613 
1738.857294  	79.342726 
1739.821719  	80.028967 
1740.786143  	82.397940 
1741.750568  	83.897697 
1742.714992  	84.026690 
1743.679416  	84.247546 
1744.643841  	86.089117 
1745.608265  	87.454138 
1746.572690  	87.884607 
1747.537114  	88.056890 
1748.501539  	88.261129 
1749.465963  	89.019439 
1750.430388  	89.566333 
1751.394812  	89.095607 
1752.359237  	90.800189 
1753.323661  	92.126023 
1754.288085  	92.740873 
1755.252510  	92.890478 
1756.216934  	92.216681 
1757.181359  	91.671655 
1758.145783  	92.513907 
1759.110208  	93.062794 
1760.074632  	93.300920 
1761.039057  	92.608971 
1762.003481  	91.697112 
1762.967906  	92.910300 
1763.932330  	93.685445 
1764.896754  	93.862472 
1765.861179  	93.925720 
1766.825603  	93.727421 
1767.790028  	92.674301 
1768.754452  	92.528669 
1769.718877  	93.590836 
1770.683301  	93.184458 
1771.647726  	91.978734 
1772.612150  	91.615396 
1773.576575  	92.928762 
1774.540999  	93.525379 
1775.505423  	93.091565 
1776.469848  	93.482310 
1777.434272  	94.187752 
1778.398697  	93.968891 
1779.363121  	93.597866 
1780.327546  	93.107706 
1781.291970  	93.108377 
1782.256395  	93.905459 
1783.220819  	94.208692 
1784.185244  	93.809175 
1785.149668  	93.242512 
1786.114093  	93.902107 
1787.078517  	94.338301 
1788.042941  	94.300866 
1789.007366  	94.217148 
1789.971790  	93.847611 
1790.936215  	92.780082 
1791.900639  	92.250929 
1792.865064  	92.270050 
1793.829488  	93.424998 
1794.793913  	93.785397 
1795.758337  	93.060596 
1796.722762  	93.101863 
1797.687186  	93.945342 
1798.651610  	93.928089 
1799.616035  	93.335163 
1800.580459  	93.365675 
1801.544884  	93.099248 
1802.509308  	92.904431 
1803.473733  	93.786192 
1804.438157  	94.253702 
1805.402582  	94.199137 
1806.367006  	94.173482 
1807.331431  	93.892429 
1808.295855  	93.789352 
1809.260279  	94.094554 
1810.224704  	93.540163 
1811.189128  	93.147661 
1812.153553  	93.519182 
1813.117977  	93.954077 
1814.082402  	94.381388 
1815.046826  	94.420373 
1816.011251  	94.391479 
1816.975675  	94.045359 
1817.940100  	93.884271 
1818.904524  	94.242132 
1819.868948  	94.375962 
1820.833373  	94.329700 
1821.797797  	94.203451 
1822.762222  	93.940741 
1823.726646  	93.939162 
1824.691071  	93.320256 
1825.655495  	92.709746 
1826.619920  	93.838494 
1827.584344  	94.220899 
1828.548769  	93.664863 
1829.513193  	92.360451 
1830.477617  	92.602387 
1831.442042  	93.924945 
1832.406466  	94.270441 
1833.370891  	94.132792 
1834.335315  	94.361799 
1835.299740  	94.582032 
1836.264164  	94.382830 
1837.228589  	93.853982 
1838.193013  	94.114754 
1839.157438  	94.501192 
1840.121862  	94.590199 
1841.086287  	94.531605 
1842.050711  	94.103473 
1843.015135  	93.708770 
1843.979560  	92.894390 
1844.943984  	92.879030 
1845.908409  	93.788131 
1846.872833  	94.063359 
1847.837258  	93.629913 
1848.801682  	93.982407 
1849.766107  	94.654488 
1850.730531  	94.892417 
1851.694956  	94.892159 
1852.659380  	94.813779 
1853.623804  	94.856549 
1854.588229  	94.867497 
1855.552653  	94.919461 
1856.517078  	94.904831 
1857.481502  	94.887750 
1858.445927  	94.703631 
1859.410351  	94.630403 
1860.374776  	94.687766 
1861.339200  	94.598324 
1862.303625  	94.679169 
1863.268049  	94.845915 
1864.232473  	94.832760 
1865.196898  	94.794079 
1866.161322  	94.439472 
1867.125747  	94.015021 
1868.090171  	93.371844 
1869.054596  	92.905189 
1870.019020  	93.538228 
1870.983445  	94.327144 
1871.947869  	94.764098 
1872.912294  	95.043172 
1873.876718  	95.074896 
1874.841142  	95.043689 
1875.805567  	95.035903 
1876.769991  	95.093377 
1877.734416  	95.138819 
1878.698840  	95.018210 
1879.663265  	94.875253 
1880.627689  	94.955198 
1881.592114  	94.937239 
1882.556538  	94.909287 
1883.520963  	94.965814 
1884.485387  	94.925326 
1885.449811  	94.871055 
1886.414236  	95.051471 
1887.378660  	95.060409 
1888.343085  	94.736255 
1889.307509  	93.853807 
1890.271934  	93.910925 
1891.236358  	94.708508 
1892.200783  	94.884542 
1893.165207  	94.884025 
1894.129632  	94.734542 
1895.094056  	94.242305 
1896.058480  	94.478623 
1897.022905  	94.928203 
1897.987329  	94.880735 
1898.951754  	94.822093 
1899.916178  	94.924470 
1900.880603  	94.991768 
1901.845027  	94.812431 
1902.809452  	94.822124 
1903.773876  	94.917031 
1904.738301  	94.894487 
1905.702725  	94.850723 
1906.667150  	94.840327 
1907.631574  	94.595263 
1908.595998  	94.507802 
1909.560423  	94.407269 
1910.524847  	94.338139 
1911.489272  	94.793037 
1912.453696  	94.922828 
1913.418121  	94.878431 
1914.382545  	94.776863 
1915.346970  	94.783057 
1916.311394  	94.820871 
1917.275819  	94.351214 
1918.240243  	93.621328 
1919.204667  	94.402240 
1920.169092  	94.822260 
1921.133516  	94.732107 
1922.097941  	94.007504 
1923.062365  	93.257029 
1924.026790  	94.159428 
1924.991214  	94.897478 
1925.955639  	94.795621 
1926.920063  	94.827368 
1927.884488  	94.897273 
1928.848912  	94.842611 
1929.813336  	94.789481 
1930.777761  	94.872503 
1931.742185  	94.868297 
1932.706610  	94.835321 
1933.671034  	94.831587 
1934.635459  	94.875000 
1935.599883  	94.958749 
1936.564308  	95.046186 
1937.528732  	94.816053 
1938.493157  	94.729376 
1939.457581  	94.825095 
1940.422005  	94.765415 
1941.386430  	94.345792 
1942.350854  	93.389390 
1943.315279  	93.450943 
1944.279703  	94.416192 
1945.244128  	94.337191 
1946.208552  	94.153656 
1947.172977  	94.187461 
1948.137401  	94.360884 
1949.101826  	94.499510 
1950.066250  	94.805946 
1951.030674  	94.731831 
1951.995099  	94.474019 
1952.959523  	94.466285 
1953.923948  	94.383448 
1954.888372  	94.255736 
1955.852797  	94.234590 
1956.817221  	94.355347 
1957.781646  	94.508662 
1958.746070  	94.486989 
1959.710495  	94.579093 
1960.674919  	94.406829 
1961.639344  	94.111293 
1962.603768  	94.049842 
1963.568192  	94.506539 
1964.532617  	94.899406 
1965.497041  	95.102198 
1966.461466  	94.684016 
1967.425890  	94.007986 
1968.390315  	94.484607 
1969.354739  	94.718609 
1970.319164  	94.626159 
1971.283588  	94.912212 
1972.248013  	95.091791 
1973.212437  	95.067877 
1974.176861  	94.759011 
1975.141286  	94.678581 
1976.105710  	95.035090 
1977.070135  	95.515654 
1978.034559  	95.421912 
1978.998984  	95.015328 
1979.963408  	94.632066 
1980.927833  	94.385296 
1981.892257  	94.421654 
1982.856682  	94.677024 
1983.821106  	94.686474 
1984.785530  	94.671613 
1985.749955  	94.672233 
1986.714379  	94.813263 
1987.678804  	94.610357 
1988.643228  	94.518723 
1989.607653  	94.960503 
1990.572077  	94.965636 
1991.536502  	94.265812 
1992.500926  	93.760942 
1993.465351  	94.240427 
1994.429775  	94.760784 
1995.394199  	94.947637 
1996.358624  	95.002353 
1997.323048  	94.914396 
1998.287473  	94.891128 
1999.251897  	94.930188 
2000.216322  	95.186238 
2001.180746  	95.445966 
2002.145171  	95.535986 
2003.109595  	95.597778 
2004.074020  	95.560076 
2005.038444  	95.515349 
2006.002868  	95.510732 
2006.967293  	95.408917 
2007.931717  	95.047928 
2008.896142  	94.989619 
2009.860566  	95.373114 
2010.824991  	95.330878 
2011.789415  	95.316948 
2012.753840  	95.390714 
2013.718264  	95.200054 
2014.682689  	94.960043 
2015.647113  	95.160644 
2016.611537  	94.855661 
2017.575962  	94.554431 
2018.540386  	94.585808 
2019.504811  	94.948544 
2020.469235  	95.306113 
2021.433660  	95.421083 
2022.398084  	95.488875 
2023.362509  	95.757497 
2024.326933  	95.372323 
2025.291358  	95.105842 
2026.255782  	95.212733 
2027.220207  	95.227878 
2028.184631  	95.269792 
2029.149055  	95.650705 
2030.113480  	96.158456 
2031.077904  	96.409269 
2032.042329  	95.963437 
2033.006753  	95.615565 
2033.971178  	95.577256 
2034.935602  	95.821033 
2035.900027  	95.724726 
2036.864451  	95.501394 
2037.828876  	95.409984 
2038.793300  	95.378435 
2039.757724  	95.158980 
2040.722149  	95.202607 
2041.686573  	95.098182 
2042.650998  	95.061545 
2043.615422  	95.125896 
2044.579847  	95.372434 
2045.544271  	95.674985 
2046.508696  	95.837234 
2047.473120  	95.581081 
2048.437545  	95.516601 
2049.401969  	95.463589 
2050.366393  	95.101354 
2051.330818  	94.867924 
2052.295242  	95.158753 
2053.259667  	95.322826 
2054.224091  	95.166217 
2055.188516  	94.880795 
2056.152940  	94.837115 
2057.117365  	94.857797 
2058.081789  	94.949987 
2059.046214  	95.022496 
2060.010638  	94.964965 
2060.975062  	94.775376 
2061.939487  	94.862361 
2062.903911  	95.007473 
2063.868336  	94.877257 
2064.832760  	94.587606 
2065.797185  	94.768803 
2066.761609  	94.922668 
2067.726034  	94.913005 
2068.690458  	94.871349 
2069.654883  	94.894179 
2070.619307  	94.941460 
2071.583731  	94.910651 
2072.548156  	94.850604 
2073.512580  	94.738000 
2074.477005  	94.686486 
2075.441429  	94.927971 
2076.405854  	94.872924 
2077.370278  	94.690895 
2078.334703  	94.735533 
2079.299127  	94.718803 
2080.263552  	94.651114 
2081.227976  	94.672621 
2082.192401  	94.670052 
2083.156825  	94.580519 
2084.121249  	94.640802 
2085.085674  	94.857682 
2086.050098  	94.778981 
2087.014523  	94.563968 
2087.978947  	94.551092 
2088.943372  	94.576368 
2089.907796  	94.437064 
2090.872221  	94.559406 
2091.836645  	94.922890 
2092.801070  	94.927129 
2093.765494  	94.905000 
2094.729918  	94.918722 
2095.694343  	94.794511 
2096.658767  	94.648104 
2097.623192  	94.619176 
2098.587616  	94.625757 
2099.552041  	94.642025 
2100.516465  	94.641114 
2101.480890  	94.622112 
2102.445314  	94.620312 
2103.409739  	94.664346 
2104.374163  	94.715710 
2105.338587  	94.644170 
2106.303012  	94.590215 
2107.267436  	94.600167 
2108.231861  	94.664200 
2109.196285  	94.697837 
2110.160710  	94.767258 
2111.125134  	94.809675 
2112.089559  	94.591087 
2113.053983  	94.546063 
2114.018408  	94.673163 
2114.982832  	94.575957 
2115.947256  	94.424629 
2116.911681  	94.533332 
2117.876105  	94.710162 
2118.840530  	94.806256 
2119.804954  	94.799180 
2120.769379  	94.723917 
2121.733803  	94.745736 
2122.698228  	94.890677 
2123.662652  	94.885789 
2124.627077  	94.841539 
2125.591501  	94.936241 
2126.555925  	95.081021 
2127.520350  	95.018674 
2128.484774  	95.009345 
2129.449199  	95.220275 
2130.413623  	95.258165 
2131.378048  	95.209203 
2132.342472  	95.364555 
2133.306897  	95.418585 
2134.271321  	95.137030 
2135.235746  	94.843960 
2136.200170  	94.802248 
2137.164594  	95.178181 
2138.129019  	95.457466 
2139.093443  	95.491799 
2140.057868  	95.505100 
2141.022292  	95.424157 
2141.986717  	95.333967 
2142.951141  	95.332707 
2143.915566  	95.461922 
2144.879990  	95.402580 
2145.844415  	95.469474 
2146.808839  	95.454009 
2147.773264  	95.367614 
2148.737688  	95.470119 
2149.702112  	95.557591 
2150.666537  	95.407154 
2151.630961  	95.569836 
2152.595386  	95.921849 
2153.559810  	95.868501 
2154.524235  	95.920177 
2155.488659  	96.209764 
2156.453084  	96.404349 
2157.417508  	96.161751 
2158.381933  	95.830447 
2159.346357  	95.348405 
2160.310781  	95.049618 
2161.275206  	95.036685 
2162.239630  	95.357029 
2163.204055  	95.627106 
2164.168479  	95.445206 
2165.132904  	95.308684 
2166.097328  	95.346659 
2167.061753  	95.438187 
2168.026177  	95.375341 
2168.990602  	95.114040 
2169.955026  	95.074587 
2170.919450  	95.508910 
2171.883875  	95.413609 
2172.848299  	95.186761 
2173.812724  	95.282158 
2174.777148  	95.651888 
2175.741573  	95.676475 
2176.705997  	95.422997 
2177.670422  	95.314776 
2178.634846  	95.358107 
2179.599271  	95.365227 
2180.563695  	95.347590 
2181.528119  	95.537042 
2182.492544  	95.343914 
2183.456968  	94.813359 
2184.421393  	94.893398 
2185.385817  	95.460068 
2186.350242  	95.405041 
2187.314666  	95.064402 
2188.279091  	95.090567 
2189.243515  	95.140285 
2190.207940  	95.155583 
2191.172364  	95.355044 
2192.136788  	95.489292 
2193.101213  	95.413454 
2194.065637  	95.194726 
2195.030062  	94.988286 
2195.994486  	94.837476 
2196.958911  	95.086606 
2197.923335  	95.293221 
2198.887760  	95.303134 
2199.852184  	95.453121 
2200.816609  	95.421051 
2201.781033  	95.310809 
2202.745458  	95.318985 
2203.709882  	95.357621 
2204.674306  	95.197789 
2205.638731  	94.966541 
2206.603155  	94.933670 
2207.567580  	95.082007 
2208.532004  	95.149160 
2209.496429  	95.052337 
2210.460853  	95.077929 
2211.425278  	95.214247 
2212.389702  	95.142236 
2213.354127  	94.761432 
2214.318551  	94.615601 
2215.282975  	94.734733 
2216.247400  	94.889163 
2217.211824  	95.015880 
2218.176249  	95.138962 
2219.140673  	95.126976 
2220.105098  	94.866156 
2221.069522  	94.801579 
2222.033947  	95.018140 
2222.998371  	94.961023 
2223.962796  	94.827365 
2224.927220  	94.994040 
2225.891644  	94.927708 
2226.856069  	94.682386 
2227.820493  	94.714149 
2228.784918  	94.940033 
2229.749342  	94.891820 
2230.713767  	94.850418 
2231.678191  	94.804231 
2232.642616  	94.736015 
2233.607040  	94.895837 
2234.571465  	94.944981 
2235.535889  	94.874577 
2236.500313  	94.716082 
2237.464738  	94.703057 
2238.429162  	94.783638 
2239.393587  	94.787750 
2240.358011  	94.766965 
2241.322436  	94.944274 
2242.286860  	94.859641 
2243.251285  	94.787748 
2244.215709  	94.892017 
2245.180134  	94.733811 
2246.144558  	94.614748 
2247.108982  	94.643125 
2248.073407  	94.672442 
2249.037831  	94.564184 
2250.002256  	94.497824 
2250.966680  	94.629953 
2251.931105  	94.782721 
2252.895529  	94.812419 
2253.859954  	94.851231 
2254.824378  	94.741372 
2255.788803  	94.672717 
2256.753227  	94.607850 
2257.717651  	94.604390 
2258.682076  	94.572512 
2259.646500  	94.602712 
2260.610925  	94.607012 
2261.575349  	94.551576 
2262.539774  	94.544410 
2263.504198  	94.560009 
2264.468623  	94.500111 
2265.433047  	94.597716 
2266.397472  	94.641872 
2267.361896  	94.567569 
2268.326321  	94.547689 
2269.290745  	94.566441 
2270.255169  	94.609880 
2271.219594  	94.609793 
2272.184018  	94.501637 
2273.148443  	94.497858 
2274.112867  	94.548320 
2275.077292  	94.497237 
2276.041716  	94.451347 
2277.006141  	94.460822 
2277.970565  	94.459496 
2278.934990  	94.432373 
2279.899414  	94.329581 
2280.863838  	94.275565 
2281.828263  	94.255349 
2282.792687  	94.260833 
2283.757112  	94.316148 
2284.721536  	94.320971 
2285.685961  	94.262559 
2286.650385  	94.270350 
2287.614810  	94.255704 
2288.579234  	94.220876 
2289.543659  	94.138392 
2290.508083  	94.210464 
2291.472507  	94.218135 
2292.436932  	94.277216 
2293.401356  	94.225921 
2294.365781  	94.142796 
2295.330205  	94.215033 
2296.294630  	94.169026 
2297.259054  	94.152000 
2298.223479  	94.075555 
2299.187903  	94.072006 
2300.152328  	94.124083 
2301.116752  	94.095498 
2302.081176  	94.092743 
2303.045601  	94.010795 
2304.010025  	94.115849 
2304.974450  	93.987396 
2305.938874  	93.995491 
2306.903299  	93.924487 
2307.867723  	94.031701 
2308.832148  	93.898568 
2309.796572  	93.945210 
2310.760997  	93.943348 
2311.725421  	94.002142 
2312.689845  	94.070200 
2313.654270  	94.144407 
2314.618694  	94.175653 
2315.583119  	94.334074 
2316.547543  	94.435520 
2317.511968  	94.415435 
2318.476392  	94.330253 
2319.440817  	94.381331 
2320.405241  	94.407566 
2321.369666  	94.500857 
2322.334090  	94.558672 
2323.298515  	94.516980 
2324.262939  	94.519985 
2325.227363  	94.904642 
2326.191788  	95.262932 
2327.156212  	95.488419 
2328.120637  	95.579379 
2329.085061  	95.607202 
2330.049486  	95.698617 
2331.013910  	95.767676 
2331.978335  	95.953472 
2332.942759  	96.119878 
2333.907184  	96.266877 
2334.871608  	96.361487 
2335.836032  	96.584662 
2336.800457  	96.697397 
2337.764881  	96.665443 
2338.729306  	96.617309 
2339.693730  	96.530022 
2340.658155  	96.598579 
2341.622579  	96.685857 
2342.587004  	96.533675 
2343.551428  	96.266521 
2344.515853  	96.041564 
2345.480277  	95.852688 
2346.444701  	95.591276 
2347.409126  	95.377551 
2348.373550  	94.951905 
2349.337975  	94.706247 
2350.302399  	95.017820 
2351.266824  	95.540318 
2352.231248  	96.022542 
2353.195673  	96.273803 
2354.160097  	96.391941 
2355.124522  	96.580259 
2356.088946  	96.841924 
2357.053370  	96.976725 
2358.017795  	97.100751 
2358.982219  	97.107556 
2359.946644  	97.300219 
2360.911068  	97.389137 
2361.875493  	97.249662 
2362.839917  	97.231325 
2363.804342  	97.170267 
2364.768766  	96.991743 
2365.733191  	96.943762 
2366.697615  	96.807527 
2367.662039  	96.515686 
2368.626464  	96.206248 
2369.590888  	95.941228 
2370.555313  	95.702854 
2371.519737  	95.416708 
2372.484162  	95.229209 
2373.448586  	95.004766 
2374.413011  	94.789129 
2375.377435  	94.609433 
2376.341860  	94.459324 
2377.306284  	94.341427 
2378.270708  	94.212180 
2379.235133  	94.071624 
2380.199557  	94.056306 
2381.163982  	94.083357 
2382.128406  	94.107700 
2383.092831  	94.149331 
2384.057255  	94.208497 
2385.021680  	94.268466 
2385.986104  	94.322729 
2386.950529  	94.372127 
2387.914953  	94.428594 
2388.879378  	94.461918 
2389.843802  	94.539471 
2390.808226  	94.563487 
2391.772651  	94.500557 
2392.737075  	94.470309 
2393.701500  	94.543425 
2394.665924  	94.561680 
2395.630349  	94.518122 
2396.594773  	94.500382 
2397.559198  	94.513260 
2398.523622  	94.534641 
2399.488047  	94.562263 
2400.452471  	94.520507 
2401.416895  	94.471592 
2402.381320  	94.511939 
2403.345744  	94.533408 
2404.310169  	94.526145 
2405.274593  	94.502113 
2406.239018  	94.491315 
2407.203442  	94.497022 
2408.167867  	94.493621 
2409.132291  	94.500620 
2410.096716  	94.489340 
2411.061140  	94.472137 
2412.025564  	94.527365 
2412.989989  	94.563600 
2413.954413  	94.528681 
2414.918838  	94.539961 
2415.883262  	94.512525 
2416.847687  	94.504779 
2417.812111  	94.530862 
2418.776536  	94.492201 
2419.740960  	94.470890 
2420.705385  	94.557406 
2421.669809  	94.540104 
2422.634233  	94.519109 
2423.598658  	94.514095 
2424.563082  	94.521817 
2425.527507  	94.564177 
2426.491931  	94.563317 
2427.456356  	94.523159 
2428.420780  	94.603490 
2429.385205  	94.611109 
2430.349629  	94.569863 
2431.314054  	94.507589 
2432.278478  	94.515088 
2433.242902  	94.567595 
2434.207327  	94.568612 
2435.171751  	94.586308 
2436.136176  	94.656551 
2437.100600  	94.668473 
2438.065025  	94.584355 
2439.029449  	94.592869 
2439.993874  	94.602724 
2440.958298  	94.560329 
2441.922723  	94.558023 
2442.887147  	94.529388 
2443.851572  	94.539274 
2444.815996  	94.595342 
2445.780420  	94.559994 
2446.744845  	94.485252 
2447.709269  	94.525037 
2448.673694  	94.576165 
2449.638118  	94.576622 
2450.602543  	94.515985 
2451.566967  	94.478282 
2452.531392  	94.432635 
2453.495816  	94.413220 
2454.460241  	94.491772 
2455.424665  	94.549856 
2456.389089  	94.533408 
2457.353514  	94.569093 
2458.317938  	94.605799 
2459.282363  	94.584213 
2460.246787  	94.571013 
2461.211212  	94.586158 
2462.175636  	94.578204 
2463.140061  	94.545821 
2464.104485  	94.547362 
2465.068910  	94.580511 
2466.033334  	94.544675 
2466.997758  	94.503405 
2467.962183  	94.553243 
2468.926607  	94.541926 
2469.891032  	94.489909 
2470.855456  	94.563952 
2471.819881  	94.598571 
2472.784305  	94.581548 
2473.748730  	94.573605 
2474.713154  	94.640445 
2475.677579  	94.634561 
2476.642003  	94.591405 
2477.606427  	94.597397 
2478.570852  	94.642566 
2479.535276  	94.583473 
2480.499701  	94.495255 
2481.464125  	94.509452 
2482.428550  	94.578115 
2483.392974  	94.585708 
2484.357399  	94.620689 
2485.321823  	94.562498 
2486.286248  	94.455013 
2487.250672  	94.456651 
2488.215096  	94.514231 
2489.179521  	94.490755 
2490.143945  	94.464554 
2491.108370  	94.421375 
2492.072794  	94.414221 
2493.037219  	94.452618 
2494.001643  	94.481270 
2494.966068  	94.490610 
2495.930492  	94.580966 
2496.894917  	94.568794 
2497.859341  	94.465425 
2498.823765  	94.432891 
2499.788190  	94.440044 
2500.752614  	94.438783 
2501.717039  	94.442612 
2502.681463  	94.471269 
2503.645888  	94.505837 
2504.610312  	94.471402 
2505.574737  	94.414947 
2506.539161  	94.420126 
2507.503586  	94.518802 
2508.468010  	94.530009 
2509.432435  	94.443998 
2510.396859  	94.414770 
2511.361283  	94.446787 
2512.325708  	94.407786 
2513.290132  	94.429382 
2514.254557  	94.466910 
2515.218981  	94.429088 
2516.183406  	94.394217 
2517.147830  	94.444586 
2518.112255  	94.400435 
2519.076679  	94.387696 
2520.041104  	94.452274 
2521.005528  	94.452032 
2521.969952  	94.379702 
2522.934377  	94.366121 
2523.898801  	94.406083 
2524.863226  	94.441882 
2525.827650  	94.391786 
2526.792075  	94.375787 
2527.756499  	94.413653 
2528.720924  	94.437976 
2529.685348  	94.356305 
2530.649773  	94.361149 
2531.614197  	94.388876 
2532.578621  	94.391608 
2533.543046  	94.407832 
2534.507470  	94.429354 
2535.471895  	94.387342 
2536.436319  	94.346327 
2537.400744  	94.356201 
2538.365168  	94.338004 
2539.329593  	94.331352 
2540.294017  	94.359080 
2541.258442  	94.316725 
2542.222866  	94.312517 
2543.187290  	94.399084 
2544.151715  	94.464470 
2545.116139  	94.427128 
2546.080564  	94.336175 
2547.044988  	94.250469 
2548.009413  	94.248952 
2548.973837  	94.300817 
2549.938262  	94.355521 
2550.902686  	94.390682 
2551.867111  	94.351271 
2552.831535  	94.278741 
2553.795959  	94.242374 
2554.760384  	94.287286 
2555.724808  	94.326137 
2556.689233  	94.299190 
2557.653657  	94.237140 
2558.618082  	94.182358 
2559.582506  	94.280914 
2560.546931  	94.332594 
2561.511355  	94.289978 
2562.475780  	94.296525 
2563.440204  	94.283158 
2564.404629  	94.289600 
2565.369053  	94.320037 
2566.333477  	94.318348 
2567.297902  	94.322804 
2568.262326  	94.308283 
2569.226751  	94.211806 
2570.191175  	94.165521 
2571.155600  	94.236050 
2572.120024  	94.247095 
2573.084449  	94.291556 
2574.048873  	94.272231 
2575.013298  	94.221614 
2575.977722  	94.194337 
2576.942146  	94.243824 
2577.906571  	94.282061 
2578.870995  	94.280915 
2579.835420  	94.292694 
2580.799844  	94.347778 
2581.764269  	94.305814 
2582.728693  	94.298154 
2583.693118  	94.242917 
2584.657542  	94.200594 
2585.621967  	94.260193 
2586.586391  	94.249644 
2587.550815  	94.260812 
2588.515240  	94.274133 
2589.479664  	94.238616 
2590.444089  	94.220621 
2591.408513  	94.274553 
2592.372938  	94.307936 
2593.337362  	94.290470 
2594.301787  	94.292824 
2595.266211  	94.269763 
2596.230636  	94.293213 
2597.195060  	94.289617 
2598.159484  	94.231029 
2599.123909  	94.262491 
2600.088333  	94.338250 
2601.052758  	94.316023 
2602.017182  	94.289631 
2602.981607  	94.303081 
2603.946031  	94.312737 
2604.910456  	94.280272 
2605.874880  	94.270896 
2606.839305  	94.266313 
2607.803729  	94.276935 
2608.768153  	94.272686 
2609.732578  	94.260060 
2610.697002  	94.252802 
2611.661427  	94.251151 
2612.625851  	94.273419 
2613.590276  	94.284635 
2614.554700  	94.261639 
2615.519125  	94.239555 
2616.483549  	94.236112 
2617.447974  	94.224670 
2618.412398  	94.251032 
2619.376822  	94.278779 
2620.341247  	94.233966 
2621.305671  	94.204961 
2622.270096  	94.211997 
2623.234520  	94.236121 
2624.198945  	94.214749 
2625.163369  	94.259823 
2626.127794  	94.268676 
2627.092218  	94.223655 
2628.056643  	94.224712 
2629.021067  	94.226762 
2629.985492  	94.245805 
2630.949916  	94.285015 
2631.914340  	94.245832 
2632.878765  	94.213227 
2633.843189  	94.226223 
2634.807614  	94.225892 
2635.772038  	94.231054 
2636.736463  	94.217754 
2637.700887  	94.214407 
2638.665312  	94.224977 
2639.629736  	94.229231 
2640.594161  	94.233711 
2641.558585  	94.245072 
2642.523009  	94.226838 
2643.487434  	94.222770 
2644.451858  	94.268812 
2645.416283  	94.278673 
2646.380707  	94.260263 
2647.345132  	94.241825 
2648.309556  	94.236200 
2649.273981  	94.248642 
2650.238405  	94.294899 
2651.202830  	94.300682 
2652.167254  	94.276047 
2653.131678  	94.270461 
2654.096103  	94.263289 
2655.060527  	94.277493 
2656.024952  	94.272629 
2656.989376  	94.251125 
2657.953801  	94.233676 
2658.918225  	94.244624 
2659.882650  	94.286988 
2660.847074  	94.299439 
2661.811499  	94.313327 
2662.775923  	94.325902 
2663.740347  	94.339719 
2664.704772  	94.344881 
2665.669196  	94.382792 
2666.633621  	94.391517 
2667.598045  	94.361072 
2668.562470  	94.337414 
2669.526894  	94.320866 
2670.491319  	94.331757 
2671.455743  	94.383014 
2672.420168  	94.381550 
2673.384592  	94.358014 
2674.349016  	94.330720 
2675.313441  	94.334936 
2676.277865  	94.348248 
2677.242290  	94.350409 
2678.206714  	94.337686 
2679.171139  	94.356286 
2680.135563  	94.380351 
2681.099988  	94.381296 
2682.064412  	94.377490 
2683.028837  	94.390472 
2683.993261  	94.377519 
2684.957686  	94.346253 
2685.922110  	94.341485 
2686.886534  	94.330897 
2687.850959  	94.332837 
2688.815383  	94.370373 
2689.779808  	94.375320 
2690.744232  	94.347680 
2691.708657  	94.352332 
2692.673081  	94.384193 
2693.637506  	94.380383 
2694.601930  	94.369265 
2695.566355  	94.378851 
2696.530779  	94.363081 
2697.495203  	94.329352 
2698.459628  	94.343922 
2699.424052  	94.373605 
2700.388477  	94.358271 
2701.352901  	94.325576 
2702.317326  	94.331758 
2703.281750  	94.368850 
2704.246175  	94.380674 
2705.210599  	94.343425 
2706.175024  	94.318898 
2707.139448  	94.312538 
2708.103872  	94.310324 
2709.068297  	94.346798 
2710.032721  	94.355238 
2710.997146  	94.336420 
2711.961570  	94.317942 
2712.925995  	94.321407 
2713.890419  	94.340801 
2714.854844  	94.333917 
2715.819268  	94.347135 
2716.783693  	94.363359 
2717.748117  	94.360092 
2718.712541  	94.349933 
2719.676966  	94.352701 
2720.641390  	94.348414 
2721.605815  	94.349820 
2722.570239  	94.336110 
2723.534664  	94.342769 
2724.499088  	94.332474 
2725.463513  	94.330797 
2726.427937  	94.328604 
2727.392362  	94.322032 
2728.356786  	94.309184 
2729.321210  	94.297037 
2730.285635  	94.291283 
2731.250059  	94.267785 
2732.214484  	94.276674 
2733.178908  	94.292457 
2734.143333  	94.282886 
2735.107757  	94.272423 
2736.072182  	94.280728 
2737.036606  	94.284757 
2738.001031  	94.259616 
2738.965455  	94.251371 
2739.929879  	94.260014 
2740.894304  	94.265229 
2741.858728  	94.249605 
2742.823153  	94.228058 
2743.787577  	94.237179 
2744.752002  	94.227968 
2745.716426  	94.196160 
2746.680851  	94.210846 
2747.645275  	94.214012 
2748.609700  	94.209293 
2749.574124  	94.226795 
2750.538549  	94.225100 
2751.502973  	94.206283 
2752.467397  	94.214962 
2753.431822  	94.230569 
2754.396246  	94.238710 
2755.360671  	94.232962 
2756.325095  	94.264235 
2757.289520  	94.256315 
2758.253944  	94.259910 
2759.218369  	94.260933 
2760.182793  	94.235784 
2761.147218  	94.219373 
2762.111642  	94.220675 
2763.076066  	94.238950 
2764.040491  	94.250242 
2765.004915  	94.223510 
2765.969340  	94.193266 
2766.933764  	94.206571 
2767.898189  	94.219402 
2768.862613  	94.209828 
2769.827038  	94.183700 
2770.791462  	94.182761 
2771.755887  	94.172438 
2772.720311  	94.182619 
2773.684735  	94.178899 
2774.649160  	94.157047 
2775.613584  	94.178078 
2776.578009  	94.191174 
2777.542433  	94.167468 
2778.506858  	94.174431 
2779.471282  	94.181241 
2780.435707  	94.164521 
2781.400131  	94.146882 
2782.364556  	94.153584 
2783.328980  	94.167327 
2784.293404  	94.178168 
2785.257829  	94.171093 
2786.222253  	94.163707 
2787.186678  	94.159365 
2788.151102  	94.142225 
2789.115527  	94.184014 
2790.079951  	94.185183 
2791.044376  	94.156704 
2792.008800  	94.129521 
2792.973225  	94.118972 
2793.937649  	94.118966 
2794.902073  	94.117610 
2795.866498  	94.112637 
2796.830922  	94.098496 
2797.795347  	94.099195 
2798.759771  	94.094268 
2799.724196  	94.055965 
2800.688620  	94.039130 
2801.653045  	94.015767 
2802.617469  	94.024332 
2803.581894  	94.054520 
2804.546318  	94.076113 
2805.510743  	94.089510 
2806.475167  	94.054941 
2807.439591  	94.025699 
2808.404016  	94.017982 
2809.368440  	94.039449 
2810.332865  	94.046614 
2811.297289  	94.017179 
2812.261714  	94.011924 
2813.226138  	94.016978 
2814.190563  	93.995484 
2815.154987  	94.018161 
2816.119412  	94.040864 
2817.083836  	94.008467 
2818.048260  	93.990950 
2819.012685  	94.023443 
2819.977109  	94.049470 
2820.941534  	94.044026 
2821.905958  	94.044512 
2822.870383  	94.023163 
2823.834807  	94.028361 
2824.799232  	94.025275 
2825.763656  	94.006414 
2826.728081  	94.001243 
2827.692505  	93.985144 
2828.656929  	94.005651 
2829.621354  	94.060677 
2830.585778  	94.038982 
2831.550203  	94.009869 
2832.514627  	93.980868 
2833.479052  	93.974727 
2834.443476  	93.970752 
2835.407901  	93.981204 
2836.372325  	93.979577 
2837.336750  	93.958563 
2838.301174  	93.909675 
2839.265598  	93.864436 
2840.230023  	93.889805 
2841.194447  	93.921694 
2842.158872  	93.868826 
2843.123296  	93.828940 
2844.087721  	93.808075 
2845.052145  	93.786484 
2846.016570  	93.720478 
2846.980994  	93.677919 
2847.945419  	93.664834 
2848.909843  	93.626118 
2849.874267  	93.543824 
2850.838692  	93.508501 
2851.803116  	93.519688 
2852.767541  	93.537274 
2853.731965  	93.563045 
2854.696390  	93.575530 
2855.660814  	93.596010 
2856.625239  	93.647900 
2857.589663  	93.637425 
2858.554088  	93.623970 
2859.518512  	93.623532 
2860.482936  	93.618429 
2861.447361  	93.611976 
2862.411785  	93.633925 
2863.376210  	93.642888 
2864.340634  	93.630780 
2865.305059  	93.620089 
2866.269483  	93.639829 
2867.233908  	93.631292 
2868.198332  	93.618929 
2869.162757  	93.591103 
2870.127181  	93.587000 
2871.091606  	93.584763 
2872.056030  	93.581128 
2873.020454  	93.583628 
2873.984879  	93.551880 
2874.949303  	93.515000 
2875.913728  	93.520378 
2876.878152  	93.518104 
2877.842577  	93.492173 
2878.807001  	93.498565 
2879.771426  	93.508215 
2880.735850  	93.475207 
2881.700275  	93.438707 
2882.664699  	93.437931 
2883.629123  	93.432601 
2884.593548  	93.405474 
2885.557972  	93.379695 
2886.522397  	93.342919 
2887.486821  	93.324880 
2888.451246  	93.307453 
2889.415670  	93.308374 
2890.380095  	93.309344 
2891.344519  	93.318673 
2892.308944  	93.322778 
2893.273368  	93.296525 
2894.237792  	93.287147 
2895.202217  	93.247533 
2896.166641  	93.222218 
2897.131066  	93.200176 
2898.095490  	93.191789 
2899.059915  	93.190653 
2900.024339  	93.138831 
2900.988764  	93.100502 
2901.953188  	93.078161 
2902.917613  	93.045053 
2903.882037  	92.964976 
2904.846461  	92.907526 
2905.810886  	92.879480 
2906.775310  	92.865629 
2907.739735  	92.808485 
2908.704159  	92.738147 
2909.668584  	92.742582 
2910.633008  	92.768106 
2911.597433  	92.791420 
2912.561857  	92.836706 
2913.526282  	92.858745 
2914.490706  	92.892003 
2915.455130  	92.903889 
2916.419555  	92.903531 
2917.383979  	92.927163 
2918.348404  	92.938426 
2919.312828  	92.964024 
2920.277253  	92.985766 
2921.241677  	92.973967 
2922.206102  	92.997777 
2923.170526  	93.057566 
2924.134951  	93.111607 
2925.099375  	93.131395 
2926.063800  	93.130003 
2927.028224  	93.164468 
2927.992648  	93.223700 
2928.957073  	93.248135 
2929.921497  	93.229450 
2930.885922  	93.210178 
2931.850346  	93.226550 
2932.814771  	93.243823 
2933.779195  	93.237621 
2934.743620  	93.241167 
2935.708044  	93.218929 
2936.672469  	93.208499 
2937.636893  	93.225579 
2938.601317  	93.197549 
2939.565742  	93.169702 
2940.530166  	93.169061 
2941.494591  	93.163043 
2942.459015  	93.115537 
2943.423440  	93.036599 
2944.387864  	92.999276 
2945.352289  	92.974061 
2946.316713  	92.978653 
2947.281138  	92.954642 
2948.245562  	92.879955 
2949.209986  	92.791406 
2950.174411  	92.694278 
2951.138835  	92.661068 
2952.103260  	92.597832 
2953.067684  	92.527415 
2954.032109  	92.500264 
2954.996533  	92.455168 
2955.960958  	92.387092 
2956.925382  	92.336669 
2957.889807  	92.315917 
2958.854231  	92.255338 
2959.818655  	92.164254 
2960.783080  	92.125968 
2961.747504  	92.088845 
2962.711929  	92.055442 
2963.676353  	91.992743 
2964.640778  	91.893361 
2965.605202  	91.816256 
2966.569627  	91.766945 
2967.534051  	91.781415 
2968.498476  	91.842316 
2969.462900  	91.840772 
2970.427324  	91.809660 
2971.391749  	91.823325 
2972.356173  	91.903260 
2973.320598  	91.977391 
2974.285022  	91.994221 
2975.249447  	91.986830 
2976.213871  	92.073281 
2977.178296  	92.198202 
2978.142720  	92.279106 
2979.107145  	92.361569 
2980.071569  	92.439151 
2981.035993  	92.449076 
2982.000418  	92.520360 
2982.964842  	92.646045 
2983.929267  	92.706497 
2984.893691  	92.740929 
2985.858116  	92.790274 
2986.822540  	92.853964 
2987.786965  	92.895341 
2988.751389  	92.929569 
2989.715814  	92.980720 
2990.680238  	93.013564 
2991.644663  	93.023975 
2992.609087  	93.013664 
2993.573511  	93.005773 
2994.537936  	92.997817 
2995.502360  	93.027369 
2996.466785  	93.076146 
2997.431209  	93.121173 
2998.395634  	93.139100 
2999.360058  	93.165179 
3000.324483  	93.178715 
3001.288907  	93.158924 
3002.253332  	93.151256 
3003.217756  	93.166685 
3004.182180  	93.135180 
3005.146605  	93.149481 
3006.111029  	93.230525 
3007.075454  	93.284722 
3008.039878  	93.334209 
3009.004303  	93.358989 
3009.968727  	93.333616 
3010.933152  	93.293445 
3011.897576  	93.252861 
3012.862001  	93.198811 
3013.826425  	93.281025 
3014.790849  	93.376656 
3015.755274  	93.372295 
3016.719698  	93.420184 
3017.684123  	93.495668 
3018.648547  	93.521424 
3019.612972  	93.518766 
3020.577396  	93.563220 
3021.541821  	93.615910 
3022.506245  	93.625463 
3023.470670  	93.646927 
3024.435094  	93.702800 
3025.399518  	93.714311 
3026.363943  	93.699358 
3027.328367  	93.751102 
3028.292792  	93.817856 
3029.257216  	93.871011 
3030.221641  	93.825956 
3031.186065  	93.689012 
3032.150490  	93.603478 
3033.114914  	93.706623 
3034.079339  	93.754053 
3035.043763  	93.742181 
3036.008187  	93.817171 
3036.972612  	93.851068 
3037.937036  	93.799821 
3038.901461  	93.792146 
3039.865885  	93.831865 
3040.830310  	93.876608 
3041.794734  	93.872551 
3042.759159  	93.815128 
3043.723583  	93.820429 
3044.688008  	93.854961 
3045.652432  	93.844656 
3046.616857  	93.784111 
3047.581281  	93.706855 
3048.545705  	93.584032 
3049.510130  	93.526765 
3050.474554  	93.558445 
3051.438979  	93.591083 
3052.403403  	93.574616 
3053.367828  	93.505561 
3054.332252  	93.456993 
3055.296677  	93.467916 
3056.261101  	93.386398 
3057.225526  	93.360789 
3058.189950  	93.499523 
3059.154374  	93.538710 
3060.118799  	93.547130 
3061.083223  	93.572354 
3062.047648  	93.558033 
3063.012072  	93.536751 
3063.976497  	93.455441 
3064.940921  	93.382651 
3065.905346  	93.463835 
3066.869770  	93.491801 
3067.834195  	93.505463 
3068.798619  	93.538229 
3069.763043  	93.562784 
3070.727468  	93.593467 
3071.691892  	93.610281 
3072.656317  	93.571383 
3073.620741  	93.525625 
3074.585166  	93.554173 
3075.549590  	93.590877 
3076.514015  	93.576173 
3077.478439  	93.527154 
3078.442864  	93.511350 
3079.407288  	93.489663 
3080.371712  	93.496350 
3081.336137  	93.530352 
3082.300561  	93.523695 
3083.264986  	93.580206 
3084.229410  	93.644890 
3085.193835  	93.611914 
3086.158259  	93.630793 
3087.122684  	93.635005 
3088.087108  	93.606471 
3089.051533  	93.625944 
3090.015957  	93.628796 
3090.980381  	93.640760 
3091.944806  	93.664812 
3092.909230  	93.705209 
3093.873655  	93.687952 
3094.838079  	93.625025 
3095.802504  	93.597744 
3096.766928  	93.618064 
3097.731353  	93.645182 
3098.695777  	93.675713 
3099.660202  	93.654460 
3100.624626  	93.552043 
3101.589050  	93.490782 
3102.553475  	93.553713 
3103.517899  	93.611642 
3104.482324  	93.654506 
3105.446748  	93.633759 
3106.411173  	93.610696 
3107.375597  	93.625566 
3108.340022  	93.654439 
3109.304446  	93.678918 
3110.268871  	93.621754 
3111.233295  	93.609066 
3112.197720  	93.616411 
3113.162144  	93.645849 
3114.126568  	93.721763 
3115.090993  	93.705373 
3116.055417  	93.644252 
3117.019842  	93.659108 
3117.984266  	93.658100 
3118.948691  	93.619884 
3119.913115  	93.741942 
3120.877540  	93.842395 
3121.841964  	93.737594 
3122.806389  	93.618381 
3123.770813  	93.685563 
3124.735237  	93.731628 
3125.699662  	93.736529 
3126.664086  	93.707636 
3127.628511  	93.767018 
3128.592935  	93.822354 
3129.557360  	93.797783 
3130.521784  	93.794610 
3131.486209  	93.804841 
3132.450633  	93.717641 
3133.415058  	93.630201 
3134.379482  	93.752182 
3135.343906  	93.839375 
3136.308331  	93.808223 
3137.272755  	93.794312 
3138.237180  	93.801979 
3139.201604  	93.838243 
3140.166029  	93.859238 
3141.130453  	93.867857 
3142.094878  	93.830155 
3143.059302  	93.787160 
3144.023727  	93.846917 
3144.988151  	93.875603 
3145.952575  	93.837992 
3146.917000  	93.833987 
3147.881424  	93.837319 
3148.845849  	93.866530 
3149.810273  	93.875665 
3150.774698  	93.867949 
3151.739122  	93.884719 
3152.703547  	93.868160 
3153.667971  	93.847884 
3154.632396  	93.859748 
3155.596820  	93.861934 
3156.561244  	93.815296 
3157.525669  	93.828572 
3158.490093  	93.834145 
3159.454518  	93.819790 
3160.418942  	93.811826 
3161.383367  	93.835503 
3162.347791  	93.858786 
3163.312216  	93.845028 
3164.276640  	93.850913 
3165.241065  	93.860695 
3166.205489  	93.850964 
3167.169914  	93.852167 
3168.134338  	93.809134 
3169.098762  	93.782832 
3170.063187  	93.761063 
3171.027611  	93.784948 
3171.992036  	93.851080 
3172.956460  	93.864425 
3173.920885  	93.827596 
3174.885309  	93.814167 
3175.849734  	93.783532 
3176.814158  	93.756368 
3177.778583  	93.671940 
3178.743007  	93.638189 
3179.707431  	93.711467 
3180.671856  	93.777752 
3181.636280  	93.832813 
3182.600705  	93.822761 
3183.565129  	93.760517 
3184.529554  	93.707440 
3185.493978  	93.724216 
3186.458403  	93.794631 
3187.422827  	93.796306 
3188.387252  	93.778156 
3189.351676  	93.830303 
3190.316100  	93.822658 
3191.280525  	93.796683 
3192.244949  	93.814646 
3193.209374  	93.872976 
3194.173798  	93.871278 
3195.138223  	93.798124 
3196.102647  	93.679933 
3197.067072  	93.642093 
3198.031496  	93.689480 
3198.995921  	93.794748 
3199.960345  	93.830176 
3200.924769  	93.840717 
3201.889194  	93.836322 
3202.853618  	93.793923 
3203.818043  	93.763337 
3204.782467  	93.756186 
3205.746892  	93.740258 
3206.711316  	93.730229 
3207.675741  	93.723860 
3208.640165  	93.713159 
3209.604590  	93.676542 
3210.569014  	93.651746 
3211.533438  	93.708797 
3212.497863  	93.722107 
3213.462287  	93.669343 
3214.426712  	93.629775 
3215.391136  	93.739942 
3216.355561  	93.739422 
3217.319985  	93.676085 
3218.284410  	93.682581 
3219.248834  	93.670302 
3220.213259  	93.684005 
3221.177683  	93.708735 
3222.142107  	93.677348 
3223.106532  	93.707011 
3224.070956  	93.736004 
3225.035381  	93.726541 
3225.999805  	93.693687 
3226.964230  	93.685861 
3227.928654  	93.631082 
3228.893079  	93.655387 
3229.857503  	93.677484 
3230.821928  	93.665964 
3231.786352  	93.675710 
3232.750777  	93.660959 
3233.715201  	93.640889 
3234.679625  	93.648385 
3235.644050  	93.643976 
3236.608474  	93.657645 
3237.572899  	93.698231 
3238.537323  	93.707330 
3239.501748  	93.622129 
3240.466172  	93.595092 
3241.430597  	93.658205 
3242.395021  	93.693979 
3243.359446  	93.666529 
3244.323870  	93.608169 
3245.288294  	93.527661 
3246.252719  	93.576567 
3247.217143  	93.618733 
3248.181568  	93.660821 
3249.145992  	93.686576 
3250.110417  	93.670100 
3251.074841  	93.676599 
3252.039266  	93.725954 
3253.003690  	93.707445 
3253.968115  	93.591131 
3254.932539  	93.518791 
3255.896963  	93.572376 
3256.861388  	93.572245 
3257.825812  	93.653543 
3258.790237  	93.627361 
3259.754661  	93.585485 
3260.719086  	93.626145 
3261.683510  	93.650294 
3262.647935  	93.629434 
3263.612359  	93.638381 
3264.576784  	93.630529 
3265.541208  	93.612120 
3266.505632  	93.619094 
3267.470057  	93.633902 
3268.434481  	93.628647 
3269.398906  	93.593109 
3270.363330  	93.576386 
3271.327755  	93.632773 
3272.292179  	93.630116 
3273.256604  	93.540660 
3274.221028  	93.474857 
3275.185453  	93.571266 
3276.149877  	93.564834 
3277.114301  	93.537173 
3278.078726  	93.555770 
3279.043150  	93.496085 
3280.007575  	93.484693 
3280.971999  	93.545655 
3281.936424  	93.553906 
3282.900848  	93.500616 
3283.865273  	93.497505 
3284.829697  	93.545424 
3285.794122  	93.529821 
3286.758546  	93.520349 
3287.722971  	93.564797 
3288.687395  	93.612190 
3289.651819  	93.599510 
3290.616244  	93.516600 
3291.580668  	93.458531 
3292.545093  	93.448130 
3293.509517  	93.498391 
3294.473942  	93.549117 
3295.438366  	93.515184 
3296.402791  	93.500929 
3297.367215  	93.524447 
3298.331640  	93.525199 
3299.296064  	93.528738 
3300.260488  	93.558891 
3301.224913  	93.579444 
3302.189337  	93.603000 
3303.153762  	93.585897 
3304.118186  	93.539041 
3305.082611  	93.528078 
3306.047035  	93.593965 
3307.011460  	93.668604 
3307.975884  	93.617788 
3308.940309  	93.491017 
3309.904733  	93.524719 
3310.869157  	93.506009 
3311.833582  	93.500057 
3312.798006  	93.542040 
3313.762431  	93.511189 
3314.726855  	93.566515 
3315.691280  	93.584732 
3316.655704  	93.522596 
3317.620129  	93.499464 
3318.584553  	93.547513 
3319.548978  	93.586906 
3320.513402  	93.590137 
3321.477826  	93.572881 
3322.442251  	93.574389 
3323.406675  	93.569583 
3324.371100  	93.523578 
3325.335524  	93.525896 
3326.299949  	93.527845 
3327.264373  	93.464196 
3328.228798  	93.487230 
3329.193222  	93.506000 
3330.157647  	93.501912 
3331.122071  	93.539957 
3332.086495  	93.628760 
3333.050920  	93.589556 
3334.015344  	93.516726 
3334.979769  	93.449928 
3335.944193  	93.413818 
3336.908618  	93.327051 
3337.873042  	93.375271 
3338.837467  	93.534014 
3339.801891  	93.582955 
3340.766316  	93.559691 
3341.730740  	93.547560 
3342.695164  	93.517227 
3343.659589  	93.527604 
3344.624013  	93.648272 
3345.588438  	93.731231 
3346.552862  	93.707890 
3347.517287  	93.620136 
3348.481711  	93.608277 
3349.446136  	93.622506 
3350.410560  	93.596571 
3351.374985  	93.618028 
3352.339409  	93.678452 
3353.303834  	93.650665 
3354.268258  	93.630467 
3355.232682  	93.563332 
3356.197107  	93.473985 
3357.161531  	93.542453 
3358.125956  	93.650250 
3359.090380  	93.656763 
3360.054805  	93.544648 
3361.019229  	93.508037 
3361.983654  	93.519149 
3362.948078  	93.587794 
3363.912503  	93.572615 
3364.876927  	93.523747 
3365.841351  	93.532689 
3366.805776  	93.544374 
3367.770200  	93.477319 
3368.734625  	93.463103 
3369.699049  	93.580799 
3370.663474  	93.626205 
3371.627898  	93.590347 
3372.592323  	93.591195 
3373.556747  	93.551720 
3374.521172  	93.541422 
3375.485596  	93.546491 
3376.450020  	93.554648 
3377.414445  	93.588430 
3378.378869  	93.605052 
3379.343294  	93.632616 
3380.307718  	93.667364 
3381.272143  	93.700251 
3382.236567  	93.650968 
3383.200992  	93.621570 
3384.165416  	93.528450 
3385.129841  	93.490945 
3386.094265  	93.572008 
3387.058689  	93.634984 
3388.023114  	93.713089 
3388.987538  	93.696083 
3389.951963  	93.624103 
3390.916387  	93.592656 
3391.880812  	93.536281 
3392.845236  	93.352252 
3393.809661  	93.414829 
3394.774085  	93.601024 
3395.738510  	93.578955 
3396.702934  	93.455635 
3397.667358  	93.299923 
3398.631783  	93.484848 
3399.596207  	93.661862 
3400.560632  	93.598781 
3401.525056  	93.531630 
3402.489481  	93.564329 
3403.453905  	93.517119 
3404.418330  	93.451762 
3405.382754  	93.451124 
3406.347179  	93.472805 
3407.311603  	93.464771 
3408.276028  	93.469841 
3409.240452  	93.424271 
3410.204876  	93.375291 
3411.169301  	93.370072 
3412.133725  	93.432795 
3413.098150  	93.499687 
3414.062574  	93.436637 
3415.026999  	93.367505 
3415.991423  	93.316204 
3416.955848  	93.310231 
3417.920272  	93.222815 
3418.884697  	93.178970 
3419.849121  	92.981172 
3420.813545  	92.704760 
3421.777970  	92.774422 
3422.742394  	92.904041 
3423.706819  	93.007864 
3424.671243  	93.080407 
3425.635668  	93.128672 
3426.600092  	93.070805 
3427.564517  	93.015578 
3428.528941  	93.040249 
3429.493366  	93.081420 
3430.457790  	93.060851 
3431.422214  	93.002541 
3432.386639  	92.960512 
3433.351063  	93.048765 
3434.315488  	93.227781 
3435.279912  	93.252434 
3436.244337  	93.210523 
3437.208761  	93.209051 
3438.173186  	93.206548 
3439.137610  	93.137855 
3440.102035  	93.141105 
3441.066459  	93.237802 
3442.030883  	93.184161 
3442.995308  	92.996526 
3443.959732  	93.192239 
3444.924157  	93.248376 
3445.888581  	93.140415 
3446.853006  	92.690993 
3447.817430  	92.386784 
3448.781855  	93.010449 
3449.746279  	93.351460 
3450.710704  	93.438688 
3451.675128  	93.463007 
3452.639552  	93.461513 
3453.603977  	93.430205 
3454.568401  	93.383784 
3455.532826  	93.344185 
3456.497250  	93.336279 
3457.461675  	93.317741 
3458.426099  	93.389093 
3459.390524  	93.450356 
3460.354948  	93.454176 
3461.319373  	93.302655 
3462.283797  	93.221233 
3463.248221  	93.215947 
3464.212646  	93.450882 
3465.177070  	93.568888 
3466.141495  	93.490849 
3467.105919  	93.300107 
3468.070344  	93.435380 
3469.034768  	93.628541 
3469.999193  	93.567587 
3470.963617  	93.518995 
3471.928042  	93.545318 
3472.892466  	93.564699 
3473.856891  	93.590888 
3474.821315  	93.443098 
3475.785739  	93.489732 
3476.750164  	93.610956 
3477.714588  	93.648798 
3478.679013  	93.647177 
3479.643437  	93.608795 
3480.607862  	93.313315 
3481.572286  	93.120857 
3482.536711  	92.933298 
3483.501135  	93.243836 
3484.465560  	93.514989 
3485.429984  	93.481768 
3486.394408  	93.513895 
3487.358833  	93.507629 
3488.323257  	93.200116 
3489.287682  	93.248654 
3490.252106  	93.483682 
3491.216531  	93.483747 
3492.180955  	93.591300 
3493.145380  	93.666785 
3494.109804  	93.694340 
3495.074229  	93.585311 
3496.038653  	93.324016 
3497.003077  	93.251463 
3497.967502  	93.470443 
3498.931926  	93.570966 
3499.896351  	93.460965 
3500.860775  	93.381442 
3501.825200  	92.999884 
3502.789624  	92.449949 
3503.754049  	92.329501 
3504.718473  	92.810380 
3505.682898  	93.207354 
3506.647322  	93.427149 
3507.611746  	93.474900 
3508.576171  	93.199432 
3509.540595  	92.548112 
3510.505020  	92.779234 
3511.469444  	93.208840 
3512.433869  	93.289708 
3513.398293  	93.383582 
3514.362718  	93.547993 
3515.327142  	93.737305 
3516.291567  	93.740703 
3517.255991  	93.522401 
3518.220415  	93.380924 
3519.184840  	93.347058 
3520.149264  	93.418741 
3521.113689  	93.538785 
3522.078113  	93.310181 
3523.042538  	92.506012 
3524.006962  	92.129015 
3524.971387  	92.528543 
3525.935811  	92.742746 
3526.900236  	92.586316 
3527.864660  	92.371038 
3528.829085  	92.540622 
3529.793509  	92.813408 
3530.757933  	93.060460 
3531.722358  	93.035742 
3532.686782  	93.379347 
3533.651207  	93.576976 
3534.615631  	93.541229 
3535.580056  	93.274017 
3536.544480  	92.643146 
3537.508905  	92.814702 
3538.473329  	93.382092 
3539.437754  	93.398797 
3540.402178  	93.417719 
3541.366602  	93.457329 
3542.331027  	93.447225 
3543.295451  	93.110803 
3544.259876  	92.685952 
3545.224300  	91.796123 
3546.188725  	91.531737 
3547.153149  	91.574306 
3548.117574  	92.116418 
3549.081998  	93.056973 
3550.046423  	93.359654 
3551.010847  	93.238463 
3551.975271  	92.607748 
3552.939696  	92.274732 
3553.904120  	92.638066 
3554.868545  	93.106468 
3555.832969  	93.492322 
3556.797394  	93.404332 
3557.761818  	93.416320 
3558.726243  	93.524583 
3559.690667  	93.065539 
3560.655092  	92.531762 
3561.619516  	92.975716 
3562.583940  	92.999750 
3563.548365  	92.826591 
3564.512789  	92.710809 
3565.477214  	91.837327 
3566.441638  	89.535998 
3567.406063  	89.295274 
3568.370487  	89.708741 
3569.334912  	91.554619 
3570.299336  	92.809257 
3571.263761  	92.946168 
3572.228185  	93.348513 
3573.192609  	93.420373 
3574.157034  	93.319743 
3575.121458  	93.223673 
3576.085883  	93.305078 
3577.050307  	93.187591 
3578.014732  	93.206604 
3578.979156  	93.320439 
3579.943581  	92.919167 
3580.908005  	92.872358 
3581.872430  	93.304824 
3582.836854  	93.320529 
3583.801278  	93.204612 
3584.765703  	93.260248 
3585.730127  	92.816246 
3586.694552  	91.076664 
3587.658976  	90.122518 
3588.623401  	90.437752 
3589.587825  	91.527374 
3590.552250  	92.976223 
3591.516674  	93.385706 
3592.481099  	93.273915 
3593.445523  	92.514853 
3594.409948  	92.523910 
3595.374372  	92.008480 
3596.338796  	91.876008 
3597.303221  	92.880515 
3598.267645  	92.914841 
3599.232070  	92.582932 
3600.196494  	92.648889 
3601.160919  	92.358861 
3602.125343  	92.728747 
3603.089768  	93.020560 
3604.054192  	93.362790 
3605.018617  	93.572430 
3605.983041  	93.351132 
3606.947465  	92.086729 
3607.911890  	91.492115 
3608.876314  	91.755407 
3609.840739  	91.436453 
3610.805163  	92.565102 
3611.769588  	92.572704 
3612.734012  	91.336689 
3613.698437  	91.509475 
3614.662861  	91.667411 
3615.627286  	91.765768 
3616.591710  	92.789628 
3617.556134  	92.141885 
3618.520559  	91.227491 
3619.484983  	91.133483 
3620.449408  	91.240177 
3621.413832  	92.099440 
3622.378257  	92.888520 
3623.342681  	93.364096 
3624.307106  	93.496137 
3625.271530  	93.385248 
3626.235955  	92.822080 
3627.200379  	92.531684 
3628.164803  	91.505973 
3629.129228  	88.671508 
3630.093652  	89.508543 
3631.058077  	92.058183 
3632.022501  	93.044740 
3632.986926  	93.033255 
3633.951350  	92.212134 
3634.915775  	92.656617 
3635.880199  	93.430706 
3636.844624  	93.521239 
3637.809048  	93.294897 
3638.773472  	93.218253 
3639.737897  	93.508585 
3640.702321  	93.572219 
3641.666746  	93.259871 
3642.631170  	92.797526 
3643.595595  	92.997212 
3644.560019  	93.383495 
3645.524444  	93.111290 
3646.488868  	91.928646 
3647.453293  	89.995097 
3648.417717  	90.237770 
3649.382142  	89.960134 
3650.346566  	89.087599 
3651.310990  	89.381993 
3652.275415  	91.718345 
3653.239839  	93.135738 
3654.204264  	93.554902 
3655.168688  	93.430105 
3656.133113  	92.277615 
3657.097537  	92.004075 
3658.061962  	93.286935 
3659.026386  	93.551450 
3659.990811  	93.451883 
3660.955235  	93.637250 
3661.919659  	93.893599 
3662.884084  	93.896762 
3663.848508  	93.884282 
3664.812933  	93.849585 
3665.777357  	93.840928 
3666.741782  	93.858785 
3667.706206  	93.761991 
3668.670631  	92.719262 
3669.635055  	91.552064 
3670.599480  	90.819407 
3671.563904  	91.449928 
3672.528328  	93.129446 
3673.492753  	93.342992 
3674.457177  	92.042070 
3675.421602  	89.077621 
3676.386026  	89.724697 
3677.350451  	91.706635 
3678.314875  	92.526208 
3679.279300  	92.555091 
3680.243724  	92.629145 
3681.208149  	93.552602 
3682.172573  	93.982839 
3683.136997  	93.980487 
3684.101422  	93.772020 
3685.065846  	93.659601 
3686.030271  	93.816871 
3686.994695  	93.656732 
3687.959120  	92.755958 
3688.923544  	91.677031 
3689.887969  	92.314525 
3690.852393  	91.593486 
3691.816818  	91.491149 
3692.781242  	93.262143 
3693.745666  	93.680656 
3694.710091  	93.750931 
3695.674515  	93.857859 
3696.638940  	93.752158 
3697.603364  	93.856009 
3698.567789  	94.082063 
3699.532213  	94.033845 
3700.496638  	93.968429 
3701.461062  	93.125102 
3702.425487  	92.604856 
3703.389911  	93.654534 
3704.354335  	94.002912 
3705.318760  	93.870986 
3706.283184  	93.885569 
3707.247609  	93.987153 
3708.212033  	93.916600 
3709.176458  	93.203767 
3710.140882  	92.574057 
3711.105307  	92.206202 
3712.069731  	90.903482 
3713.034156  	91.288684 
3713.998580  	92.865331 
3714.963005  	92.873035 
3715.927429  	93.258563 
3716.891853  	93.943640 
3717.856278  	93.973323 
3718.820702  	93.217638 
3719.785127  	92.970410 
3720.749551  	93.690306 
3721.713976  	93.204983 
3722.678400  	91.811987 
3723.642825  	92.539879 
3724.607249  	92.886060 
3725.571674  	92.152221 
3726.536098  	91.875762 
3727.500522  	92.158165 
3728.464947  	93.271006 
3729.429371  	93.889917 
3730.393796  	93.781801 
3731.358220  	93.363911 
3732.322645  	92.505092 
3733.287069  	92.707563 
3734.251494  	91.959261 
3735.215918  	88.513760 
3736.180343  	88.951408 
3737.144767  	90.673039 
3738.109191  	91.768219 
3739.073616  	92.272808 
3740.038040  	92.903359 
3741.002465  	92.476870 
3741.966889  	92.690868 
3742.931314  	93.272134 
3743.895738  	92.057728 
3744.860163  	88.467484 
3745.824587  	91.259655 
3746.789012  	92.279408 
3747.753436  	92.247734 
3748.717860  	92.014707 
3749.682285  	91.351508 
3750.646709  	91.381219 
3751.611134  	90.971868 
3752.575558  	89.653750 
3753.539983  	91.603617 
3754.504407  	92.735257 
3755.468832  	93.286661 
3756.433256  	92.967421 
3757.397681  	93.015548 
3758.362105  	93.238496 
3759.326529  	92.197198 
3760.290954  	91.833891 
3761.255378  	93.413880 
3762.219803  	93.764513 
3763.184227  	93.842925 
3764.148652  	93.893180 
3765.113076  	93.359804 
3766.077501  	92.395731 
3767.041925  	93.274300 
3768.006350  	93.883779 
3768.970774  	93.500414 
3769.935199  	92.381225 
3770.899623  	92.595452 
3771.864047  	93.476064 
3772.828472  	93.852127 
3773.792896  	94.018471 
3774.757321  	94.103437 
3775.721745  	94.184620 
3776.686170  	94.305958 
3777.650594  	94.205672 
3778.615019  	93.682911 
3779.579443  	92.726377 
3780.543868  	93.031100 
3781.508292  	93.907489 
3782.472716  	93.935550 
3783.437141  	94.006974 
3784.401565  	93.586629 
3785.365990  	93.001506 
3786.330414  	93.442578 
3787.294839  	93.892113 
3788.259263  	94.118290 
3789.223688  	94.128991 
3790.188112  	94.127493 
3791.152537  	94.240136 
3792.116961  	94.244767 
3793.081385  	94.240352 
3794.045810  	94.257069 
3795.010234  	94.104594 
3795.974659  	93.475481 
3796.939083  	92.569641 
3797.903508  	92.924499 
3798.867932  	93.475681 
3799.832357  	93.549073 
3800.796781  	92.493766 
3801.761206  	90.980689 
3802.725630  	91.620960 
3803.690054  	92.757171 
3804.654479  	93.725747 
3805.618903  	93.830148 
3806.583328  	93.005655 
3807.547752  	92.268395 
3808.512177  	93.428581 
3809.476601  	93.849314 
3810.441026  	93.918178 
3811.405450  	94.077042 
3812.369875  	94.177785 
3813.334299  	94.221296 
3814.298723  	94.088406 
3815.263148  	93.378882 
3816.227572  	91.769397 
3817.191997  	92.478633 
3818.156421  	93.415931 
3819.120846  	93.269304 
3820.085270  	92.489165 
3821.049695  	90.767882 
3822.014119  	90.772171 
3822.978544  	92.598554 
3823.942968  	93.189579 
3824.907392  	93.472417 
3825.871817  	93.449423 
3826.836241  	92.891615 
3827.800666  	93.028618 
3828.765090  	93.675133 
3829.729515  	93.962231 
3830.693939  	93.774510 
3831.658364  	92.823018 
3832.622788  	93.001600 
3833.587213  	93.746160 
3834.551637  	93.195036 
3835.516062  	92.537442 
3836.480486  	93.218741 
3837.444910  	92.612923 
3838.409335  	91.411972 
3839.373759  	92.129583 
3840.338184  	91.489058 
3841.302608  	91.581320 
3842.267033  	93.082270 
3843.231457  	93.102458 
3844.195882  	92.267586 
3845.160306  	93.232472 
3846.124731  	93.831526 
3847.089155  	93.933526 
3848.053579  	93.983309 
3849.018004  	93.741508 
3849.982428  	93.156696 
3850.946853  	93.143155 
3851.911277  	92.273482 
3852.875702  	90.582425 
3853.840126  	89.649234 
3854.804551  	90.161731 
3855.768975  	92.563593 
3856.733400  	92.588220 
3857.697824  	92.113960 
3858.662248  	93.301792 
3859.626673  	93.988895 
3860.591097  	93.900533 
3861.555522  	93.163162 
3862.519946  	92.605095 
3863.484371  	93.016610 
3864.448795  	92.129332 
3865.413220  	90.982825 
3866.377644  	92.588426 
3867.342069  	93.655078 
3868.306493  	93.545712 
3869.270917  	92.138597 
3870.235342  	90.082388 
3871.199766  	91.600863 
3872.164191  	92.912758 
3873.128615  	93.217906 
3874.093040  	91.815334 
3875.057464  	91.932279 
3876.021889  	93.675685 
3876.986313  	94.058330 
3877.950738  	94.150096 
3878.915162  	94.039159 
3879.879586  	92.839850 
3880.844011  	90.866153 
3881.808435  	92.293470 
3882.772860  	93.315852 
3883.737284  	92.989544 
3884.701709  	92.960279 
3885.666133  	92.030500 
3886.630558  	91.777370 
3887.594982  	93.453450 
3888.559407  	93.951556 
3889.523831  	93.978350 
3890.488256  	93.467959 
3891.452680  	92.106996 
3892.417104  	92.188415 
3893.381529  	93.222056 
3894.345953  	93.144654 
3895.310378  	93.506096 
3896.274802  	94.041138 
3897.239227  	94.078901 
3898.203651  	93.321140 
3899.168076  	92.079833 
3900.132500  	92.021646 
3901.096925  	92.790011 
3902.061349  	91.365643 
3903.025773  	91.502803 
3903.990198  	91.927756 
3904.954622  	91.359049 
3905.919047  	91.784316 
3906.883471  	92.739379 
3907.847896  	93.848975 
3908.812320  	94.129788 
3909.776745  	94.190834 
3910.741169  	94.241350 
3911.705594  	94.254669 
3912.670018  	94.177820 
3913.634442  	94.136925 
3914.598867  	94.184670 
3915.563291  	93.992758 
3916.527716  	92.900963 
3917.492140  	92.029049 
3918.456565  	93.111603 
3919.420989  	93.457238 
3920.385414  	92.694739 
3921.349838  	93.302234 
3922.314263  	94.049349 
3923.278687  	93.685679 
3924.243111  	92.751594 
3925.207536  	92.271900 
3926.171960  	93.137970 
3927.136385  	94.038418 
3928.100809  	94.078411 
3929.065234  	93.818824 
3930.029658  	93.440755 
3930.994083  	93.198549 
3931.958507  	92.690324 
3932.922932  	92.275658 
3933.887356  	93.169655 
3934.851780  	93.635986 
3935.816205  	93.987243 
3936.780629  	94.179594 
3937.745054  	94.110995 
3938.709478  	93.871636 
3939.673903  	94.034490 
3940.638327  	94.163040 
3941.602752  	93.973695 
3942.567176  	92.923153 
3943.531601  	92.426650 
3944.496025  	93.373398 
3945.460449  	93.874635 
3946.424874  	94.012887 
3947.389298  	93.356639 
3948.353723  	92.923103 
3949.318147  	93.223618 
3950.282572  	92.901113 
3951.246996  	93.360113 
3952.211421  	94.005687 
3953.175845  	93.904806 
3954.140270  	93.993914 
3955.104694  	94.094421 
3956.069119  	93.990174 
3957.033543  	93.810825 
3957.997967  	93.836168 
3958.962392  	93.968225 
3959.926816  	93.969808 
3960.891241  	93.892235 
3961.855665  	93.447683 
3962.820090  	93.469987 
3963.784514  	94.051236 
3964.748939  	94.100989 
3965.713363  	94.146332 
3966.677788  	94.228331 
3967.642212  	94.189564 
3968.606636  	93.964586 
3969.571061  	93.782738 
3970.535485  	93.973462 
3971.499910  	94.071977 
3972.464334  	93.852092 
3973.428759  	93.914957 
3974.393183  	93.963435 
3975.357608  	93.810127 
3976.322032  	93.677711 
3977.286457  	93.903707 
3978.250881  	94.161511 
3979.215305  	94.207194 
3980.179730  	94.165238 
3981.144154  	94.111984 
3982.108579  	94.037798 
3983.073003  	94.084821 
3984.037428  	94.222538 
3985.001852  	94.217295 
3985.966277  	94.184828 
3986.930701  	94.245297 
3987.895126  	94.265783 
3988.859550  	94.222333 
3989.823974  	94.103813 
3990.788399  	93.851392 
3991.752823  	93.929689 
3992.717248  	94.151043 
3993.681672  	94.155111 
3994.646097  	94.030822 
3995.610521  	93.919571 
3996.574946  	94.148344 
3997.539370  	94.243131 
3998.503795  	94.225920 
3999.468219  	94.199041 
4000.432643  	94.230249 
4001.397068  	94.255010 
4002.361492  	94.263408 
4003.325917  	94.224619 
4004.290341  	94.231669 
4005.254766  	94.217097 
4006.219190  	94.196143 
4007.183615  	94.152007 
4008.148039  	94.048165 
4009.112464  	93.932606 
4010.076888  	94.029282 
4011.041313  	94.139008 
4012.005737  	94.213443 
4012.970161  	94.172178 
4013.934586  	94.187344 
4014.899010  	94.187781 
4015.863435  	94.162816 
4016.827859  	94.200779 
4017.792284  	94.233108 
4018.756708  	94.205784 
4019.721133  	94.135653 
4020.685557  	94.114988 
4021.649982  	94.192828 
4022.614406  	94.226713 
4023.578830  	94.186168 
4024.543255  	94.163307 
4025.507679  	94.084896 
4026.472104  	94.055099 
4027.436528  	94.166513 
4028.400953  	94.189605 
4029.365377  	94.167686 
4030.329802  	94.197931 
4031.294226  	94.216271 
4032.258651  	94.192868 
4033.223075  	94.235014 
4034.187499  	94.263937 
4035.151924  	94.241094 
4036.116348  	94.192476 
4037.080773  	94.224676 
4038.045197  	94.267709 
4039.009622  	94.282987 
4039.974046  	94.278888 
4040.938471  	94.287291 
4041.902895  	94.255085 
4042.867320  	94.246822 
4043.831744  	94.165747 
4044.796168  	94.057663 
4045.760593  	94.091338 
4046.725017  	94.183069 
4047.689442  	94.186453 
4048.653866  	94.210457 
4049.618291  	94.201240 
4050.582715  	94.189600 
4051.547140  	94.190040 
4052.511564  	94.195354 
4053.475989  	94.184183 
4054.440413  	94.213933 
4055.404837  	94.180774 
4056.369262  	94.179914 
4057.333686  	94.243220 
4058.298111  	94.260930 
4059.262535  	94.239007 
4060.226960  	94.189807 
4061.191384  	94.129856 
4062.155809  	94.165902 
4063.120233  	94.229554 
4064.084658  	94.232135 
4065.049082  	94.244225 
4066.013506  	94.258450 
4066.977931  	94.185311 
4067.942355  	94.132875 
4068.906780  	94.145291 
4069.871204  	94.163722 
4070.835629  	94.148998 
4071.800053  	94.151071 
4072.764478  	94.112631 
4073.728902  	94.083987 
4074.693327  	94.112430 
4075.657751  	94.172244 
4076.622176  	94.141724 
4077.586600  	94.161124 
4078.551024  	94.132830 
4079.515449  	94.044084 
4080.479873  	94.048130 
4081.444298  	94.120022 
4082.408722  	94.106591 
4083.373147  	94.066687 
4084.337571  	94.035576 
4085.301996  	94.017485 
4086.266420  	94.010193 
4087.230845  	94.029557 
4088.195269  	94.003562 
4089.159693  	93.997517 
4090.124118  	94.071062 
4091.088542  	94.091365 
4092.052967  	94.098454 
4093.017391  	94.130612 
4093.981816  	94.106189 
4094.946240  	94.077002 
4095.910665  	94.144607 
4096.875089  	94.234328 
4097.839514  	94.156661 
4098.803938  	94.043392 
4099.768362  	94.109890 
4100.732787  	94.175059 
4101.697211  	94.144536 
4102.661636  	94.137834 
4103.626060  	94.171786 
4104.590485  	94.161958 
4105.554909  	94.095221 
4106.519334  	94.066879 
4107.483758  	94.064786 
4108.448183  	94.114792 
4109.412607  	94.124730 
4110.377031  	94.113571 
4111.341456  	94.173848 
4112.305880  	94.177801 
4113.270305  	94.133900 
4114.234729  	94.174773 
4115.199154  	94.191896 
4116.163578  	94.146120 
4117.128003  	94.141517 
4118.092427  	94.179854 
4119.056852  	94.165070 
4120.021276  	94.125861 
4120.985700  	94.148146 
4121.950125  	94.180883 
4122.914549  	94.118426 
4123.878974  	94.084134 
4124.843398  	94.123445 
4125.807823  	94.208026 
4126.772247  	94.205650 
4127.736672  	94.153693 
4128.701096  	94.149528 
4129.665521  	94.170463 
4130.629945  	94.177431 
4131.594370  	94.207307 
4132.558794  	94.233179 
4133.523218  	94.171858 
4134.487643  	94.107626 
4135.452067  	94.136808 
4136.416492  	94.179332 
4137.380916  	94.191800 
4138.345341  	94.180228 
4139.309765  	94.098053 
4140.274190  	94.093473 
4141.238614  	94.159072 
4142.203039  	94.176220 
4143.167463  	94.240005 
4144.131887  	94.222810 
4145.096312  	94.170127 
4146.060736  	94.186263 
4147.025161  	94.224403 
4147.989585  	94.206230 
4148.954010  	94.133208 
4149.918434  	94.096957 
4150.882859  	94.087497 
4151.847283  	94.122577 
4152.811708  	94.183693 
4153.776132  	94.202735 
4154.740556  	94.187571 
4155.704981  	94.133915 
4156.669405  	94.105817 
4157.633830  	94.104018 
4158.598254  	94.125829 
4159.562679  	94.151470 
4160.527103  	94.146493 
4161.491528  	94.138456 
4162.455952  	94.195579 
4163.420377  	94.269829 
4164.384801  	94.236236 
4165.349225  	94.193705 
4166.313650  	94.151293 
4167.278074  	94.149814 
4168.242499  	94.190163 
4169.206923  	94.236914 
4170.171348  	94.295820 
4171.135772  	94.262452 
4172.100197  	94.157795 
4173.064621  	94.138836 
4174.029046  	94.169687 
4174.993470  	94.177584 
4175.957894  	94.208516 
4176.922319  	94.251625 
4177.886743  	94.253462 
4178.851168  	94.208962 
4179.815592  	94.151552 
4180.780017  	94.136280 
4181.744441  	94.191711 
4182.708866  	94.201491 
4183.673290  	94.190898 
4184.637715  	94.223722 
4185.602139  	94.266806 
4186.566563  	94.239863 
4187.530988  	94.212656 
4188.495412  	94.185410 
4189.459837  	94.203238 
4190.424261  	94.216643 
4191.388686  	94.241110 
4192.353110  	94.327970 
4193.317535  	94.282145 
4194.281959  	94.158837 
4195.246384  	94.134038 
4196.210808  	94.154084 
4197.175233  	94.187524 
4198.139657  	94.196605 
4199.104081  	94.216388 
4200.068506  	94.196627 
4201.032930  	94.208061 
4201.997355  	94.274871 
4202.961779  	94.282673 
4203.926204  	94.218328 
4204.890628  	94.164838 
4205.855053  	94.160461 
4206.819477  	94.161137 
4207.783902  	94.166180 
4208.748326  	94.191611 
4209.712750  	94.216984 
4210.677175  	94.262152 
4211.641599  	94.244986 
4212.606024  	94.250901 
4213.570448  	94.254858 
4214.534873  	94.233218 
4215.499297  	94.174417 
4216.463722  	94.147111 
4217.428146  	94.076246 
4218.392571  	94.093992 
4219.356995  	94.210928 
4220.321419  	94.267874 
4221.285844  	94.311969 
4222.250268  	94.321068 
4223.214693  	94.143615 
4224.179117  	94.070325 
4225.143542  	94.159002 
4226.107966  	94.240386 
4227.072391  	94.259741 
4228.036815  	94.204611 
4229.001240  	94.170891 
4229.965664  	94.121329 
4230.930088  	94.127993 
4231.894513  	94.210295 
4232.858937  	94.237041 
4233.823362  	94.220623 
4234.787786  	94.234823 
4235.752211  	94.214483 
4236.716635  	94.188800 
4237.681060  	94.221533 
4238.645484  	94.212793 
4239.609909  	94.175988 
4240.574333  	94.157568 
4241.538757  	94.195354 
4242.503182  	94.181628 
4243.467606  	94.156540 
4244.432031  	94.153336 
4245.396455  	94.190308 
4246.360880  	94.179862 
4247.325304  	94.162696 
4248.289729  	94.173874 
4249.254153  	94.226079 
4250.218578  	94.243270 
4251.183002  	94.238741 
4252.147427  	94.238436 
4253.111851  	94.199747 
4254.076275  	94.132288 
4255.040700  	94.166716 
4256.005124  	94.226499 
4256.969549  	94.280369 
4257.933973  	94.256274 
4258.898398  	94.162745 
4259.862822  	94.108676 
4260.827247  	94.103852 
4261.791671  	94.165150 
4262.756096  	94.200508 
4263.720520  	94.105946 
4264.684944  	94.072007 
4265.649369  	94.097805 
4266.613793  	94.175002 
4267.578218  	94.180918 
4268.542642  	94.154692 
4269.507067  	94.106542 
4270.471491  	94.112987 
4271.435916  	94.093707 
4272.400340  	94.061247 
4273.364765  	94.114493 
4274.329189  	94.202718 
4275.293613  	94.222729 
4276.258038  	94.196815 
4277.222462  	94.162003 
4278.186887  	94.093289 
4279.151311  	94.026334 
4280.115736  	94.015482 
4281.080160  	94.061588 
4282.044585  	94.090116 
4283.009009  	94.068225 
4283.973434  	94.101324 
4284.937858  	94.129189 
4285.902282  	94.120175 
4286.866707  	94.120292 
4287.831131  	94.179093 
4288.795556  	94.250655 
4289.759980  	94.204018 
4290.724405  	94.111861 
4291.688829  	94.114439 
4292.653254  	94.102041 
4293.617678  	94.145147 
4294.582103  	94.187946 
4295.546527  	94.186590 
4296.510951  	94.229352 
4297.475376  	94.237236 
4298.439800  	94.215710 
4299.404225  	94.221343 
4300.368649  	94.222523 
4301.333074  	94.161401 
4302.297498  	94.049556 
4303.261923  	94.072459 
4304.226347  	94.165392 
4305.190772  	94.282569 
4306.155196  	94.242052 
4307.119620  	94.156346 
4308.084045  	94.093954 
4309.048469  	94.170999 
4310.012894  	94.174791 
4310.977318  	94.135846 
4311.941743  	94.133944 
4312.906167  	94.178186 
4313.870592  	94.178944 
4314.835016  	94.164185 
4315.799441  	94.104171 
4316.763865  	94.087468 
4317.728290  	94.161070 
4318.692714  	94.225472 
4319.657138  	94.196941 
4320.621563  	94.207723 
4321.585987  	94.184918 
4322.550412  	94.166038 
4323.514836  	94.138186 
4324.479261  	94.148725 
4325.443685  	94.136762 
4326.408110  	94.192061 
4327.372534  	94.235309 
4328.336959  	94.240758 
4329.301383  	94.240020 
4330.265807  	94.210269 
4331.230232  	94.184059 
4332.194656  	94.160722 
4333.159081  	94.191024 
4334.123505  	94.211223 
4335.087930  	94.227908 
4336.052354  	94.236014 
4337.016779  	94.226200 
4337.981203  	94.238265 
4338.945628  	94.215546 
4339.910052  	94.159296 
4340.874476  	94.197076 
4341.838901  	94.263805 
4342.803325  	94.208630 
4343.767750  	94.136900 
4344.732174  	94.116448 
4345.696599  	94.111070 
4346.661023  	94.135594 
4347.625448  	94.141788 
4348.589872  	94.122909 
4349.554297  	94.166483 
4350.518721  	94.219098 
4351.483145  	94.287476 
4352.447570  	94.256985 
4353.411994  	94.216365 
4354.376419  	94.169085 
4355.340843  	94.148847 
4356.305268  	94.207954 
4357.269692  	94.271239 
4358.234117  	94.270147 
4359.198541  	94.227495 
4360.162966  	94.176643 
4361.127390  	94.146276 
4362.091814  	94.162431 
4363.056239  	94.163540 
4364.020663  	94.219654 
4364.985088  	94.220061 
4365.949512  	94.130002 
4366.913937  	94.108315 
4367.878361  	94.116167 
4368.842786  	94.160212 
4369.807210  	94.245548 
4370.771635  	94.212472 
4371.736059  	94.144538 
4372.700484  	94.179931 
4373.664908  	94.219454 
4374.629332  	94.205911 
4375.593757  	94.173177 
4376.558181  	94.189710 
4377.522606  	94.196126 
4378.487030  	94.154511 
4379.451455  	94.135673 
4380.415879  	94.147389 
4381.380304  	94.118062 
4382.344728  	94.151235 
4383.309153  	94.228273 
4384.273577  	94.240050 
4385.238001  	94.191245 
4386.202426  	94.154290 
4387.166850  	94.172631 
4388.131275  	94.159649 
4389.095699  	94.090886 
4390.060124  	94.135205 
4391.024548  	94.180291 
4391.988973  	94.225858 
4392.953397  	94.234304 
4393.917822  	94.176406 
4394.882246  	94.153934 
4395.846670  	94.124277 
4396.811095  	94.117909 
4397.775519  	94.146333 
4398.739944  	94.186885 
4399.704368  	94.196383 
4400.668793  	94.232851 
4401.633217  	94.120909 
4402.597642  	94.063646 
4403.562066  	94.221753 
4404.526491  	94.286267 
4405.490915  	94.256045 
4406.455339  	94.138787 
4407.419764  	94.115868 
4408.384188  	94.185141 
4409.348613  	94.243786 
4410.313037  	94.229597 
4411.277462  	94.110770 
4412.241886  	94.075878 
4413.206311  	94.174031 
4414.170735  	94.188140 
4415.135160  	94.160498 
4416.099584  	94.171282 
4417.064008  	94.163335 
4418.028433  	94.138327 
4418.992857  	94.134967 
4419.957282  	94.111295 
4420.921706  	94.097771 
4421.886131  	94.100862 
4422.850555  	94.108207 
4423.814980  	94.126778 
4424.779404  	94.143455 
4425.743829  	94.144408 
4426.708253  	94.116337 
4427.672677  	94.084653 
4428.637102  	94.084567 
4429.601526  	94.111006 
4430.565951  	94.104072 
4431.530375  	94.073835 
4432.494800  	94.036059 
4433.459224  	93.996112 
4434.423649  	94.017922 
4435.388073  	94.061314 
4436.352498  	94.106696 
4437.316922  	94.123027 
4438.281347  	94.154884 
4439.245771  	94.093921 
4440.210195  	94.070602 
4441.174620  	94.114375 
4442.139044  	94.143433 
4443.103469  	94.154144 
4444.067893  	94.122624 
4445.032318  	94.081266 
4445.996742  	94.099949 
4446.961167  	94.082234 
4447.925591  	94.041289 
4448.890016  	94.053980 
4449.854440  	94.052718 
4450.818864  	94.107754 
4451.783289  	94.132329 
4452.747713  	94.112773 
4453.712138  	94.157745 
4454.676562  	94.076351 
4455.640987  	94.045008 
4456.605411  	94.115470 
4457.569836  	94.109416 
4458.534260  	94.061659 
4459.498685  	94.015082 
4460.463109  	93.959889 
4461.427533  	93.956054 
4462.391958  	93.956604 
4463.356382  	93.944636 
4464.320807  	94.024746 
4465.285231  	94.102984 
4466.249656  	94.130750 
4467.214080  	94.182049 
4468.178505  	94.138852 
4469.142929  	94.089870 
4470.107354  	94.116947 
4471.071778  	94.120703 
4472.036202  	94.149195 
4473.000627  	94.164878 
4473.965051  	94.102217 
4474.929476  	94.035937 
4475.893900  	94.008295 
4476.858325  	94.041110 
4477.822749  	94.119085 
4478.787174  	94.171032 
4479.751598  	94.177870 
4480.716023  	94.188863 
4481.680447  	94.141480 
4482.644871  	94.110931 
4483.609296  	94.095013 
4484.573720  	94.109027 
4485.538145  	94.126146 
4486.502569  	94.172075 
4487.466994  	94.193832 
4488.431418  	94.183961 
4489.395843  	94.133804 
4490.360267  	94.124754 
4491.324692  	94.122969 
4492.289116  	94.139093 
4493.253541  	94.177554 
4494.217965  	94.183512 
4495.182389  	94.189943 
4496.146814  	94.152834 
4497.111238  	94.096403 
4498.075663  	94.135067 
4499.040087  	94.202292 
4500.004512  	94.192114 
4500.968936  	94.171676 
4501.933361  	94.147404 
4502.897785  	94.153784 
4503.862210  	94.201935 
4504.826634  	94.224500 
4505.791058  	94.191413 
4506.755483  	94.190416 
4507.719907  	94.145033 
4508.684332  	94.123697 
4509.648756  	94.151667 
4510.613181  	94.126387 
4511.577605  	94.173661 
4512.542030  	94.240486 
4513.506454  	94.244001 
4514.470879  	94.170895 
4515.435303  	94.090385 
4516.399727  	94.075989 
4517.364152  	94.087688 
4518.328576  	94.108741 
4519.293001  	94.155000 
4520.257425  	94.153995 
4521.221850  	94.084140 
4522.186274  	94.099015 
4523.150699  	94.117024 
4524.115123  	94.096974 
4525.079548  	94.101627 
4526.043972  	94.138620 
4527.008396  	94.118324 
4527.972821  	94.070225 
4528.937245  	94.129303 
4529.901670  	94.142955 
4530.866094  	94.151824 
4531.830519  	94.160235 
4532.794943  	94.135792 
4533.759368  	94.130410 
4534.723792  	94.167466 
4535.688217  	94.137332 
4536.652641  	94.155362 
4537.617065  	94.188161 
4538.581490  	94.192080 
4539.545914  	94.175478 
4540.510339  	94.177082 
4541.474763  	94.128994 
4542.439188  	94.103097 
4543.403612  	94.107785 
4544.368037  	94.099760 
4545.332461  	94.079577 
4546.296886  	94.134367 
4547.261310  	94.157843 
4548.225734  	94.179944 
4549.190159  	94.180341 
4550.154583  	94.182016 
4551.119008  	94.156596 
4552.083432  	94.106649 
4553.047857  	94.072822 
4554.012281  	94.131801 
4554.976706  	94.213344 
4555.941130  	94.203783 
4556.905555  	94.149268 
4557.869979  	94.201924 
4558.834404  	94.251807 
4559.798828  	94.160364 
4560.763252  	94.020584 
4561.727677  	94.023079 
4562.692101  	94.092761 
4563.656526  	94.159789 
4564.620950  	94.177932 
4565.585375  	94.113601 
4566.549799  	94.118760 
4567.514224  	94.222679 
4568.478648  	94.249845 
4569.443073  	94.213413 
4570.407497  	94.228641 
4571.371921  	94.249077 
4572.336346  	94.136372 
4573.300770  	94.065515 
4574.265195  	94.072454 
4575.229619  	94.096573 
4576.194044  	94.086958 
4577.158468  	94.124862 
4578.122893  	94.184767 
4579.087317  	94.187309 
4580.051742  	94.122785 
4581.016166  	94.163397 
4581.980590  	94.203646 
4582.945015  	94.242319 
4583.909439  	94.210714 
4584.873864  	94.116942 
4585.838288  	94.074287 
4586.802713  	94.161610 
4587.767137  	94.132338 
4588.731562  	94.094627 
4589.695986  	94.112253 
4590.660411  	94.127870 
4591.624835  	94.109324 
4592.589259  	94.096195 
4593.553684  	94.160745 
4594.518108  	94.125845 
4595.482533  	94.036007 
4596.446957  	94.046266 
4597.411382  	94.029257 
4598.375806  	94.023493 
4599.340231  	94.074623 
4600.304655  	94.131824 
4601.269080  	94.114267 
4602.233504  	94.054263 
4603.197928  	94.068480 
4604.162353  	94.162169 
4605.126777  	94.173497 
4606.091202  	94.099534 
4607.055626  	94.092571 
4608.020051  	94.157816 
4608.984475  	94.097362 
4609.948900  	94.124196 
4610.913324  	94.162885 
4611.877749  	94.085509 
4612.842173  	94.122833 
4613.806598  	94.261591 
4614.771022  	94.159530 
4615.735446  	94.150437 
4616.699871  	94.187603 
4617.664295  	94.102134 
4618.628720  	94.067137 
4619.593144  	94.048165 
4620.557569  	94.099546 
4621.521993  	94.133412 
4622.486418  	94.088206 
4623.450842  	94.086704 
4624.415267  	94.036045 
4625.379691  	94.062951 
4626.344115  	94.126773 
4627.308540  	94.193365 
4628.272964  	94.123638 
4629.237389  	94.107085 
4630.201813  	94.149024 
4631.166238  	94.182805 
4632.130662  	94.146825 
4633.095087  	94.023325 
4634.059511  	94.038188 
4635.023936  	94.194482 
4635.988360  	94.283071 
4636.952784  	94.191675 
4637.917209  	94.091726 
4638.881633  	93.993028 
4639.846058  	93.993690 
4640.810482  	94.075149 
4641.774907  	94.066852 
4642.739331  	94.032985 
4643.703756  	93.980343 
4644.668180  	94.017118 
4645.632605  	94.012632 
4646.597029  	94.015138 
4647.561453  	94.082181 
4648.525878  	94.093495 
4649.490302  	94.077385 
4650.454727  	94.117126 
4651.419151  	94.143897 
4652.383576  	94.158116 
4653.348000  	94.135888 
4654.312425  	94.119890 
4655.276849  	94.137588 
4656.241274  	94.149069 
4657.205698  	94.146113 
4658.170122  	94.094857 
4659.134547  	94.080224 
4660.098971  	94.088764 
4661.063396  	94.140250 
4662.027820  	94.188079 
4662.992245  	94.087150 
4663.956669  	94.040037 
4664.921094  	94.083437 
4665.885518  	94.081613 
4666.849943  	94.084064 
4667.814367  	94.127292 
4668.778791  	94.159454 
4669.743216  	94.105696 
4670.707640  	94.062692 
4671.672065  	94.083811 
4672.636489  	94.073878 
4673.600914  	94.065988 
4674.565338  	94.080533 
4675.529763  	94.042013 
4676.494187  	94.120715 
4677.458612  	94.177155 
4678.423036  	94.173008 
4679.387461  	94.157468 
4680.351885  	94.089082 
4681.316309  	94.049525 
4682.280734  	94.032050 
4683.245158  	93.967525 
4684.209583  	93.987249 
4685.174007  	94.093546 
4686.138432  	94.082644 
4687.102856  	94.064160 
4688.067281  	94.075474 
4689.031705  	94.023838 
4689.996130  	94.062310 
4690.960554  	94.100392 
4691.924978  	94.032809 
4692.889403  	93.921643 
4693.853827  	93.918807 
4694.818252  	94.092323 
4695.782676  	94.143394 
4696.747101  	94.001066 
4697.711525  	94.004881 
4698.675950  	94.043858 
4699.640374  	93.975851 