##TITLE=No Description
##DATA TYPE=INFRARED SPECTRUM
##XUNITS=1/CM
##YUNITS=%T
400.236149  	119.939217 
401.200574  	104.801762 
402.164998  	93.488230 
403.129423  	89.215734 
404.093847  	92.228465 
405.058272  	104.999328 
406.022696  	102.714674 
406.987120  	101.397752 
407.951545  	110.994594 
408.915969  	103.483711 
409.880394  	100.299525 
410.844818  	107.365053 
411.809243  	109.702350 
412.773667  	107.376754 
413.738092  	98.584583 
414.702516  	85.066601 
415.666941  	83.499608 
416.631365  	92.381569 
417.595789  	96.857809 
418.560214  	96.864270 
419.524638  	96.365638 
420.489063  	93.558805 
421.453487  	87.986326 
422.417912  	85.701167 
423.382336  	86.286150 
424.346761  	84.880236 
425.311185  	82.948225 
426.275610  	85.580447 
427.240034  	86.409776 
428.204458  	87.181182 
429.168883  	86.889165 
430.133307  	85.857771 
431.097732  	85.151033 
432.062156  	83.473220 
433.026581  	81.878377 
433.991005  	82.002328 
434.955430  	82.350738 
435.919854  	82.248696 
436.884279  	83.010391 
437.848703  	84.217021 
438.813127  	83.876953 
439.777552  	83.416328 
440.741976  	83.430170 
441.706401  	85.709735 
442.670825  	86.984539 
443.635250  	84.478183 
444.599674  	84.126186 
445.564099  	85.721269 
446.528523  	86.156869 
447.492948  	86.415015 
448.457372  	87.852154 
449.421796  	86.892250 
450.386221  	85.667300 
451.350645  	86.641072 
452.315070  	87.318005 
453.279494  	86.087507 
454.243919  	85.983165 
455.208343  	86.161091 
456.172768  	86.090373 
457.137192  	86.584331 
458.101617  	86.494326 
459.066041  	86.081690 
460.030466  	86.022434 
460.994890  	86.393215 
461.959314  	87.044185 
462.923739  	86.832770 
463.888163  	86.106357 
464.852588  	86.139353 
465.817012  	86.580325 
466.781437  	86.537269 
467.745861  	85.671517 
468.710286  	85.235959 
469.674710  	84.573251 
470.639135  	84.857789 
471.603559  	85.161829 
472.567983  	85.293517 
473.532408  	85.935387 
474.496832  	85.418341 
475.461257  	85.009082 
476.425681  	84.428032 
477.390106  	85.135229 
478.354530  	85.964939 
479.318955  	85.141779 
480.283379  	84.452350 
481.247804  	85.093167 
482.212228  	85.092544 
483.176652  	85.033874 
484.141077  	85.331053 
485.105501  	84.937837 
486.069926  	84.293779 
487.034350  	84.554332 
487.998775  	84.983594 
488.963199  	85.103773 
489.927624  	85.073879 
490.892048  	84.427020 
491.856473  	84.056828 
492.820897  	84.283225 
493.785321  	84.171172 
494.749746  	83.252308 
495.714170  	83.136705 
496.678595  	83.213889 
497.643019  	83.018296 
498.607444  	82.998510 
499.571868  	82.510134 
500.536293  	82.115112 
501.500717  	81.135111 
502.465142  	80.479048 
503.429566  	81.126391 
504.393990  	80.835810 
505.358415  	80.151533 
506.322839  	79.554475 
507.287264  	79.999233 
508.251688  	81.315608 
509.216113  	82.737399 
510.180537  	83.493416 
511.144962  	84.296948 
512.109386  	85.142043 
513.073811  	85.119240 
514.038235  	85.186303 
515.002660  	85.525891 
515.967084  	85.207347 
516.931508  	85.018668 
517.895933  	85.537133 
518.860357  	85.736134 
519.824782  	85.182014 
520.789206  	85.558385 
521.753631  	86.100084 
522.718055  	86.068339 
523.682480  	85.890676 
524.646904  	85.622101 
525.611329  	85.269167 
526.575753  	85.473349 
527.540177  	86.385058 
528.504602  	86.845074 
529.469026  	86.678555 
530.433451  	86.646962 
531.397875  	86.924237 
532.362300  	87.073590 
533.326724  	87.427072 
534.291149  	87.430294 
535.255573  	86.959573 
536.219998  	87.004327 
537.184422  	87.843553 
538.148846  	87.837780 
539.113271  	87.819167 
540.077695  	87.987357 
541.042120  	88.260032 
542.006544  	88.409323 
542.970969  	88.386846 
543.935393  	88.577929 
544.899818  	88.480416 
545.864242  	88.178101 
546.828667  	88.221999 
547.793091  	88.229351 
548.757515  	88.290268 
549.721940  	88.706433 
550.686364  	88.939086 
551.650789  	89.209214 
552.615213  	89.002123 
553.579638  	88.948350 
554.544062  	88.902590 
555.508487  	89.042307 
556.472911  	89.080682 
557.437336  	88.773436 
558.401760  	88.753019 
559.366184  	89.128754 
560.330609  	89.151898 
561.295033  	89.150534 
562.259458  	89.169937 
563.223882  	88.782229 
564.188307  	88.685724 
565.152731  	89.124324 
566.117156  	89.122945 
567.081580  	88.786789 
568.046005  	88.805444 
569.010429  	88.875611 
569.974853  	88.798531 
570.939278  	88.830738 
571.903702  	89.012086 
572.868127  	88.985989 
573.832551  	88.683642 
574.796976  	88.681383 
575.761400  	88.436633 
576.725825  	88.638641 
577.690249  	88.741160 
578.654674  	88.807257 
579.619098  	88.867658 
580.583523  	88.857483 
581.547947  	89.073999 
582.512371  	89.231793 
583.476796  	89.035824 
584.441220  	88.785740 
585.405645  	88.879065 
586.370069  	89.360076 
587.334494  	89.427218 
588.298918  	89.253515 
589.263343  	89.180030 
590.227767  	89.244552 
591.192192  	88.909802 
592.156616  	88.665959 
593.121040  	88.974610 
594.085465  	89.270572 
595.049889  	89.216039 
596.014314  	89.169548 
596.978738  	89.208737 
597.943163  	89.222839 
598.907587  	89.141868 
599.872012  	88.721195 
600.836436  	88.781405 
601.800861  	89.069943 
602.765285  	89.009372 
603.729709  	89.048700 
604.694134  	89.161405 
605.658558  	89.255759 
606.622983  	89.240350 
607.587407  	88.972937 
608.551832  	88.941024 
609.516256  	89.028137 
610.480681  	88.912728 
611.445105  	88.856386 
612.409530  	88.979445 
613.373954  	89.162575 
614.338378  	88.890784 
615.302803  	88.468223 
616.267227  	88.504791 
617.231652  	88.794589 
618.196076  	88.708609 
619.160501  	88.639440 
620.124925  	88.398694 
621.089350  	88.398898 
622.053774  	88.517432 
623.018199  	88.612410 
623.982623  	88.392147 
624.947047  	88.196613 
625.911472  	88.005101 
626.875896  	88.025827 
627.840321  	87.930513 
628.804745  	87.800007 
629.769170  	87.331069 
630.733594  	86.657737 
631.698019  	86.334224 
632.662443  	86.327642 
633.626868  	86.656171 
634.591292  	87.307106 
635.555717  	87.573387 
636.520141  	87.880021 
637.484565  	87.940616 
638.448990  	88.040071 
639.413414  	88.043562 
640.377839  	87.998116 
641.342263  	87.835392 
642.306688  	87.608147 
643.271112  	87.617591 
644.235537  	87.623515 
645.199961  	87.474215 
646.164386  	87.530130 
647.128810  	87.583033 
648.093234  	87.442823 
649.057659  	87.182023 
650.022083  	87.021382 
650.986508  	87.047533 
651.950932  	86.938833 
652.915357  	86.822210 
653.879781  	86.769566 
654.844206  	86.755003 
655.808630  	86.677564 
656.773055  	86.548133 
657.737479  	86.542543 
658.701903  	86.294363 
659.666328  	86.142498 
660.630752  	86.143889 
661.595177  	86.089104 
662.559601  	85.925273 
663.524026  	85.848105 
664.488450  	85.872285 
665.452875  	85.848488 
666.417299  	85.727494 
667.381724  	85.457924 
668.346148  	84.213026 
669.310572  	84.170295 
670.274997  	84.410825 
671.239421  	84.396718 
672.203846  	84.324164 
673.168270  	84.155158 
674.132695  	83.679913 
675.097119  	83.273805 
676.061544  	82.800313 
677.025968  	82.345322 
677.990393  	81.927643 
678.954817  	81.674304 
679.919241  	81.451857 
680.883666  	81.230046 
681.848090  	81.218303 
682.812515  	81.255055 
683.776939  	81.012487 
684.741364  	80.719956 
685.705788  	80.486722 
686.670213  	80.413458 
687.634637  	80.034793 
688.599062  	79.526875 
689.563486  	79.137972 
690.527910  	78.715672 
691.492335  	78.116848 
692.456759  	77.438411 
693.421184  	76.736347 
694.385608  	76.118613 
695.350033  	75.234469 
696.314457  	74.223614 
697.278882  	73.035550 
698.243306  	71.569304 
699.207731  	70.042926 
700.172155  	68.669010 
701.136580  	67.220908 
702.101004  	66.003473 
703.065428  	64.962651 
704.029853  	63.903899 
704.994277  	62.723021 
705.958702  	61.516578 
706.923126  	60.157594 
707.887551  	58.705671 
708.851975  	57.093276 
709.816400  	55.300198 
710.780824  	53.508460 
711.745249  	51.716428 
712.709673  	49.675496 
713.674097  	47.382759 
714.638522  	45.050161 
715.602946  	42.724356 
716.567371  	40.312182 
717.531795  	38.120686 
718.496220  	36.181807 
719.460644  	34.738171 
720.425069  	33.828335 
721.389493  	33.687353 
722.353918  	34.151160 
723.318342  	35.266994 
724.282766  	37.220043 
725.247191  	40.081193 
726.211615  	43.307798 
727.176040  	46.606241 
728.140464  	49.667952 
729.104889  	52.688282 
730.069313  	55.733342 
731.033738  	58.870530 
731.998162  	62.026609 
732.962587  	65.153468 
733.927011  	68.280534 
734.891435  	71.473519 
735.855860  	74.560976 
736.820284  	77.519678 
737.784709  	80.218530 
738.749133  	82.693819 
739.713558  	84.842871 
740.677982  	86.645904 
741.642407  	88.034185 
742.606831  	89.228380 
743.571256  	90.179101 
744.535680  	90.773191 
745.500104  	91.252474 
746.464529  	91.670201 
747.428953  	91.943184 
748.393378  	92.165625 
749.357802  	92.185212 
750.322227  	92.232288 
751.286651  	92.307807 
752.251076  	92.383630 
753.215500  	92.451995 
754.179925  	92.492688 
755.144349  	92.410845 
756.108774  	92.461185 
757.073198  	92.446018 
758.037622  	92.307808 
759.002047  	92.210075 
759.966471  	92.240133 
760.930896  	92.126528 
761.895320  	92.039302 
762.859745  	92.089277 
763.824169  	92.115573 
764.788594  	92.030396 
765.753018  	91.866561 
766.717443  	91.697170 
767.681867  	91.560108 
768.646291  	91.365013 
769.610716  	91.227250 
770.575140  	91.116984 
771.539565  	91.041875 
772.503989  	90.858837 
773.468414  	90.737922 
774.432838  	90.631460 
775.397263  	90.518009 
776.361687  	90.340415 
777.326112  	90.238843 
778.290536  	90.176941 
779.254960  	90.162525 
780.219385  	89.837146 
781.183809  	89.640308 
782.148234  	89.365523 
783.112658  	89.238538 
784.077083  	89.001564 
785.041507  	88.583106 
786.005932  	88.217292 
786.970356  	87.632362 
787.934781  	87.099498 
788.899205  	86.700031 
789.863629  	86.293773 
790.828054  	85.755114 
791.792478  	85.228035 
792.756903  	84.956985 
793.721327  	85.130968 
794.685752  	85.585261 
795.650176  	86.257777 
796.614601  	87.098302 
797.579025  	87.820934 
798.543450  	88.082601 
799.507874  	88.162215 
800.472298  	88.266970 
801.436723  	88.338351 
802.401147  	88.354678 
803.365572  	88.400686 
804.329996  	88.365208 
805.294421  	88.367073 
806.258845  	88.360977 
807.223270  	88.383093 
808.187694  	88.357841 
809.152119  	88.356792 
810.116543  	88.354052 
811.080967  	88.263208 
812.045392  	88.270842 
813.009816  	88.343984 
813.974241  	88.373356 
814.938665  	88.388128 
815.903090  	88.444448 
816.867514  	88.419330 
817.831939  	88.321967 
818.796363  	88.299227 
819.760788  	88.231290 
820.725212  	88.221864 
821.689637  	88.131549 
822.654061  	87.974497 
823.618485  	87.853731 
824.582910  	87.673998 
825.547334  	87.452844 
826.511759  	87.274935 
827.476183  	87.131345 
828.440608  	86.966296 
829.405032  	86.693258 
830.369457  	86.337403 
831.333881  	86.089422 
832.298306  	85.861230 
833.262730  	85.515199 
834.227154  	85.116228 
835.191579  	84.774466 
836.156003  	84.375233 
837.120428  	83.863234 
838.084852  	83.378322 
839.049277  	82.914969 
840.013701  	82.439875 
840.978126  	81.949239 
841.942550  	81.481188 
842.906975  	80.922227 
843.871399  	80.213997 
844.835823  	79.494075 
845.800248  	78.930308 
846.764672  	78.628453 
847.729097  	78.638627 
848.693521  	78.792981 
849.657946  	79.163524 
850.622370  	79.676496 
851.586795  	80.196508 
852.551219  	80.574954 
853.515644  	80.846845 
854.480068  	81.092152 
855.444492  	81.304221 
856.408917  	81.465266 
857.373341  	81.636694 
858.337766  	81.900671 
859.302190  	82.136322 
860.266615  	82.177812 
861.231039  	82.144684 
862.195464  	82.013114 
863.159888  	81.726240 
864.124313  	81.271661 
865.088737  	80.551347 
866.053161  	79.628431 
867.017586  	78.236759 
867.982010  	76.298523 
868.946435  	73.788851 
869.910859  	70.539807 
870.875284  	67.032683 
871.839708  	65.015897 
872.804133  	65.994354 
873.768557  	69.263285 
874.732982  	72.811023 
875.697406  	75.601319 
876.661831  	77.654633 
877.626255  	79.207838 
878.590679  	80.524533 
879.555104  	81.740067 
880.519528  	82.782832 
881.483953  	83.700230 
882.448377  	84.587409 
883.412802  	85.400837 
884.377226  	86.100578 
885.341651  	86.635682 
886.306075  	87.026029 
887.270500  	87.332928 
888.234924  	87.617533 
889.199348  	87.749050 
890.163773  	87.825638 
891.128197  	87.933030 
892.092622  	87.952516 
893.057046  	87.837760 
894.021471  	87.759122 
894.985895  	87.783807 
895.950320  	87.724554 
896.914744  	87.587529 
897.879169  	87.565863 
898.843593  	87.613326 
899.808017  	87.694983 
900.772442  	87.824635 
901.736866  	87.922181 
902.701291  	88.094165 
903.665715  	88.345661 
904.630140  	88.500862 
905.594564  	88.655697 
906.558989  	88.917899 
907.523413  	89.186464 
908.487838  	89.359292 
909.452262  	89.532138 
910.416686  	89.719582 
911.381111  	89.901961 
912.345535  	90.056588 
913.309960  	90.158330 
914.274384  	90.251694 
915.238809  	90.310300 
916.203233  	90.339662 
917.167658  	90.415081 
918.132082  	90.446013 
919.096507  	90.518732 
920.060931  	90.566782 
921.025355  	90.544610 
921.989780  	90.533104 
922.954204  	90.551993 
923.918629  	90.522171 
924.883053  	90.514774 
925.847478  	90.525580 
926.811902  	90.469277 
927.776327  	90.429180 
928.740751  	90.422385 
929.705176  	90.401438 
930.669600  	90.325308 
931.634024  	90.248748 
932.598449  	90.205460 
933.562873  	90.195863 
934.527298  	90.125408 
935.491722  	90.029998 
936.456147  	90.024877 
937.420571  	89.976307 
938.384996  	89.842301 
939.349420  	89.741992 
940.313845  	89.702776 
941.278269  	89.646335 
942.242694  	89.558785 
943.207118  	89.443443 
944.171542  	89.375158 
945.135967  	89.317194 
946.100391  	89.179714 
947.064816  	88.998296 
948.029240  	88.879644 
948.993665  	88.784451 
949.958089  	88.634901 
950.922514  	88.451220 
951.886938  	88.364981 
952.851363  	88.217257 
953.815787  	87.984918 
954.780211  	87.783318 
955.744636  	87.610312 
956.709060  	87.366363 
957.673485  	87.095864 
958.637909  	86.791991 
959.602334  	86.476744 
960.566758  	86.153686 
961.531183  	85.806394 
962.495607  	85.399070 
963.460032  	84.979965 
964.424456  	84.529354 
965.388880  	83.986540 
966.353305  	83.474758 
967.317729  	83.025623 
968.282154  	82.569025 
969.246578  	82.175197 
970.211003  	81.881571 
971.175427  	81.680367 
972.139852  	81.655264 
973.104276  	81.836458 
974.068701  	82.180588 
975.033125  	82.622165 
975.997549  	83.098466 
976.961974  	83.580625 
977.926398  	84.076605 
978.890823  	84.538427 
979.855247  	84.908528 
980.819672  	85.236594 
981.784096  	85.558735 
982.748521  	85.822539 
983.712945  	85.965200 
984.677370  	86.008648 
985.641794  	86.031520 
986.606218  	86.014539 
987.570643  	85.983631 
988.535067  	85.979745 
989.499492  	86.026701 
990.463916  	86.107701 
991.428341  	86.215928 
992.392765  	86.269544 
993.357190  	86.242376 
994.321614  	86.240988 
995.286039  	86.243842 
996.250463  	86.209513 
997.214888  	86.108303 
998.179312  	85.990860 
999.143736  	85.833838 
1000.108161  	85.643176 
1001.072585  	85.440948 
1002.037010  	85.231123 
1003.001434  	84.959174 
1003.965859  	84.616317 
1004.930283  	84.250514 
1005.894708  	83.764195 
1006.859132  	83.126748 
1007.823557  	82.373044 
1008.787981  	81.517168 
1009.752405  	80.493511 
1010.716830  	79.164284 
1011.681254  	77.473627 
1012.645679  	75.375704 
1013.610103  	72.765115 
1014.574528  	69.853247 
1015.538952  	67.227167 
1016.503377  	65.389411 
1017.467801  	64.498651 
1018.432226  	64.653789 
1019.396650  	65.678350 
1020.361074  	67.126708 
1021.325499  	68.679969 
1022.289923  	70.066325 
1023.254348  	71.345933 
1024.218772  	72.843519 
1025.183197  	74.760996 
1026.147621  	76.873515 
1027.112046  	78.781074 
1028.076470  	80.135724 
1029.040895  	80.920794 
1030.005319  	81.317118 
1030.969743  	81.495960 
1031.934168  	81.577093 
1032.898592  	81.577127 
1033.863017  	81.431781 
1034.827441  	81.192955 
1035.791866  	81.006952 
1036.756290  	80.834882 
1037.720715  	80.652948 
1038.685139  	80.464766 
1039.649564  	80.311862 
1040.613988  	80.128962 
1041.578412  	79.964848 
1042.542837  	79.874146 
1043.507261  	79.844378 
1044.471686  	79.829946 
1045.436110  	79.848243 
1046.400535  	79.993924 
1047.364959  	80.145845 
1048.329384  	80.233910 
1049.293808  	80.406484 
1050.258233  	80.674845 
1051.222657  	80.869127 
1052.187081  	80.970601 
1053.151506  	81.070778 
1054.115930  	81.234843 
1055.080355  	81.301490 
1056.044779  	81.232684 
1057.009204  	81.149631 
1057.973628  	81.090294 
1058.938053  	80.936846 
1059.902477  	80.610590 
1060.866902  	80.266807 
1061.831326  	79.975973 
1062.795751  	79.564378 
1063.760175  	79.023640 
1064.724599  	78.464665 
1065.689024  	77.905060 
1066.653448  	77.265367 
1067.617873  	76.563092 
1068.582297  	75.797454 
1069.546722  	74.967403 
1070.511146  	74.062509 
1071.475571  	73.111694 
1072.439995  	72.101981 
1073.404420  	71.019544 
1074.368844  	69.811731 
1075.333268  	68.419807 
1076.297693  	66.968853 
1077.262117  	65.512498 
1078.226542  	64.003951 
1079.190966  	62.472313 
1080.155391  	60.975139 
1081.119815  	59.598511 
1082.084240  	58.325523 
1083.048664  	57.212192 
1084.013089  	56.278403 
1084.977513  	55.459192 
1085.941937  	54.677329 
1086.906362  	53.954528 
1087.870786  	53.355229 
1088.835211  	52.859854 
1089.799635  	52.333005 
1090.764060  	51.795943 
1091.728484  	51.375114 
1092.692909  	51.023186 
1093.657333  	50.699594 
1094.621758  	50.461634 
1095.586182  	50.385954 
1096.550606  	50.395118 
1097.515031  	50.474190 
1098.479455  	50.698873 
1099.443880  	51.033675 
1100.408304  	51.396969 
1101.372729  	51.837090 
1102.337153  	52.424924 
1103.301578  	53.080209 
1104.266002  	53.723932 
1105.230427  	54.409038 
1106.194851  	55.175134 
1107.159275  	55.959303 
1108.123700  	56.678673 
1109.088124  	57.350600 
1110.052549  	57.956836 
1111.016973  	58.431816 
1111.981398  	58.754770 
1112.945822  	58.997246 
1113.910247  	59.203349 
1114.874671  	59.323291 
1115.839096  	59.256016 
1116.803520  	59.092719 
1117.767945  	58.916596 
1118.732369  	58.779628 
1119.696793  	58.717807 
1120.661218  	58.711940 
1121.625642  	58.804323 
1122.590067  	58.999892 
1123.554491  	59.237901 
1124.518916  	59.575763 
1125.483340  	60.035754 
1126.447765  	60.556065 
1127.412189  	61.115991 
1128.376614  	61.787427 
1129.341038  	62.613755 
1130.305462  	63.565193 
1131.269887  	64.597636 
1132.234311  	65.739749 
1133.198736  	67.033678 
1134.163160  	68.407115 
1135.127585  	69.817668 
1136.092009  	71.275178 
1137.056434  	72.739986 
1138.020858  	74.152713 
1138.985283  	75.457709 
1139.949707  	76.682339 
1140.914131  	77.900615 
1141.878556  	78.994060 
1142.842980  	79.931024 
1143.807405  	80.881917 
1144.771829  	81.812570 
1145.736254  	82.648117 
1146.700678  	83.376497 
1147.665103  	84.032670 
1148.629527  	84.649590 
1149.593952  	85.206199 
1150.558376  	85.719805 
1151.522800  	86.169763 
1152.487225  	86.586418 
1153.451649  	86.984063 
1154.416074  	87.336975 
1155.380498  	87.589064 
1156.344923  	87.838226 
1157.309347  	88.075791 
1158.273772  	88.281181 
1159.238196  	88.392614 
1160.202621  	88.496783 
1161.167045  	88.602890 
1162.131469  	88.653479 
1163.095894  	88.643690 
1164.060318  	88.624255 
1165.024743  	88.555579 
1165.989167  	88.411037 
1166.953592  	88.182393 
1167.918016  	87.904936 
1168.882441  	87.508797 
1169.846865  	87.069073 
1170.811290  	86.674509 
1171.775714  	86.339963 
1172.740138  	86.130225 
1173.704563  	85.968731 
1174.668987  	85.857524 
1175.633412  	85.940905 
1176.597836  	86.101411 
1177.562261  	86.249351 
1178.526685  	86.421182 
1179.491110  	86.658663 
1180.455534  	86.916328 
1181.419959  	87.203293 
1182.384383  	87.461905 
1183.348808  	87.632334 
1184.313232  	87.786409 
1185.277656  	87.896067 
1186.242081  	87.946735 
1187.206505  	87.976332 
1188.170930  	87.958307 
1189.135354  	87.861272 
1190.099779  	87.771331 
1191.064203  	87.687944 
1192.028628  	87.533464 
1192.993052  	87.282989 
1193.957477  	87.021452 
1194.921901  	86.755920 
1195.886325  	86.418771 
1196.850750  	86.057441 
1197.815174  	85.704379 
1198.779599  	85.366775 
1199.744023  	85.043340 
1200.708448  	84.636023 
1201.672872  	84.218311 
1202.637297  	83.866477 
1203.601721  	83.480274 
1204.566146  	83.053387 
1205.530570  	82.626324 
1206.494994  	82.231420 
1207.459419  	81.814197 
1208.423843  	81.335335 
1209.388268  	80.839256 
1210.352692  	80.323041 
1211.317117  	79.746851 
1212.281541  	79.142434 
1213.245966  	78.543980 
1214.210390  	77.881049 
1215.174815  	77.132909 
1216.139239  	76.302389 
1217.103663  	75.430128 
1218.068088  	74.511184 
1219.032512  	73.552026 
1219.996937  	72.560832 
1220.961361  	71.567483 
1221.925786  	70.637536 
1222.890210  	69.726056 
1223.854635  	68.820951 
1224.819059  	67.928109 
1225.783484  	67.032866 
1226.747908  	66.052430 
1227.712332  	64.910942 
1228.676757  	63.644392 
1229.641181  	62.236934 
1230.605606  	60.702659 
1231.570030  	59.090486 
1232.534455  	57.426276 
1233.498879  	55.760465 
1234.463304  	54.136996 
1235.427728  	52.631096 
1236.392153  	51.317503 
1237.356577  	50.141307 
1238.321002  	49.140635 
1239.285426  	48.357415 
1240.249850  	47.752601 
1241.214275  	47.290547 
1242.178699  	46.963561 
1243.143124  	46.766718 
1244.107548  	46.683258 
1245.071973  	46.708368 
1246.036397  	46.803434 
1247.000822  	46.954870 
1247.965246  	47.141153 
1248.929671  	47.323112 
1249.894095  	47.525374 
1250.858519  	47.778413 
1251.822944  	48.003682 
1252.787368  	48.203021 
1253.751793  	48.410003 
1254.716217  	48.601000 
1255.680642  	48.783758 
1256.645066  	48.945945 
1257.609491  	49.124700 
1258.573915  	49.345538 
1259.538340  	49.532864 
1260.502764  	49.753864 
1261.467188  	50.194412 
1262.431613  	50.697992 
1263.396037  	51.218406 
1264.360462  	51.787277 
1265.324886  	52.421889 
1266.289311  	53.148361 
1267.253735  	53.909650 
1268.218160  	54.664933 
1269.182584  	55.474722 
1270.147009  	56.289354 
1271.111433  	57.096570 
1272.075857  	57.900964 
1273.040282  	58.800910 
1274.004706  	59.607788 
1274.969131  	60.350662 
1275.933555  	61.081673 
1276.897980  	61.834565 
1277.862404  	62.590568 
1278.826829  	63.321450 
1279.791253  	64.000657 
1280.755678  	64.750196 
1281.720102  	65.517957 
1282.684526  	66.258537 
1283.648951  	66.979134 
1284.613375  	67.718442 
1285.577800  	68.470936 
1286.542224  	69.154423 
1287.506649  	69.773707 
1288.471073  	70.530142 
1289.435498  	71.388898 
1290.399922  	72.164893 
1291.364347  	72.970112 
1292.328771  	73.840065 
1293.293195  	74.687040 
1294.257620  	75.534041 
1295.222044  	76.359301 
1296.186469  	77.149757 
1297.150893  	77.980383 
1298.115318  	78.926151 
1299.079742  	79.777878 
1300.044167  	80.609488 
1301.008591  	81.380557 
1301.973016  	82.045696 
1302.937440  	82.643281 
1303.901865  	83.211834 
1304.866289  	83.726099 
1305.830713  	84.168107 
1306.795138  	84.552010 
1307.759562  	84.887091 
1308.723987  	85.295477 
1309.688411  	85.820025 
1310.652836  	86.222309 
1311.617260  	86.452774 
1312.581685  	86.465650 
1313.546109  	86.828644 
1314.510534  	87.256389 
1315.474958  	87.686203 
1316.439382  	87.831325 
1317.403807  	87.929665 
1318.368231  	88.115742 
1319.332656  	88.194288 
1320.297080  	88.648423 
1321.261505  	89.039452 
1322.225929  	89.366297 
1323.190354  	89.527737 
1324.154778  	89.687760 
1325.119203  	89.818716 
1326.083627  	89.848478 
1327.048051  	89.817632 
1328.012476  	89.708468 
1328.976900  	89.472906 
1329.941325  	89.040757 
1330.905749  	88.510304 
1331.870174  	87.741846 
1332.834598  	86.667807 
1333.799023  	85.379766 
1334.763447  	83.917569 
1335.727872  	82.136172 
1336.692296  	80.073375 
1337.656720  	78.410911 
1338.621145  	76.573012 
1339.585569  	74.946455 
1340.549994  	74.657343 
1341.514418  	75.661728 
1342.478843  	76.702063 
1343.443267  	77.794053 
1344.407692  	79.307680 
1345.372116  	81.068356 
1346.336541  	82.889647 
1347.300965  	84.552745 
1348.265389  	85.948702 
1349.229814  	87.032852 
1350.194238  	88.057288 
1351.158663  	88.911149 
1352.123087  	89.502904 
1353.087512  	89.969611 
1354.051936  	90.180463 
1355.016361  	90.208394 
1355.980785  	90.614736 
1356.945210  	90.873962 
1357.909634  	90.851876 
1358.874059  	90.929847 
1359.838483  	90.915551 
1360.802907  	90.257238 
1361.767332  	89.676613 
1362.731756  	88.751009 
1363.696181  	88.618789 
1364.660605  	89.598054 
1365.625030  	89.604885 
1366.589454  	89.333480 
1367.553879  	88.822289 
1368.518303  	88.108188 
1369.482728  	88.008153 
1370.447152  	88.355778 
1371.411576  	88.351673 
1372.376001  	88.202610 
1373.340425  	87.564863 
1374.304850  	87.123363 
1375.269274  	87.634009 
1376.233699  	88.496105 
1377.198123  	88.713619 
1378.162548  	88.570227 
1379.126972  	88.712415 
1380.091397  	88.893442 
1381.055821  	89.062846 
1382.020245  	89.093174 
1382.984670  	89.048368 
1383.949094  	89.035730 
1384.913519  	89.001386 
1385.877943  	88.563764 
1386.842368  	87.550465 
1387.806792  	87.349322 
1388.771217  	88.385061 
1389.735641  	88.785627 
1390.700066  	88.688884 
1391.664490  	88.707925 
1392.628914  	88.659787 
1393.593339  	87.991672 
1394.557763  	86.667265 
1395.522188  	86.334690 
1396.486612  	86.757675 
1397.451037  	86.442315 
1398.415461  	85.459457 
1399.379886  	84.791156 
1400.344310  	84.893259 
1401.308735  	84.607967 
1402.273159  	83.642569 
1403.237583  	82.460065 
1404.202008  	80.705944 
1405.166432  	78.581631 
1406.130857  	77.524701 
1407.095281  	76.678549 
1408.059706  	75.662048 
1409.024130  	75.197950 
1409.988555  	75.254652 
1410.952979  	76.063185 
1411.917404  	77.393124 
1412.881828  	79.554908 
1413.846252  	81.749311 
1414.810677  	83.746781 
1415.775101  	85.165641 
1416.739526  	86.144239 
1417.703950  	86.901176 
1418.668375  	87.146472 
1419.632799  	87.626453 
1420.597224  	90.066002 
1421.561648  	91.044625 
1422.526073  	91.397292 
1423.490497  	90.737870 
1424.454922  	90.648681 
1425.419346  	91.805346 
1426.383770  	92.202414 
1427.348195  	92.175660 
1428.312619  	91.928430 
1429.277044  	91.429677 
1430.241468  	91.004140 
1431.205893  	91.367918 
1432.170317  	91.250940 
1433.134742  	90.893798 
1434.099166  	90.959000 
1435.063591  	90.629120 
1436.028015  	89.219385 
1436.992439  	88.213327 
1437.956864  	89.577320 
1438.921288  	90.141150 
1439.885713  	90.188974 
1440.850137  	90.163248 
1441.814562  	90.080169 
1442.778986  	90.042691 
1443.743411  	89.945946 
1444.707835  	89.807509 
1445.672260  	89.649679 
1446.636684  	89.343083 
1447.601108  	88.445255 
1448.565533  	88.342989 
1449.529957  	89.084529 
1450.494382  	89.134589 
1451.458806  	88.656370 
1452.423231  	88.291983 
1453.387655  	88.623062 
1454.352080  	88.204898 
1455.316504  	87.138109 
1456.280929  	86.223722 
1457.245353  	85.596310 
1458.209777  	85.848602 
1459.174202  	86.849140 
1460.138626  	88.351584 
1461.103051  	89.195247 
1462.067475  	89.455684 
1463.031900  	89.525033 
1463.996324  	89.070519 
1464.960749  	88.160778 
1465.925173  	88.656693 
1466.889598  	89.058622 
1467.854022  	88.854453 
1468.818446  	88.475420 
1469.782871  	87.770671 
1470.747295  	86.739928 
1471.711720  	85.037455 
1472.676144  	84.323452 
1473.640569  	85.463450 
1474.604993  	87.368907 
1475.569418  	87.681728 
1476.533842  	87.623925 
1477.498267  	89.206257 
1478.462691  	90.138199 
1479.427116  	90.506179 
1480.391540  	90.531011 
1481.355964  	90.280174 
1482.320389  	91.021800 
1483.284813  	91.700870 
1484.249238  	92.038306 
1485.213662  	92.046396 
1486.178087  	91.654873 
1487.142511  	91.232665 
1488.106936  	91.521309 
1489.071360  	90.695736 
1490.035785  	89.390307 
1491.000209  	90.772863 
1491.964633  	92.535686 
1492.929058  	93.239828 
1493.893482  	93.309989 
1494.857907  	92.938737 
1495.822331  	91.854307 
1496.786756  	91.270424 
1497.751180  	91.729130 
1498.715605  	91.011479 
1499.680029  	90.902192 
1500.644454  	90.904461 
1501.608878  	89.910905 
1502.573302  	89.099673 
1503.537727  	88.434646 
1504.502151  	87.169141 
1505.466576  	85.162541 
1506.431000  	82.053414 
1507.395425  	82.116630 
1508.359849  	84.864726 
1509.324274  	87.097900 
1510.288698  	88.984285 
1511.253123  	90.518933 
1512.217547  	90.641854 
1513.181971  	91.582383 
1514.146396  	92.064178 
1515.110820  	91.246205 
1516.075245  	90.260089 
1517.039669  	88.977285 
1518.004094  	90.784010 
1518.968518  	92.034127 
1519.932943  	91.055494 
1520.897367  	88.679505 
1521.861792  	88.936372 
1522.826216  	90.285909 
1523.790640  	91.348562 
1524.755065  	90.937446 
1525.719489  	90.511637 
1526.683914  	91.132614 
1527.648338  	90.813253 
1528.612763  	91.251785 
1529.577187  	92.326455 
1530.541612  	92.662019 
1531.506036  	91.929708 
1532.470461  	91.425190 
1533.434885  	90.498051 
1534.399309  	90.894373 
1535.363734  	91.839517 
1536.328158  	92.360860 
1537.292583  	92.479758 
1538.257007  	91.410875 
1539.221432  	88.829273 
1540.185856  	88.570540 
1541.150281  	89.693771 
1542.114705  	89.702407 
1543.079130  	89.897826 
1544.043554  	90.009555 
1545.007979  	89.611671 
1545.972403  	90.792437 
1546.936827  	92.185494 
1547.901252  	92.422228 
1548.865676  	91.878460 
1549.830101  	90.175072 
1550.794525  	90.728474 
1551.758950  	92.116585 
1552.723374  	92.111240 
1553.687799  	91.213789 
1554.652223  	90.319983 
1555.616648  	91.347876 
1556.581072  	91.457828 
1557.545496  	90.222366 
1558.509921  	86.543036 
1559.474345  	85.768087 
1560.438770  	88.729144 
1561.403194  	91.251465 
1562.367619  	92.045652 
1563.332043  	92.248288 
1564.296468  	91.850243 
1565.260892  	91.525581 
1566.225317  	92.079474 
1567.189741  	92.257418 
1568.154165  	91.777230 
1569.118590  	90.369758 
1570.083014  	90.046222 
1571.047439  	91.304594 
1572.011863  	91.546255 
1572.976288  	91.406469 
1573.940712  	91.205202 
1574.905137  	90.614144 
1575.869561  	89.287069 
1576.833986  	88.557420 
1577.798410  	89.376604 
1578.762834  	89.998197 
1579.727259  	90.386482 
1580.691683  	90.755438 
1581.656108  	91.034754 
1582.620532  	91.315510 
1583.584957  	91.601544 
1584.549381  	91.913092 
1585.513806  	92.148094 
1586.478230  	92.331463 
1587.442655  	92.434491 
1588.407079  	92.503191 
1589.371503  	92.432044 
1590.335928  	92.432127 
1591.300352  	92.492194 
1592.264777  	92.507419 
1593.229201  	92.508724 
1594.193626  	92.275120 
1595.158050  	92.202940 
1596.122475  	92.299178 
1597.086899  	92.345603 
1598.051324  	92.436135 
1599.015748  	92.394880 
1599.980173  	92.339674 
1600.944597  	92.071400 
1601.909021  	91.923515 
1602.873446  	91.717963 
1603.837870  	91.699648 
1604.802295  	91.818272 
1605.766719  	91.684057 
1606.731144  	91.265099 
1607.695568  	91.071996 
1608.659993  	90.952112 
1609.624417  	90.550580 
1610.588842  	90.741768 
1611.553266  	90.844594 
1612.517690  	90.742565 
1613.482115  	90.715976 
1614.446539  	90.631549 
1615.410964  	90.214137 
1616.375388  	89.201060 
1617.339813  	89.267704 
1618.304237  	90.311391 
1619.268662  	90.730955 
1620.233086  	90.874822 
1621.197511  	90.938560 
1622.161935  	90.546743 
1623.126359  	89.586970 
1624.090784  	89.734232 
1625.055208  	90.598773 
1626.019633  	90.759740 
1626.984057  	90.474136 
1627.948482  	89.936452 
1628.912906  	90.366245 
1629.877331  	90.639247 
1630.841755  	90.633249 
1631.806180  	90.604166 
1632.770604  	90.583926 
1633.735028  	90.236181 
1634.699453  	89.195270 
1635.663877  	87.541888 
1636.628302  	88.461060 
1637.592726  	88.568492 
1638.557151  	89.339295 
1639.521575  	89.803690 
1640.486000  	89.765346 
1641.450424  	89.711265 
1642.414849  	89.616467 
1643.379273  	89.640451 
1644.343697  	89.504865 
1645.308122  	88.622560 
1646.272546  	87.240592 
1647.236971  	86.543358 
1648.201395  	86.793650 
1649.165820  	88.129740 
1650.130244  	88.652574 
1651.094669  	88.290787 
1652.059093  	87.182610 
1653.023518  	84.136242 
1653.987942  	83.756956 
1654.952366  	85.929615 
1655.916791  	87.255233 
1656.881215  	87.437058 
1657.845640  	87.501558 
1658.810064  	87.464258 
1659.774489  	87.264441 
1660.738913  	86.688394 
1661.703338  	85.896692 
1662.667762  	84.936465 
1663.632187  	85.037981 
1664.596611  	85.163755 
1665.561036  	84.893857 
1666.525460  	84.507449 
1667.489884  	83.730883 
1668.454309  	82.115761 
1669.418733  	81.054087 
1670.383158  	81.444960 
1671.347582  	80.823002 
1672.312007  	80.779568 
1673.276431  	80.974318 
1674.240856  	80.226621 
1675.205280  	78.788317 
1676.169705  	78.746851 
1677.134129  	78.908671 
1678.098553  	78.427272 
1679.062978  	77.463138 
1680.027402  	75.753237 
1680.991827  	75.300628 
1681.956251  	75.288646 
1682.920676  	73.868930 
1683.885100  	70.471920 
1684.849525  	70.505188 
1685.813949  	73.168136 
1686.778374  	73.364397 
1687.742798  	72.434746 
1688.707222  	71.506082 
1689.671647  	70.931187 
1690.636071  	70.168170 
1691.600496  	69.561168 
1692.564920  	68.570024 
1693.529345  	67.207868 
1694.493769  	65.511474 
1695.458194  	63.116039 
1696.422618  	60.814966 
1697.387043  	60.065499 
1698.351467  	58.809844 
1699.315891  	56.896358 
1700.280316  	53.250794 
1701.244740  	52.206469 
1702.209165  	51.808404 
1703.173589  	50.509806 
1704.138014  	48.699145 
1705.102438  	47.060130 
1706.066863  	45.796160 
1707.031287  	44.718640 
1707.995712  	44.308849 
1708.960136  	43.760185 
1709.924560  	43.036743 
1710.888985  	42.871057 
1711.853409  	43.115165 
1712.817834  	43.179333 
1713.782258  	43.193920 
1714.746683  	43.567730 
1715.711107  	45.138800 
1716.675532  	46.015888 
1717.639956  	46.219247 
1718.604381  	48.717609 
1719.568805  	51.526743 
1720.533230  	53.180192 
1721.497654  	54.562534 
1722.462078  	55.890004 
1723.426503  	57.023435 
1724.390927  	58.653217 
1725.355352  	60.165153 
1726.319776  	61.568426 
1727.284201  	62.933865 
1728.248625  	64.275388 
1729.213050  	64.954330 
1730.177474  	65.781109 
1731.141899  	68.013179 
1732.106323  	69.197319 
1733.070747  	69.162635 
1734.035172  	69.065431 
1734.999596  	72.777136 
1735.964021  	75.372322 
1736.928445  	76.702436 
1737.892870  	78.084281 
1738.857294  	79.001207 
1739.821719  	79.814397 
1740.786143  	82.180442 
1741.750568  	83.690506 
1742.714992  	84.040233 
1743.679416  	84.599461 
1744.643841  	86.392895 
1745.608265  	87.707502 
1746.572690  	88.232297 
1747.537114  	88.567275 
1748.501539  	88.862603 
1749.465963  	89.652997 
1750.430388  	90.186296 
1751.394812  	89.811407 
1752.359237  	91.379592 
1753.323661  	92.621162 
1754.288085  	93.225547 
1755.252510  	93.387192 
1756.216934  	92.822588 
1757.181359  	92.406658 
1758.145783  	93.160636 
1759.110208  	93.659939 
1760.074632  	93.907812 
1761.039057  	93.341588 
1762.003481  	92.496419 
1762.967906  	93.560915 
1763.932330  	94.228521 
1764.896754  	94.405555 
1765.861179  	94.511292 
1766.825603  	94.401315 
1767.790028  	93.523498 
1768.754452  	93.348303 
1769.718877  	94.232173 
1770.683301  	93.894908 
1771.647726  	92.815845 
1772.612150  	92.413254 
1773.576575  	93.576354 
1774.540999  	94.186688 
1775.505423  	93.861791 
1776.469848  	94.230986 
1777.434272  	94.819543 
1778.398697  	94.658280 
1779.363121  	94.370135 
1780.327546  	93.913039 
1781.291970  	93.877399 
1782.256395  	94.601548 
1783.220819  	94.910353 
1784.185244  	94.587770 
1785.149668  	94.094148 
1786.114093  	94.622365 
1787.078517  	94.949419 
1788.042941  	94.938942 
1789.007366  	94.888231 
1789.971790  	94.607579 
1790.936215  	93.700988 
1791.900639  	93.186927 
1792.865064  	93.113149 
1793.829488  	94.151696 
1794.793913  	94.546293 
1795.758337  	93.947351 
1796.722762  	94.030475 
1797.687186  	94.750008 
1798.651610  	94.703516 
1799.616035  	94.130399 
1800.580459  	94.093208 
1801.544884  	93.899587 
1802.509308  	93.768198 
1803.473733  	94.514383 
1804.438157  	94.922801 
1805.402582  	94.922164 
1806.367006  	94.889265 
1807.331431  	94.652140 
1808.295855  	94.568857 
1809.260279  	94.826490 
1810.224704  	94.368831 
1811.189128  	94.002413 
1812.153553  	94.322312 
1813.117977  	94.724852 
1814.082402  	95.066408 
1815.046826  	95.091726 
1816.011251  	95.094539 
1816.975675  	94.835072 
1817.940100  	94.680205 
1818.904524  	94.985431 
1819.868948  	95.104868 
1820.833373  	95.015640 
1821.797797  	94.930960 
1822.762222  	94.768069 
1823.726646  	94.757872 
1824.691071  	94.159496 
1825.655495  	93.609995 
1826.619920  	94.638823 
1827.584344  	94.994982 
1828.548769  	94.500787 
1829.513193  	93.368853 
1830.477617  	93.581944 
1831.442042  	94.746347 
1832.406466  	95.053361 
1833.370891  	94.937197 
1834.335315  	95.129833 
1835.299740  	95.323192 
1836.264164  	95.132692 
1837.228589  	94.659537 
1838.193013  	94.900959 
1839.157438  	95.226882 
1840.121862  	95.309504 
1841.086287  	95.316995 
1842.050711  	95.042005 
1843.015135  	94.672002 
1843.979560  	93.902515 
1844.943984  	93.840525 
1845.908409  	94.704384 
1846.872833  	94.924068 
1847.837258  	94.551894 
1848.801682  	94.862410 
1849.766107  	95.437434 
1850.730531  	95.670276 
1851.694956  	95.672274 
1852.659380  	95.630627 
1853.623804  	95.702122 
1854.588229  	95.686644 
1855.552653  	95.678564 
1856.517078  	95.640444 
1857.481502  	95.579518 
1858.445927  	95.386482 
1859.410351  	95.391619 
1860.374776  	95.565833 
1861.339200  	95.557903 
1862.303625  	95.568794 
1863.268049  	95.714094 
1864.232473  	95.767545 
1865.196898  	95.744906 
1866.161322  	95.372453 
1867.125747  	94.965239 
1868.090171  	94.476562 
1869.054596  	94.057532 
1870.019020  	94.465013 
1870.983445  	95.214050 
1871.947869  	95.684380 
1872.912294  	95.959882 
1873.876718  	96.010792 
1874.841142  	95.938931 
1875.805567  	95.857849 
1876.769991  	95.861074 
1877.734416  	95.851950 
1878.698840  	95.811739 
1879.663265  	95.736284 
1880.627689  	95.784632 
1881.592114  	95.729859 
1882.556538  	95.749453 
1883.520963  	95.769534 
1884.485387  	95.652700 
1885.449811  	95.580847 
1886.414236  	95.804302 
1887.378660  	95.926051 
1888.343085  	95.708745 
1889.307509  	94.880176 
1890.271934  	94.890293 
1891.236358  	95.544126 
1892.200783  	95.753252 
1893.165207  	95.789492 
1894.129632  	95.645476 
1895.094056  	95.174628 
1896.058480  	95.363162 
1897.022905  	95.727199 
1897.987329  	95.690437 
1898.951754  	95.662776 
1899.916178  	95.742312 
1900.880603  	95.756216 
1901.845027  	95.664745 
1902.809452  	95.754343 
1903.773876  	95.779599 
1904.738301  	95.719741 
1905.702725  	95.748965 
1906.667150  	95.771682 
1907.631574  	95.463948 
1908.595998  	95.323915 
1909.560423  	95.167680 
1910.524847  	95.157796 
1911.489272  	95.669884 
1912.453696  	95.720489 
1913.418121  	95.675951 
1914.382545  	95.669204 
1915.346970  	95.821371 
1916.311394  	95.786451 
1917.275819  	95.347901 
1918.240243  	94.701159 
1919.204667  	95.284407 
1920.169092  	95.637867 
1921.133516  	95.498974 
1922.097941  	94.961631 
1923.062365  	94.522329 
1924.026790  	95.311183 
1924.991214  	95.861271 
1925.955639  	95.700875 
1926.920063  	95.621768 
1927.884488  	95.569851 
1928.848912  	95.548783 
1929.813336  	95.663655 
1930.777761  	95.859652 
1931.742185  	95.768961 
1932.706610  	95.703021 
1933.671034  	95.787405 
1934.635459  	95.736169 
1935.599883  	95.686189 
1936.564308  	95.784387 
1937.528732  	95.579794 
1938.493157  	95.508943 
1939.457581  	95.581946 
1940.422005  	95.567013 
1941.386430  	95.183260 
1942.350854  	94.402597 
1943.315279  	94.554140 
1944.279703  	95.201844 
1945.244128  	94.990376 
1946.208552  	94.911760 
1947.172977  	95.099332 
1948.137401  	95.410318 
1949.101826  	95.383520 
1950.066250  	95.450232 
1951.030674  	95.412733 
1951.995099  	95.218080 
1952.959523  	95.224010 
1953.923948  	95.282107 
1954.888372  	95.059290 
1955.852797  	95.061929 
1956.817221  	95.367922 
1957.781646  	95.685527 
1958.746070  	95.564369 
1959.710495  	95.433427 
1960.674919  	95.279872 
1961.639344  	95.180362 
1962.603768  	94.942006 
1963.568192  	94.943387 
1964.532617  	95.259647 
1965.497041  	95.434107 
1966.461466  	95.199894 
1967.425890  	95.028850 
1968.390315  	95.374561 
1969.354739  	95.715531 
1970.319164  	95.844652 
1971.283588  	95.963465 
1972.248013  	95.759445 
1973.212437  	95.803791 
1974.176861  	95.851645 
1975.141286  	95.781982 
1976.105710  	96.030257 
1977.070135  	96.481514 
1978.034559  	96.401290 
1978.998984  	95.801975 
1979.963408  	95.275250 
1980.927833  	95.365540 
1981.892257  	95.574823 
1982.856682  	95.485352 
1983.821106  	95.390531 
1984.785530  	95.517049 
1985.749955  	95.528093 
1986.714379  	95.728053 
1987.678804  	95.507941 
1988.643228  	95.232417 
1989.607653  	95.607885 
1990.572077  	95.788107 
1991.536502  	95.132737 
1992.500926  	94.709882 
1993.465351  	95.201538 
1994.429775  	95.576396 
1995.394199  	95.543446 
1996.358624  	95.606563 
1997.323048  	95.536843 
1998.287473  	95.556018 
1999.251897  	95.730773 
2000.216322  	96.056713 
2001.180746  	96.234715 
2002.145171  	96.313110 
2003.109595  	96.292659 
2004.074020  	96.304542 
2005.038444  	96.356675 
2006.002868  	96.309095 
2006.967293  	96.193032 
2007.931717  	95.660954 
2008.896142  	95.629735 
2009.860566  	96.226193 
2010.824991  	96.549509 
2011.789415  	96.480666 
2012.753840  	96.433866 
2013.718264  	96.031085 
2014.682689  	95.850420 
2015.647113  	96.230087 
2016.611537  	96.125925 
2017.575962  	95.767928 
2018.540386  	95.626512 
2019.504811  	96.159581 
2020.469235  	96.421741 
2021.433660  	96.376870 
2022.398084  	96.255839 
2023.362509  	96.477643 
2024.326933  	96.604453 
2025.291358  	96.153973 
2026.255782  	96.095686 
2027.220207  	96.261515 
2028.184631  	96.148233 
2029.149055  	96.451912 
2030.113480  	96.777973 
2031.077904  	96.834214 
2032.042329  	96.404369 
2033.006753  	96.483520 
2033.971178  	96.560512 
2034.935602  	96.433045 
2035.900027  	96.557271 
2036.864451  	96.381862 
2037.828876  	96.164091 
2038.793300  	96.254850 
2039.757724  	96.007012 
2040.722149  	96.066536 
2041.686573  	96.066000 
2042.650998  	96.037869 
2043.615422  	96.005599 
2044.579847  	95.929863 
2045.544271  	96.250617 
2046.508696  	96.345488 
2047.473120  	96.234626 
2048.437545  	96.442478 
2049.401969  	96.406626 
2050.366393  	96.068185 
2051.330818  	95.926190 
2052.295242  	96.225611 
2053.259667  	96.362214 
2054.224091  	96.031967 
2055.188516  	95.708815 
2056.152940  	95.872953 
2057.117365  	95.892416 
2058.081789  	95.931748 
2059.046214  	95.892383 
2060.010638  	95.770018 
2060.975062  	95.749506 
2061.939487  	95.928360 
2062.903911  	95.891736 
2063.868336  	95.793989 
2064.832760  	95.692493 
2065.797185  	95.810961 
2066.761609  	95.803364 
2067.726034  	95.762209 
2068.690458  	95.851628 
2069.654883  	95.945280 
2070.619307  	95.834635 
2071.583731  	95.675039 
2072.548156  	95.744674 
2073.512580  	95.748729 
2074.477005  	95.607780 
2075.441429  	95.634396 
2076.405854  	95.669056 
2077.370278  	95.557169 
2078.334703  	95.519433 
2079.299127  	95.568588 
2080.263552  	95.630695 
2081.227976  	95.536057 
2082.192401  	95.455346 
2083.156825  	95.535435 
2084.121249  	95.633929 
2085.085674  	95.767371 
2086.050098  	95.801008 
2087.014523  	95.805444 
2087.978947  	95.801932 
2088.943372  	95.703414 
2089.907796  	95.543449 
2090.872221  	95.665206 
2091.836645  	96.029694 
2092.801070  	96.038944 
2093.765494  	95.836202 
2094.729918  	95.687032 
2095.694343  	95.670987 
2096.658767  	95.679963 
2097.623192  	95.617825 
2098.587616  	95.512654 
2099.552041  	95.611373 
2100.516465  	95.694305 
2101.480890  	95.701843 
2102.445314  	95.650959 
2103.409739  	95.562364 
2104.374163  	95.488566 
2105.338587  	95.455985 
2106.303012  	95.540404 
2107.267436  	95.646066 
2108.231861  	95.608790 
2109.196285  	95.496544 
2110.160710  	95.512857 
2111.125134  	95.663441 
2112.089559  	95.678622 
2113.053983  	95.663263 
2114.018408  	95.749128 
2114.982832  	95.709190 
2115.947256  	95.580392 
2116.911681  	95.546056 
2117.876105  	95.625027 
2118.840530  	95.740959 
2119.804954  	95.859547 
2120.769379  	95.770986 
2121.733803  	95.807853 
2122.698228  	95.961059 
2123.662652  	95.860285 
2124.627077  	95.767995 
2125.591501  	95.908040 
2126.555925  	96.097567 
2127.520350  	96.060189 
2128.484774  	95.912510 
2129.449199  	95.995151 
2130.413623  	96.128596 
2131.378048  	96.064657 
2132.342472  	96.152701 
2133.306897  	96.345270 
2134.271321  	96.238463 
2135.235746  	96.016529 
2136.200170  	95.749547 
2137.164594  	95.816342 
2138.129019  	95.993257 
2139.093443  	96.188786 
2140.057868  	96.299508 
2141.022292  	96.338662 
2141.986717  	96.273676 
2142.951141  	96.238068 
2143.915566  	96.361225 
2144.879990  	96.166808 
2145.844415  	96.025105 
2146.808839  	95.978175 
2147.773264  	96.112189 
2148.737688  	96.323928 
2149.702112  	96.516709 
2150.666537  	96.604279 
2151.630961  	96.594351 
2152.595386  	96.633042 
2153.559810  	96.739761 
2154.524235  	97.110990 
2155.488659  	97.620938 
2156.453084  	97.827752 
2157.417508  	97.442397 
2158.381933  	97.209588 
2159.346357  	96.589824 
2160.310781  	96.056337 
2161.275206  	95.801496 
2162.239630  	96.139800 
2163.204055  	96.700779 
2164.168479  	96.856787 
2165.132904  	96.344973 
2166.097328  	95.993882 
2167.061753  	96.185351 
2168.026177  	96.378156 
2168.990602  	96.365226 
2169.955026  	96.349879 
2170.919450  	96.610837 
2171.883875  	96.629719 
2172.848299  	96.703793 
2173.812724  	96.629765 
2174.777148  	96.553860 
2175.741573  	96.438314 
2176.705997  	96.164482 
2177.670422  	96.278068 
2178.634846  	96.480419 
2179.599271  	96.375958 
2180.563695  	96.530034 
2181.528119  	96.657807 
2182.492544  	96.430336 
2183.456968  	96.129090 
2184.421393  	96.014452 
2185.385817  	96.366440 
2186.350242  	96.496065 
2187.314666  	96.270387 
2188.279091  	96.243324 
2189.243515  	96.233401 
2190.207940  	96.211814 
2191.172364  	96.394077 
2192.136788  	96.546633 
2193.101213  	96.399626 
2194.065637  	96.223931 
2195.030062  	96.116933 
2195.994486  	95.939452 
2196.958911  	95.987264 
2197.923335  	96.263615 
2198.887760  	96.332973 
2199.852184  	96.339943 
2200.816609  	96.311912 
2201.781033  	96.264756 
2202.745458  	96.127381 
2203.709882  	96.011161 
2204.674306  	96.130161 
2205.638731  	96.163829 
2206.603155  	96.201818 
2207.567580  	96.335334 
2208.532004  	96.285384 
2209.496429  	96.108658 
2210.460853  	96.004205 
2211.425278  	95.987476 
2212.389702  	95.943352 
2213.354127  	95.912744 
2214.318551  	95.970706 
2215.282975  	95.996253 
2216.247400  	96.112289 
2217.211824  	96.084741 
2218.176249  	96.040972 
2219.140673  	96.004135 
2220.105098  	95.992933 
2221.069522  	96.022872 
2222.033947  	96.073903 
2222.998371  	96.027212 
2223.962796  	95.901780 
2224.927220  	95.974577 
2225.891644  	95.999250 
2226.856069  	95.919661 
2227.820493  	95.834462 
2228.784918  	95.800191 
2229.749342  	95.768477 
2230.713767  	95.929994 
2231.678191  	95.935846 
2232.642616  	95.738890 
2233.607040  	95.824472 
2234.571465  	95.872589 
2235.535889  	95.764019 
2236.500313  	95.801795 
2237.464738  	95.960919 
2238.429162  	96.047874 
2239.393587  	95.958514 
2240.358011  	95.924345 
2241.322436  	96.088684 
2242.286860  	95.978113 
2243.251285  	95.812935 
2244.215709  	95.807267 
2245.180134  	95.704096 
2246.144558  	95.491376 
2247.108982  	95.551548 
2248.073407  	95.777191 
2249.037831  	95.796388 
2250.002256  	95.754030 
2250.966680  	95.824330 
2251.931105  	95.832373 
2252.895529  	95.725991 
2253.859954  	95.677516 
2254.824378  	95.651380 
2255.788803  	95.645545 
2256.753227  	95.709320 
2257.717651  	95.768485 
2258.682076  	95.652676 
2259.646500  	95.620287 
2260.610925  	95.624165 
2261.575349  	95.599609 
2262.539774  	95.538457 
2263.504198  	95.592039 
2264.468623  	95.646633 
2265.433047  	95.716468 
2266.397472  	95.646998 
2267.361896  	95.471449 
2268.326321  	95.546792 
2269.290745  	95.615524 
2270.255169  	95.573849 
2271.219594  	95.537507 
2272.184018  	95.512951 
2273.148443  	95.441308 
2274.112867  	95.533219 
2275.077292  	95.550775 
2276.041716  	95.440438 
2277.006141  	95.507766 
2277.970565  	95.512489 
2278.934990  	95.423470 
2279.899414  	95.342700 
2280.863838  	95.371743 
2281.828263  	95.381600 
2282.792687  	95.321228 
2283.757112  	95.320141 
2284.721536  	95.275257 
2285.685961  	95.212701 
2286.650385  	95.250095 
2287.614810  	95.256168 
2288.579234  	95.230635 
2289.543659  	95.159764 
2290.508083  	95.240450 
2291.472507  	95.248851 
2292.436932  	95.280763 
2293.401356  	95.250224 
2294.365781  	95.137667 
2295.330205  	95.123841 
2296.294630  	95.077566 
2297.259054  	95.083917 
2298.223479  	94.955793 
2299.187903  	94.974894 
2300.152328  	95.015813 
2301.116752  	94.920338 
2302.081176  	94.947161 
2303.045601  	94.867693 
2304.010025  	94.962516 
2304.974450  	94.738053 
2305.938874  	94.760950 
2306.903299  	94.633419 
2307.867723  	94.694959 
2308.832148  	94.538181 
2309.796572  	94.568522 
2310.760997  	94.492914 
2311.725421  	94.424912 
2312.689845  	94.574034 
2313.654270  	94.577884 
2314.618694  	94.627881 
2315.583119  	94.602035 
2316.547543  	94.685123 
2317.511968  	94.666017 
2318.476392  	94.643168 
2319.440817  	94.464014 
2320.405241  	94.416473 
2321.369666  	94.339221 
2322.334090  	94.382315 
2323.298515  	94.305998 
2324.262939  	94.291941 
2325.227363  	94.539972 
2326.191788  	94.884743 
2327.156212  	94.963487 
2328.120637  	94.984132 
2329.085061  	94.958972 
2330.049486  	94.992799 
2331.013910  	94.923124 
2331.978335  	94.996450 
2332.942759  	95.137530 
2333.907184  	95.314579 
2334.871608  	95.359110 
2335.836032  	95.487976 
2336.800457  	95.545116 
2337.764881  	95.523517 
2338.729306  	95.455855 
2339.693730  	95.378730 
2340.658155  	95.438160 
2341.622579  	95.579938 
2342.587004  	95.431959 
2343.551428  	95.191826 
2344.515853  	95.006521 
2345.480277  	94.932976 
2346.444701  	94.850031 
2347.409126  	94.878454 
2348.373550  	94.813514 
2349.337975  	94.749648 
2350.302399  	94.759717 
2351.266824  	95.031223 
2352.231248  	95.304505 
2353.195673  	95.335779 
2354.160097  	95.170298 
2355.124522  	95.086258 
2356.088946  	95.110532 
2357.053370  	95.144970 
2358.017795  	95.082215 
2358.982219  	95.151370 
2359.946644  	95.345955 
2360.911068  	95.428474 
2361.875493  	95.345270 
2362.839917  	95.363356 
2363.804342  	95.310441 
2364.768766  	95.227673 
2365.733191  	95.247669 
2366.697615  	95.247834 
2367.662039  	95.110589 
2368.626464  	94.995238 
2369.590888  	94.915082 
2370.555313  	94.844217 
2371.519737  	94.745995 
2372.484162  	94.665414 
2373.448586  	94.678960 
2374.413011  	94.698596 
2375.377435  	94.652693 
2376.341860  	94.631638 
2377.306284  	94.662086 
2378.270708  	94.657075 
2379.235133  	94.596138 
2380.199557  	94.730408 
2381.163982  	94.846661 
2382.128406  	94.994981 
2383.092831  	95.163120 
2384.057255  	95.230555 
2385.021680  	95.292176 
2385.986104  	95.419452 
2386.950529  	95.505697 
2387.914953  	95.553578 
2388.879378  	95.585905 
2389.843802  	95.671364 
2390.808226  	95.637745 
2391.772651  	95.583428 
2392.737075  	95.611198 
2393.701500  	95.641415 
2394.665924  	95.651892 
2395.630349  	95.644358 
2396.594773  	95.603620 
2397.559198  	95.602791 
2398.523622  	95.649107 
2399.488047  	95.687716 
2400.452471  	95.674779 
2401.416895  	95.645219 
2402.381320  	95.633322 
2403.345744  	95.674350 
2404.310169  	95.685727 
2405.274593  	95.633082 
2406.239018  	95.610327 
2407.203442  	95.615850 
2408.167867  	95.661857 
2409.132291  	95.655101 
2410.096716  	95.628249 
2411.061140  	95.592590 
2412.025564  	95.579307 
2412.989989  	95.593618 
2413.954413  	95.643977 
2414.918838  	95.678391 
2415.883262  	95.658975 
2416.847687  	95.648756 
2417.812111  	95.670356 
2418.776536  	95.674248 
2419.740960  	95.636533 
2420.705385  	95.658081 
2421.669809  	95.643807 
2422.634233  	95.650171 
2423.598658  	95.653094 
2424.563082  	95.666602 
2425.527507  	95.728194 
2426.491931  	95.688134 
2427.456356  	95.604325 
2428.420780  	95.664954 
2429.385205  	95.686912 
2430.349629  	95.645661 
2431.314054  	95.638478 
2432.278478  	95.685943 
2433.242902  	95.705433 
2434.207327  	95.684698 
2435.171751  	95.698819 
2436.136176  	95.743551 
2437.100600  	95.735471 
2438.065025  	95.657954 
2439.029449  	95.695339 
2439.993874  	95.739762 
2440.958298  	95.697901 
2441.922723  	95.675970 
2442.887147  	95.675101 
2443.851572  	95.709384 
2444.815996  	95.720482 
2445.780420  	95.692524 
2446.744845  	95.646290 
2447.709269  	95.654406 
2448.673694  	95.692387 
2449.638118  	95.717202 
2450.602543  	95.669964 
2451.566967  	95.626507 
2452.531392  	95.661592 
2453.495816  	95.667938 
2454.460241  	95.664202 
2455.424665  	95.707861 
2456.389089  	95.702559 
2457.353514  	95.677931 
2458.317938  	95.665977 
2459.282363  	95.719112 
2460.246787  	95.779746 
2461.211212  	95.749960 
2462.175636  	95.672984 
2463.140061  	95.662007 
2464.104485  	95.700962 
2465.068910  	95.754995 
2466.033334  	95.730321 
2466.997758  	95.738873 
2467.962183  	95.729747 
2468.926607  	95.652484 
2469.891032  	95.661057 
2470.855456  	95.707490 
2471.819881  	95.742294 
2472.784305  	95.749454 
2473.748730  	95.751759 
2474.713154  	95.789155 
2475.677579  	95.761573 
2476.642003  	95.705650 
2477.606427  	95.703337 
2478.570852  	95.739078 
2479.535276  	95.707847 
2480.499701  	95.648937 
2481.464125  	95.676117 
2482.428550  	95.723551 
2483.392974  	95.749042 
2484.357399  	95.772215 
2485.321823  	95.703016 
2486.286248  	95.628609 
2487.250672  	95.664833 
2488.215096  	95.728892 
2489.179521  	95.689257 
2490.143945  	95.632438 
2491.108370  	95.570385 
2492.072794  	95.613806 
2493.037219  	95.645693 
2494.001643  	95.649123 
2494.966068  	95.677000 
2495.930492  	95.707526 
2496.894917  	95.677982 
2497.859341  	95.639844 
2498.823765  	95.655725 
2499.788190  	95.688731 
2500.752614  	95.654576 
2501.717039  	95.620304 
2502.681463  	95.634301 
2503.645888  	95.655187 
2504.610312  	95.573698 
2505.574737  	95.522762 
2506.539161  	95.579158 
2507.503586  	95.676677 
2508.468010  	95.672764 
2509.432435  	95.633231 
2510.396859  	95.635798 
2511.361283  	95.638097 
2512.325708  	95.614479 
2513.290132  	95.629992 
2514.254557  	95.674957 
2515.218981  	95.662351 
2516.183406  	95.590904 
2517.147830  	95.639651 
2518.112255  	95.574987 
2519.076679  	95.552367 
2520.041104  	95.579770 
2521.005528  	95.553223 
2521.969952  	95.501174 
2522.934377  	95.509484 
2523.898801  	95.573635 
2524.863226  	95.588606 
2525.827650  	95.526645 
2526.792075  	95.526277 
2527.756499  	95.541679 
2528.720924  	95.565757 
2529.685348  	95.515694 
2530.649773  	95.492995 
2531.614197  	95.560182 
2532.578621  	95.599148 
2533.543046  	95.560710 
2534.507470  	95.533930 
2535.471895  	95.552758 
2536.436319  	95.556316 
2537.400744  	95.572995 
2538.365168  	95.576689 
2539.329593  	95.612722 
2540.294017  	95.594485 
2541.258442  	95.514567 
2542.222866  	95.472699 
2543.187290  	95.474930 
2544.151715  	95.514400 
2545.116139  	95.539375 
2546.080564  	95.507455 
2547.044988  	95.442707 
2548.009413  	95.445887 
2548.973837  	95.524942 
2549.938262  	95.555811 
2550.902686  	95.538899 
2551.867111  	95.550035 
2552.831535  	95.521257 
2553.795959  	95.483062 
2554.760384  	95.471799 
2555.724808  	95.469413 
2556.689233  	95.459550 
2557.653657  	95.447847 
2558.618082  	95.440898 
2559.582506  	95.571340 
2560.546931  	95.547114 
2561.511355  	95.412093 
2562.475780  	95.391163 
2563.440204  	95.469979 
2564.404629  	95.523224 
2565.369053  	95.478412 
2566.333477  	95.438312 
2567.297902  	95.471127 
2568.262326  	95.457265 
2569.226751  	95.377827 
2570.191175  	95.358217 
2571.155600  	95.449593 
2572.120024  	95.483307 
2573.084449  	95.482956 
2574.048873  	95.424678 
2575.013298  	95.324468 
2575.977722  	95.325997 
2576.942146  	95.424611 
2577.906571  	95.458844 
2578.870995  	95.467673 
2579.835420  	95.471853 
2580.799844  	95.472017 
2581.764269  	95.439962 
2582.728693  	95.486499 
2583.693118  	95.467080 
2584.657542  	95.427079 
2585.621967  	95.450205 
2586.586391  	95.433371 
2587.550815  	95.472291 
2588.515240  	95.500303 
2589.479664  	95.463025 
2590.444089  	95.420824 
2591.408513  	95.453905 
2592.372938  	95.489475 
2593.337362  	95.452827 
2594.301787  	95.409715 
2595.266211  	95.389174 
2596.230636  	95.390856 
2597.195060  	95.430771 
2598.159484  	95.485931 
2599.123909  	95.503268 
2600.088333  	95.526346 
2601.052758  	95.504614 
2602.017182  	95.458239 
2602.981607  	95.433136 
2603.946031  	95.435130 
2604.910456  	95.488096 
2605.874880  	95.505721 
2606.839305  	95.463433 
2607.803729  	95.438769 
2608.768153  	95.435647 
2609.732578  	95.431250 
2610.697002  	95.410283 
2611.661427  	95.421150 
2612.625851  	95.443532 
2613.590276  	95.477793 
2614.554700  	95.475264 
2615.519125  	95.452593 
2616.483549  	95.453721 
2617.447974  	95.435639 
2618.412398  	95.464531 
2619.376822  	95.499116 
2620.341247  	95.487659 
2621.305671  	95.469482 
2622.270096  	95.444220 
2623.234520  	95.442951 
2624.198945  	95.451197 
2625.163369  	95.460487 
2626.127794  	95.432391 
2627.092218  	95.418315 
2628.056643  	95.417263 
2629.021067  	95.391276 
2629.985492  	95.408709 
2630.949916  	95.474251 
2631.914340  	95.478108 
2632.878765  	95.449490 
2633.843189  	95.434364 
2634.807614  	95.425036 
2635.772038  	95.440308 
2636.736463  	95.446381 
2637.700887  	95.440750 
2638.665312  	95.463102 
2639.629736  	95.462156 
2640.594161  	95.475223 
2641.558585  	95.500618 
2642.523009  	95.463445 
2643.487434  	95.454869 
2644.451858  	95.475006 
2645.416283  	95.452599 
2646.380707  	95.466697 
2647.345132  	95.460025 
2648.309556  	95.464551 
2649.273981  	95.495568 
2650.238405  	95.525037 
2651.202830  	95.549053 
2652.167254  	95.492939 
2653.131678  	95.457567 
2654.096103  	95.479148 
2655.060527  	95.475106 
2656.024952  	95.490878 
2656.989376  	95.495148 
2657.953801  	95.473729 
2658.918225  	95.485536 
2659.882650  	95.494481 
2660.847074  	95.498739 
2661.811499  	95.522201 
2662.775923  	95.521514 
2663.740347  	95.556807 
2664.704772  	95.556317 
2665.669196  	95.577120 
2666.633621  	95.579020 
2667.598045  	95.571449 
2668.562470  	95.581518 
2669.526894  	95.561982 
2670.491319  	95.526326 
2671.455743  	95.557646 
2672.420168  	95.599370 
2673.384592  	95.594987 
2674.349016  	95.556940 
2675.313441  	95.567729 
2676.277865  	95.580661 
2677.242290  	95.574136 
2678.206714  	95.561993 
2679.171139  	95.567036 
2680.135563  	95.567202 
2681.099988  	95.577288 
2682.064412  	95.584987 
2683.028837  	95.593874 
2683.993261  	95.590142 
2684.957686  	95.587150 
2685.922110  	95.586683 
2686.886534  	95.541758 
2687.850959  	95.506293 
2688.815383  	95.537081 
2689.779808  	95.566243 
2690.744232  	95.572874 
2691.708657  	95.571857 
2692.673081  	95.590191 
2693.637506  	95.584933 
2694.601930  	95.587126 
2695.566355  	95.593807 
2696.530779  	95.584200 
2697.495203  	95.579409 
2698.459628  	95.581348 
2699.424052  	95.592691 
2700.388477  	95.573798 
2701.352901  	95.527120 
2702.317326  	95.534617 
2703.281750  	95.558387 
2704.246175  	95.579240 
2705.210599  	95.563667 
2706.175024  	95.557253 
2707.139448  	95.556491 
2708.103872  	95.549649 
2709.068297  	95.554300 
2710.032721  	95.556357 
2710.997146  	95.548073 
2711.961570  	95.554191 
2712.925995  	95.569609 
2713.890419  	95.558708 
2714.854844  	95.541338 
2715.819268  	95.549806 
2716.783693  	95.560288 
2717.748117  	95.562391 
2718.712541  	95.582140 
2719.676966  	95.586888 
2720.641390  	95.567639 
2721.605815  	95.572467 
2722.570239  	95.558422 
2723.534664  	95.545663 
2724.499088  	95.542392 
2725.463513  	95.530900 
2726.427937  	95.526314 
2727.392362  	95.531411 
2728.356786  	95.506668 
2729.321210  	95.492370 
2730.285635  	95.498078 
2731.250059  	95.489096 
2732.214484  	95.483273 
2733.178908  	95.484497 
2734.143333  	95.499599 
2735.107757  	95.506045 
2736.072182  	95.532803 
2737.036606  	95.561915 
2738.001031  	95.501332 
2738.965455  	95.461952 
2739.929879  	95.494846 
2740.894304  	95.523182 
2741.858728  	95.511181 
2742.823153  	95.502048 
2743.787577  	95.493791 
2744.752002  	95.495871 
2745.716426  	95.474549 
2746.680851  	95.454556 
2747.645275  	95.454555 
2748.609700  	95.456223 
2749.574124  	95.451181 
2750.538549  	95.462602 
2751.502973  	95.449537 
2752.467397  	95.457567 
2753.431822  	95.451229 
2754.396246  	95.451665 
2755.360671  	95.472173 
2756.325095  	95.499339 
2757.289520  	95.491819 
2758.253944  	95.499813 
2759.218369  	95.492833 
2760.182793  	95.473185 
2761.147218  	95.450451 
2762.111642  	95.448753 
2763.076066  	95.482251 
2764.040491  	95.507642 
2765.004915  	95.489789 
2765.969340  	95.471122 
2766.933764  	95.481300 
2767.898189  	95.470210 
2768.862613  	95.455005 
2769.827038  	95.426693 
2770.791462  	95.432369 
2771.755887  	95.447898 
2772.720311  	95.451862 
2773.684735  	95.447452 
2774.649160  	95.427499 
2775.613584  	95.449650 
2776.578009  	95.464662 
2777.542433  	95.448306 
2778.506858  	95.407574 
2779.471282  	95.413371 
2780.435707  	95.432223 
2781.400131  	95.408906 
2782.364556  	95.403292 
2783.328980  	95.422039 
2784.293404  	95.404317 
2785.257829  	95.415288 
2786.222253  	95.453379 
2787.186678  	95.466322 
2788.151102  	95.430881 
2789.115527  	95.445343 
2790.079951  	95.430469 
2791.044376  	95.416030 
2792.008800  	95.408061 
2792.973225  	95.374819 
2793.937649  	95.376631 
2794.902073  	95.376453 
2795.866498  	95.346461 
2796.830922  	95.353299 
2797.795347  	95.407093 
2798.759771  	95.425907 
2799.724196  	95.356505 
2800.688620  	95.292909 
2801.653045  	95.276971 
2802.617469  	95.296341 
2803.581894  	95.315449 
2804.546318  	95.329018 
2805.510743  	95.317521 
2806.475167  	95.275259 
2807.439591  	95.271544 
2808.404016  	95.296556 
2809.368440  	95.316345 
2810.332865  	95.320354 
2811.297289  	95.288656 
2812.261714  	95.251421 
2813.226138  	95.245599 
2814.190563  	95.246391 
2815.154987  	95.287117 
2816.119412  	95.315148 
2817.083836  	95.302809 
2818.048260  	95.288769 
2819.012685  	95.304340 
2819.977109  	95.321227 
2820.941534  	95.281188 
2821.905958  	95.296638 
2822.870383  	95.308866 
2823.834807  	95.297016 
2824.799232  	95.291580 
2825.763656  	95.317531 
2826.728081  	95.319955 
2827.692505  	95.290648 
2828.656929  	95.280436 
2829.621354  	95.287617 
2830.585778  	95.312852 
2831.550203  	95.289338 
2832.514627  	95.223969 
2833.479052  	95.208309 
2834.443476  	95.230843 
2835.407901  	95.260114 
2836.372325  	95.258334 
2837.336750  	95.248629 
2838.301174  	95.197080 
2839.265598  	95.134872 
2840.230023  	95.134832 
2841.194447  	95.158519 
2842.158872  	95.124035 
2843.123296  	95.096465 
2844.087721  	95.052770 
2845.052145  	95.008769 
2846.016570  	94.992480 
2846.980994  	95.003455 
2847.945419  	94.956935 
2848.909843  	94.898126 
2849.874267  	94.854134 
2850.838692  	94.835341 
2851.803116  	94.821146 
2852.767541  	94.816299 
2853.731965  	94.832530 
2854.696390  	94.848438 
2855.660814  	94.857037 
2856.625239  	94.881917 
2857.589663  	94.925126 
2858.554088  	94.925318 
2859.518512  	94.913817 
2860.482936  	94.906645 
2861.447361  	94.893268 
2862.411785  	94.916592 
2863.376210  	94.937841 
2864.340634  	94.919425 
2865.305059  	94.916934 
2866.269483  	94.918947 
2867.233908  	94.889247 
2868.198332  	94.873366 
2869.162757  	94.885817 
2870.127181  	94.896698 
2871.091606  	94.847978 
2872.056030  	94.825784 
2873.020454  	94.850129 
2873.984879  	94.867734 
2874.949303  	94.814013 
2875.913728  	94.785159 
2876.878152  	94.798692 
2877.842577  	94.793331 
2878.807001  	94.804839 
2879.771426  	94.832446 
2880.735850  	94.774501 
2881.700275  	94.723713 
2882.664699  	94.729371 
2883.629123  	94.720933 
2884.593548  	94.723808 
2885.557972  	94.725482 
2886.522397  	94.679346 
2887.486821  	94.663825 
2888.451246  	94.647245 
2889.415670  	94.639440 
2890.380095  	94.639290 
2891.344519  	94.629141 
2892.308944  	94.621736 
2893.273368  	94.613071 
2894.237792  	94.618583 
2895.202217  	94.549659 
2896.166641  	94.517845 
2897.131066  	94.552150 
2898.095490  	94.564379 
2899.059915  	94.534152 
2900.024339  	94.444674 
2900.988764  	94.375265 
2901.953188  	94.342046 
2902.917613  	94.309392 
2903.882037  	94.274328 
2904.846461  	94.240041 
2905.810886  	94.157623 
2906.775310  	94.091429 
2907.739735  	94.080986 
2908.704159  	94.068804 
2909.668584  	94.059742 
2910.633008  	94.055354 
2911.597433  	94.099844 
2912.561857  	94.169255 
2913.526282  	94.161555 
2914.490706  	94.158124 
2915.455130  	94.202913 
2916.419555  	94.263596 
2917.383979  	94.290323 
2918.348404  	94.275380 
2919.312828  	94.286182 
2920.277253  	94.295408 
2921.241677  	94.313366 
2922.206102  	94.362253 
2923.170526  	94.359838 
2924.134951  	94.364110 
2925.099375  	94.379209 
2926.063800  	94.385871 
2927.028224  	94.426969 
2927.992648  	94.461054 
2928.957073  	94.455538 
2929.921497  	94.452596 
2930.885922  	94.467226 
2931.850346  	94.497553 
2932.814771  	94.518001 
2933.779195  	94.504166 
2934.743620  	94.494209 
2935.708044  	94.488601 
2936.672469  	94.479479 
2937.636893  	94.474353 
2938.601317  	94.453064 
2939.565742  	94.466261 
2940.530166  	94.463419 
2941.494591  	94.426485 
2942.459015  	94.408486 
2943.423440  	94.349899 
2944.387864  	94.242286 
2945.352289  	94.176652 
2946.316713  	94.171178 
2947.281138  	94.165581 
2948.245562  	94.153253 
2949.209986  	94.073215 
2950.174411  	93.950002 
2951.138835  	93.904400 
2952.103260  	93.850002 
2953.067684  	93.785148 
2954.032109  	93.731813 
2954.996533  	93.682039 
2955.960958  	93.637538 
2956.925382  	93.581062 
2957.889807  	93.505146 
2958.854231  	93.435669 
2959.818655  	93.392746 
2960.783080  	93.351683 
2961.747504  	93.297105 
2962.711929  	93.252430 
2963.676353  	93.173399 
2964.640778  	93.055374 
2965.605202  	92.966321 
2966.569627  	92.920539 
2967.534051  	92.932837 
2968.498476  	93.000778 
2969.462900  	92.987264 
2970.427324  	92.966810 
2971.391749  	92.995998 
2972.356173  	93.048190 
2973.320598  	93.112190 
2974.285022  	93.179647 
2975.249447  	93.203686 
2976.213871  	93.326597 
2977.178296  	93.450123 
2978.142720  	93.496755 
2979.107145  	93.547189 
2980.071569  	93.654978 
2981.035993  	93.719039 
2982.000418  	93.776557 
2982.964842  	93.869072 
2983.929267  	93.912450 
2984.893691  	93.937154 
2985.858116  	93.986787 
2986.822540  	94.028860 
2987.786965  	94.058305 
2988.751389  	94.091922 
2989.715814  	94.155250 
2990.680238  	94.216117 
2991.644663  	94.245130 
2992.609087  	94.272246 
2993.573511  	94.300763 
2994.537936  	94.309362 
2995.502360  	94.350368 
2996.466785  	94.357237 
2997.431209  	94.360346 
2998.395634  	94.389511 
2999.360058  	94.393393 
3000.324483  	94.419157 
3001.288907  	94.407723 
3002.253332  	94.353144 
3003.217756  	94.375402 
3004.182180  	94.364135 
3005.146605  	94.369624 
3006.111029  	94.434396 
3007.075454  	94.471018 
3008.039878  	94.477583 
3009.004303  	94.546980 
3009.968727  	94.564497 
3010.933152  	94.516212 
3011.897576  	94.484377 
3012.862001  	94.468934 
3013.826425  	94.550355 
3014.790849  	94.620668 
3015.755274  	94.577728 
3016.719698  	94.644907 
3017.684123  	94.737975 
3018.648547  	94.751053 
3019.612972  	94.752629 
3020.577396  	94.807177 
3021.541821  	94.864509 
3022.506245  	94.889773 
3023.470670  	94.915259 
3024.435094  	94.942950 
3025.399518  	94.944857 
3026.363943  	94.969814 
3027.328367  	95.029798 
3028.292792  	95.065414 
3029.257216  	95.074171 
3030.221641  	95.033091 
3031.186065  	94.938984 
3032.150490  	94.906301 
3033.114914  	95.014324 
3034.079339  	95.037381 
3035.043763  	95.035917 
3036.008187  	95.068144 
3036.972612  	95.108148 
3037.937036  	95.105602 
3038.901461  	95.082244 
3039.865885  	95.068525 
3040.830310  	95.118702 
3041.794734  	95.145669 
3042.759159  	95.121707 
3043.723583  	95.103167 
3044.688008  	95.119619 
3045.652432  	95.123059 
3046.616857  	95.088427 
3047.581281  	95.023066 
3048.545705  	94.928257 
3049.510130  	94.899200 
3050.474554  	94.914380 
3051.438979  	94.871642 
3052.403403  	94.828515 
3053.367828  	94.818538 
3054.332252  	94.778060 
3055.296677  	94.749829 
3056.261101  	94.680452 
3057.225526  	94.703510 
3058.189950  	94.791933 
3059.154374  	94.828774 
3060.118799  	94.850404 
3061.083223  	94.895814 
3062.047648  	94.902955 
3063.012072  	94.844321 
3063.976497  	94.735515 
3064.940921  	94.707381 
3065.905346  	94.802163 
3066.869770  	94.761987 
3067.834195  	94.752057 
3068.798619  	94.798316 
3069.763043  	94.810038 
3070.727468  	94.858186 
3071.691892  	94.887882 
3072.656317  	94.834746 
3073.620741  	94.828666 
3074.585166  	94.881126 
3075.549590  	94.928333 
3076.514015  	94.892854 
3077.478439  	94.802228 
3078.442864  	94.780879 
3079.407288  	94.745456 
3080.371712  	94.748478 
3081.336137  	94.830034 
3082.300561  	94.835990 
3083.264986  	94.862001 
3084.229410  	94.913651 
3085.193835  	94.918005 
3086.158259  	94.918322 
3087.122684  	94.909863 
3088.087108  	94.918956 
3089.051533  	94.954181 
3090.015957  	94.951863 
3090.980381  	94.970990 
3091.944806  	95.033162 
3092.909230  	95.043011 
3093.873655  	94.991036 
3094.838079  	94.982542 
3095.802504  	94.986645 
3096.766928  	94.983611 
3097.731353  	94.997548 
3098.695777  	94.985256 
3099.660202  	94.955629 
3100.624626  	94.916466 
3101.589050  	94.856462 
3102.553475  	94.822956 
3103.517899  	94.836144 
3104.482324  	94.867113 
3105.446748  	94.871772 
3106.411173  	94.886052 
3107.375597  	94.903394 
3108.340022  	94.943947 
3109.304446  	94.980116 
3110.268871  	94.954237 
3111.233295  	94.961460 
3112.197720  	94.937054 
3113.162144  	94.965927 
3114.126568  	95.035342 
3115.090993  	95.017340 
3116.055417  	94.970456 
3117.019842  	95.030657 
3117.984266  	95.046883 
3118.948691  	95.002140 
3119.913115  	95.120724 
3120.877540  	95.161155 
3121.841964  	95.055854 
3122.806389  	94.998052 
3123.770813  	95.059513 
3124.735237  	95.085379 
3125.699662  	95.058993 
3126.664086  	95.051244 
3127.628511  	95.081329 
3128.592935  	95.135012 
3129.557360  	95.155858 
3130.521784  	95.175946 
3131.486209  	95.193950 
3132.450633  	95.111298 
3133.415058  	95.021382 
3134.379482  	95.132540 
3135.343906  	95.172791 
3136.308331  	95.188440 
3137.272755  	95.164282 
3138.237180  	95.164864 
3139.201604  	95.222493 
3140.166029  	95.273624 
3141.130453  	95.298729 
3142.094878  	95.237515 
3143.059302  	95.157022 
3144.023727  	95.200875 
3144.988151  	95.231101 
3145.952575  	95.173802 
3146.917000  	95.152007 
3147.881424  	95.189899 
3148.845849  	95.268407 
3149.810273  	95.290722 
3150.774698  	95.278864 
3151.739122  	95.246875 
3152.703547  	95.230471 
3153.667971  	95.230910 
3154.632396  	95.232452 
3155.596820  	95.236310 
3156.561244  	95.172310 
3157.525669  	95.189951 
3158.490093  	95.240041 
3159.454518  	95.278857 
3160.418942  	95.255400 
3161.383367  	95.213786 
3162.347791  	95.210239 
3163.312216  	95.200784 
3164.276640  	95.208452 
3165.241065  	95.287939 
3166.205489  	95.336192 
3167.169914  	95.311167 
3168.134338  	95.211331 
3169.098762  	95.178869 
3170.063187  	95.145539 
3171.027611  	95.148183 
3171.992036  	95.244592 
3172.956460  	95.287199 
3173.920885  	95.249461 
3174.885309  	95.219547 
3175.849734  	95.204953 
3176.814158  	95.203407 
3177.778583  	95.099044 
3178.743007  	95.053834 
3179.707431  	95.144861 
3180.671856  	95.194672 
3181.636280  	95.219114 
3182.600705  	95.187568 
3183.565129  	95.155224 
3184.529554  	95.137042 
3185.493978  	95.126423 
3186.458403  	95.174027 
3187.422827  	95.154501 
3188.387252  	95.123571 
3189.351676  	95.202740 
3190.316100  	95.206591 
3191.280525  	95.175696 
3192.244949  	95.246413 
3193.209374  	95.271967 
3194.173798  	95.258823 
3195.138223  	95.295976 
3196.102647  	95.231650 
3197.067072  	95.104445 
3198.031496  	95.094135 
3198.995921  	95.213774 
3199.960345  	95.198910 
3200.924769  	95.236177 
3201.889194  	95.266738 
3202.853618  	95.224950 
3203.818043  	95.205647 
3204.782467  	95.174119 
3205.746892  	95.177611 
3206.711316  	95.150981 
3207.675741  	95.183492 
3208.640165  	95.192248 
3209.604590  	95.156227 
3210.569014  	95.156300 
3211.533438  	95.235980 
3212.497863  	95.250516 
3213.462287  	95.210245 
3214.426712  	95.151830 
3215.391136  	95.172525 
3216.355561  	95.170820 
3217.319985  	95.165309 
3218.284410  	95.206200 
3219.248834  	95.167843 
3220.213259  	95.176452 
3221.177683  	95.237336 
3222.142107  	95.203732 
3223.106532  	95.186848 
3224.070956  	95.201506 
3225.035381  	95.161744 
3225.999805  	95.143110 
3226.964230  	95.168290 
3227.928654  	95.151595 
3228.893079  	95.173703 
3229.857503  	95.203088 
3230.821928  	95.174448 
3231.786352  	95.225278 
3232.750777  	95.247000 
3233.715201  	95.206584 
3234.679625  	95.149342 
3235.644050  	95.121496 
3236.608474  	95.101362 
3237.572899  	95.128066 
3238.537323  	95.192082 
3239.501748  	95.157179 
3240.466172  	95.110556 
3241.430597  	95.195460 
3242.395021  	95.241715 
3243.359446  	95.180701 
3244.323870  	95.119907 
3245.288294  	95.054467 
3246.252719  	95.100058 
3247.217143  	95.162737 
3248.181568  	95.154805 
3249.145992  	95.155094 
3250.110417  	95.212063 
3251.074841  	95.240835 
3252.039266  	95.196711 
3253.003690  	95.160793 
3253.968115  	95.110192 
3254.932539  	95.095090 
3255.896963  	95.134264 
3256.861388  	95.097401 
3257.825812  	95.148185 
3258.790237  	95.169396 
3259.754661  	95.121993 
3260.719086  	95.139399 
3261.683510  	95.182843 
3262.647935  	95.137551 
3263.612359  	95.186705 
3264.576784  	95.236388 
3265.541208  	95.173118 
3266.505632  	95.126235 
3267.470057  	95.134792 
3268.434481  	95.165356 
3269.398906  	95.142692 
3270.363330  	95.138012 
3271.327755  	95.135897 
3272.292179  	95.075154 
3273.256604  	95.013288 
3274.221028  	95.019428 
3275.185453  	95.145637 
3276.149877  	95.131076 
3277.114301  	95.075663 
3278.078726  	95.106357 
3279.043150  	95.049072 
3280.007575  	95.025631 
3280.971999  	95.066914 
3281.936424  	95.128262 
3282.900848  	95.106446 
3283.865273  	95.027298 
3284.829697  	95.061677 
3285.794122  	95.110799 
3286.758546  	95.090878 
3287.722971  	95.059356 
3288.687395  	95.054491 
3289.651819  	95.073331 
3290.616244  	95.089002 
3291.580668  	95.046468 
3292.545093  	95.050373 
3293.509517  	95.058031 
3294.473942  	95.053449 
3295.438366  	95.030011 
3296.402791  	95.020397 
3297.367215  	94.989148 
3298.331640  	94.979665 
3299.296064  	95.046993 
3300.260488  	95.114489 
3301.224913  	95.123850 
3302.189337  	95.150826 
3303.153762  	95.120664 
3304.118186  	95.104347 
3305.082611  	95.132254 
3306.047035  	95.163982 
3307.011460  	95.179849 
3307.975884  	95.124738 
3308.940309  	95.085479 
3309.904733  	95.104602 
3310.869157  	95.020806 
3311.833582  	94.982063 
3312.798006  	95.027044 
3313.762431  	95.097442 
3314.726855  	95.148655 
3315.691280  	95.083209 
3316.655704  	95.040469 
3317.620129  	95.102448 
3318.584553  	95.123793 
3319.548978  	95.052765 
3320.513402  	95.013156 
3321.477826  	95.064613 
3322.442251  	95.088582 
3323.406675  	95.136922 
3324.371100  	95.144206 
3325.335524  	95.088855 
3326.299949  	95.104183 
3327.264373  	95.083499 
3328.228798  	95.071884 
3329.193222  	95.078124 
3330.157647  	95.015321 
3331.122071  	95.072277 
3332.086495  	95.169441 
3333.050920  	95.116714 
3334.015344  	95.032064 
3334.979769  	95.004056 
3335.944193  	95.024401 
3336.908618  	94.970226 
3337.873042  	94.982454 
3338.837467  	95.081526 
3339.801891  	95.104724 
3340.766316  	95.115276 
3341.730740  	95.082350 
3342.695164  	95.080437 
3343.659589  	95.125756 
3344.624013  	95.159022 
3345.588438  	95.152732 
3346.552862  	95.119490 
3347.517287  	95.075209 
3348.481711  	95.054314 
3349.446136  	95.082508 
3350.410560  	95.175795 
3351.374985  	95.257612 
3352.339409  	95.241782 
3353.303834  	95.218144 
3354.268258  	95.206601 
3355.232682  	95.123609 
3356.197107  	94.996395 
3357.161531  	95.030676 
3358.125956  	95.121228 
3359.090380  	95.129640 
3360.054805  	95.041652 
3361.019229  	94.981661 
3361.983654  	95.007982 
3362.948078  	95.131028 
3363.912503  	95.222660 
3364.876927  	95.139605 
3365.841351  	95.087503 
3366.805776  	95.108121 
3367.770200  	95.033254 
3368.734625  	94.991760 
3369.699049  	95.139381 
3370.663474  	95.216687 
3371.627898  	95.194550 
3372.592323  	95.130346 
3373.556747  	95.105182 
3374.521172  	95.120673 
3375.485596  	95.141437 
3376.450020  	95.100523 
3377.414445  	95.085487 
3378.378869  	95.123412 
3379.343294  	95.194887 
3380.307718  	95.195526 
3381.272143  	95.157765 
3382.236567  	95.109853 
3383.200992  	95.092251 
3384.165416  	95.047911 
3385.129841  	95.000209 
3386.094265  	95.046848 
3387.058689  	95.117860 
3388.023114  	95.127588 
3388.987538  	95.111133 
3389.951963  	95.105913 
3390.916387  	95.141486 
3391.880812  	95.090385 
3392.845236  	94.876808 
3393.809661  	94.878541 
3394.774085  	95.055738 
3395.738510  	95.086426 
3396.702934  	94.963569 
3397.667358  	94.856503 
3398.631783  	95.044306 
3399.596207  	95.209980 
3400.560632  	95.179982 
3401.525056  	95.091586 
3402.489481  	95.102769 
3403.453905  	95.028910 
3404.418330  	94.967304 
3405.382754  	94.978377 
3406.347179  	94.980282 
3407.311603  	94.966025 
3408.276028  	94.944688 
3409.240452  	94.878643 
3410.204876  	94.821581 
3411.169301  	94.889037 
3412.133725  	94.996498 
3413.098150  	94.999829 
3414.062574  	94.936600 
3415.026999  	94.884120 
3415.991423  	94.793551 
3416.955848  	94.745713 
3417.920272  	94.703280 
3418.884697  	94.665249 
3419.849121  	94.499537 
3420.813545  	94.196694 
3421.777970  	94.142097 
3422.742394  	94.251358 
3423.706819  	94.412272 
3424.671243  	94.507876 
3425.635668  	94.532873 
3426.600092  	94.543613 
3427.564517  	94.550017 
3428.528941  	94.544466 
3429.493366  	94.594025 
3430.457790  	94.513407 
3431.422214  	94.388104 
3432.386639  	94.365267 
3433.351063  	94.462676 
3434.315488  	94.579813 
3435.279912  	94.600066 
3436.244337  	94.593328 
3437.208761  	94.566913 
3438.173186  	94.603223 
3439.137610  	94.642028 
3440.102035  	94.651058 
3441.066459  	94.669805 
3442.030883  	94.512725 
3442.995308  	94.282646 
3443.959732  	94.461625 
3444.924157  	94.598658 
3445.888581  	94.612819 
3446.853006  	94.212022 
3447.817430  	93.950358 
3448.781855  	94.512604 
3449.746279  	94.726627 
3450.710704  	94.765872 
3451.675128  	94.831071 
3452.639552  	94.819805 
3453.603977  	94.797261 
3454.568401  	94.835467 
3455.532826  	94.797238 
3456.497250  	94.780645 
3457.461675  	94.827498 
3458.426099  	94.808181 
3459.390524  	94.903007 
3460.354948  	94.941132 
3461.319373  	94.803405 
3462.283797  	94.759145 
3463.248221  	94.731906 
3464.212646  	94.841121 
3465.177070  	94.968307 
3466.141495  	94.931436 
3467.105919  	94.718861 
3468.070344  	94.849729 
3469.034768  	95.074591 
3469.999193  	95.036538 
3470.963617  	94.939738 
3471.928042  	94.939038 
3472.892466  	94.996327 
3473.856891  	95.004178 
3474.821315  	94.890810 
3475.785739  	94.929517 
3476.750164  	94.989948 
3477.714588  	95.027409 
3478.679013  	95.073572 
3479.643437  	95.033513 
3480.607862  	94.757546 
3481.572286  	94.542025 
3482.536711  	94.401762 
3483.501135  	94.702524 
3484.465560  	94.950876 
3485.429984  	94.925902 
3486.394408  	94.965337 
3487.358833  	94.980150 
3488.323257  	94.699548 
3489.287682  	94.707448 
3490.252106  	94.926408 
3491.216531  	94.958398 
3492.180955  	95.025738 
3493.145380  	95.154477 
3494.109804  	95.260458 
3495.074229  	95.133965 
3496.038653  	94.850828 
3497.003077  	94.765598 
3497.967502  	94.960354 
3498.931926  	95.079079 
3499.896351  	95.006473 
3500.860775  	94.906581 
3501.825200  	94.628235 
3502.789624  	94.204829 
3503.754049  	94.076904 
3504.718473  	94.386678 
3505.682898  	94.701902 
3506.647322  	94.927715 
3507.611746  	95.003280 
3508.576171  	94.690611 
3509.540595  	94.108727 
3510.505020  	94.324564 
3511.469444  	94.734771 
3512.433869  	94.812779 
3513.398293  	94.873983 
3514.362718  	94.956837 
3515.327142  	95.074225 
3516.291567  	95.089999 
3517.255991  	94.974713 
3518.220415  	94.866668 
3519.184840  	94.838876 
3520.149264  	94.854908 
3521.113689  	94.974588 
3522.078113  	94.831131 
3523.042538  	94.145289 
3524.006962  	93.802260 
3524.971387  	94.153824 
3525.935811  	94.324340 
3526.900236  	94.205753 
3527.864660  	94.015386 
3528.829085  	94.050898 
3529.793509  	94.279815 
3530.757933  	94.617140 
3531.722358  	94.670365 
3532.686782  	94.861176 
3533.651207  	94.993950 
3534.615631  	95.038907 
3535.580056  	94.782815 
3536.544480  	94.160062 
3537.508905  	94.361614 
3538.473329  	94.848235 
3539.437754  	94.813191 
3540.402178  	94.858437 
3541.366602  	94.882868 
3542.331027  	94.881479 
3543.295451  	94.609776 
3544.259876  	94.216986 
3545.224300  	93.460685 
3546.188725  	93.215346 
3547.153149  	93.240612 
3548.117574  	93.705317 
3549.081998  	94.514351 
3550.046423  	94.760185 
3551.010847  	94.719667 
3551.975271  	94.193972 
3552.939696  	93.883070 
3553.904120  	94.188771 
3554.868545  	94.598079 
3555.832969  	94.924296 
3556.797394  	94.809813 
3557.761818  	94.829739 
3558.726243  	94.950200 
3559.690667  	94.494645 
3560.655092  	94.021811 
3561.619516  	94.481045 
3562.583940  	94.524132 
3563.548365  	94.353151 
3564.512789  	94.310597 
3565.477214  	93.609843 
3566.441638  	91.646501 
3567.406063  	91.468694 
3568.370487  	91.774805 
3569.334912  	93.195019 
3570.299336  	94.253201 
3571.263761  	94.419292 
3572.228185  	94.791667 
3573.192609  	94.834047 
3574.157034  	94.678755 
3575.121458  	94.593293 
3576.085883  	94.747714 
3577.050307  	94.717685 
3578.014732  	94.725899 
3578.979156  	94.803220 
3579.943581  	94.433699 
3580.908005  	94.337022 
3581.872430  	94.728322 
3582.836854  	94.832322 
3583.801278  	94.768935 
3584.765703  	94.784696 
3585.730127  	94.391403 
3586.694552  	92.894375 
3587.658976  	92.033202 
3588.623401  	92.227825 
3589.587825  	93.208728 
3590.552250  	94.486185 
3591.516674  	94.845288 
3592.481099  	94.709569 
3593.445523  	94.043519 
3594.409948  	94.062255 
3595.374372  	93.625213 
3596.338796  	93.459680 
3597.303221  	94.300238 
3598.267645  	94.390113 
3599.232070  	94.112428 
3600.196494  	94.123260 
3601.160919  	93.843585 
3602.125343  	94.166869 
3603.089768  	94.431653 
3604.054192  	94.724852 
3605.018617  	94.911053 
3605.983041  	94.759601 
3606.947465  	93.735054 
3607.911890  	93.265304 
3608.876314  	93.418986 
3609.840739  	93.194750 
3610.805163  	94.198058 
3611.769588  	94.128122 
3612.734012  	93.004474 
3613.698437  	93.070388 
3614.662861  	93.138069 
3615.627286  	93.279086 
3616.591710  	94.272927 
3617.556134  	93.726686 
3618.520559  	92.953175 
3619.484983  	92.884172 
3620.449408  	92.868602 
3621.413832  	93.539450 
3622.378257  	94.169256 
3623.342681  	94.547240 
3624.307106  	94.752917 
3625.271530  	94.745054 
3626.235955  	94.349351 
3627.200379  	94.138521 
3628.164803  	93.196801 
3629.129228  	90.552448 
3630.093652  	91.033178 
3631.058077  	93.253339 
3632.022501  	94.196366 
3632.986926  	94.300408 
3633.951350  	93.658927 
3634.915775  	94.014630 
3635.880199  	94.632045 
3636.844624  	94.742876 
3637.809048  	94.589265 
3638.773472  	94.558253 
3639.737897  	94.835691 
3640.702321  	94.841090 
3641.666746  	94.573858 
3642.631170  	94.193890 
3643.595595  	94.416470 
3644.560019  	94.790145 
3645.524444  	94.557239 
3646.488868  	93.567183 
3647.453293  	91.995241 
3648.417717  	92.144994 
3649.382142  	91.846895 
3650.346566  	90.969566 
3651.310990  	91.133286 
3652.275415  	93.152857 
3653.239839  	94.455204 
3654.204264  	94.819239 
3655.168688  	94.718308 
3656.133113  	93.813822 
3657.097537  	93.594856 
3658.061962  	94.655145 
3659.026386  	94.868304 
3659.990811  	94.770977 
3660.955235  	94.964435 
3661.919659  	95.213531 
3662.884084  	95.217152 
3663.848508  	95.169524 
3664.812933  	95.105070 
3665.777357  	95.137586 
3666.741782  	95.247487 
3667.706206  	95.205936 
3668.670631  	94.280166 
3669.635055  	93.137757 
3670.599480  	92.455162 
3671.563904  	92.959354 
3672.528328  	94.465056 
3673.492753  	94.772299 
3674.457177  	93.683233 
3675.421602  	90.988753 
3676.386026  	91.318360 
3677.350451  	93.095860 
3678.314875  	93.829197 
3679.279300  	93.851250 
3680.243724  	93.997421 
3681.208149  	94.861394 
3682.172573  	95.213606 
3683.136997  	95.209261 
3684.101422  	95.077906 
3685.065846  	94.944799 
3686.030271  	95.106741 
3686.994695  	94.982350 
3687.959120  	94.202524 
3688.923544  	93.279735 
3689.887969  	93.749488 
3690.852393  	93.083792 
3691.816818  	92.835284 
3692.781242  	94.395212 
3693.745666  	94.880901 
3694.710091  	95.027265 
3695.674515  	95.126729 
3696.638940  	94.960545 
3697.603364  	95.067718 
3698.567789  	95.309205 
3699.532213  	95.261143 
3700.496638  	95.226623 
3701.461062  	94.504415 
3702.425487  	93.949342 
3703.389911  	94.791621 
3704.354335  	95.157405 
3705.318760  	95.050444 
3706.283184  	95.072009 
3707.247609  	95.235984 
3708.212033  	95.172633 
3709.176458  	94.523472 
3710.140882  	93.989817 
3711.105307  	93.731222 
3712.069731  	92.584204 
3713.034156  	92.793868 
3713.998580  	94.230012 
3714.963005  	94.274463 
3715.927429  	94.591555 
3716.891853  	95.223655 
3717.856278  	95.255504 
3718.820702  	94.596007 
3719.785127  	94.389707 
3720.749551  	95.011771 
3721.713976  	94.567172 
3722.678400  	93.345944 
3723.642825  	93.960139 
3724.607249  	94.302025 
3725.571674  	93.672570 
3726.536098  	93.385872 
3727.500522  	93.573431 
3728.464947  	94.518115 
3729.429371  	95.110439 
3730.393796  	95.068971 
3731.358220  	94.599256 
3732.322645  	93.799912 
3733.287069  	94.049085 
3734.251494  	93.412135 
3735.215918  	90.377420 
3736.180343  	90.766102 
3737.144767  	92.313420 
3738.109191  	93.190402 
3739.073616  	93.638200 
3740.038040  	94.236529 
3741.002465  	93.922387 
3741.966889  	94.194668 
3742.931314  	94.721355 
3743.895738  	93.545328 
3744.860163  	90.217624 
3745.824587  	92.737169 
3746.789012  	93.705700 
3747.753436  	93.739617 
3748.717860  	93.644135 
3749.682285  	93.163075 
3750.646709  	93.132154 
3751.611134  	92.701947 
3752.575558  	91.510326 
3753.539983  	93.211483 
3754.504407  	94.241265 
3755.468832  	94.705396 
3756.433256  	94.429802 
3757.397681  	94.475524 
3758.362105  	94.659502 
3759.326529  	93.725847 
3760.290954  	93.334105 
3761.255378  	94.707822 
3762.219803  	95.063303 
3763.184227  	95.131851 
3764.148652  	95.170291 
3765.113076  	94.740345 
3766.077501  	93.943671 
3767.041925  	94.684560 
3768.006350  	95.200584 
3768.970774  	94.854691 
3769.935199  	93.843807 
3770.899623  	94.016037 
3771.864047  	94.846206 
3772.828472  	95.162120 
3773.792896  	95.281646 
3774.757321  	95.394835 
3775.721745  	95.509349 
3776.686170  	95.611296 
3777.650594  	95.500488 
3778.615019  	95.000105 
3779.579443  	94.137586 
3780.543868  	94.378226 
3781.508292  	95.147737 
3782.472716  	95.261322 
3783.437141  	95.346805 
3784.401565  	95.018553 
3785.365990  	94.580157 
3786.330414  	94.903294 
3787.294839  	95.169266 
3788.259263  	95.305382 
3789.223688  	95.402317 
3790.188112  	95.445425 
3791.152537  	95.516627 
3792.116961  	95.517890 
3793.081385  	95.514735 
3794.045810  	95.569779 
3795.010234  	95.450077 
3795.974659  	94.839260 
3796.939083  	93.995544 
3797.903508  	94.334944 
3798.867932  	94.903385 
3799.832357  	95.045525 
3800.796781  	94.056027 
3801.761206  	92.544665 
3802.725630  	93.051202 
3803.690054  	94.044837 
3804.654479  	94.955670 
3805.618903  	95.136864 
3806.583328  	94.491635 
3807.547752  	93.907799 
3808.512177  	94.824043 
3809.476601  	95.148904 
3810.441026  	95.224192 
3811.405450  	95.372631 
3812.369875  	95.431469 
3813.334299  	95.512529 
3814.298723  	95.454510 
3815.263148  	94.784539 
3816.227572  	93.237259 
3817.191997  	93.779263 
3818.156421  	94.694783 
3819.120846  	94.678098 
3820.085270  	94.073796 
3821.049695  	92.487915 
3822.014119  	92.302635 
3822.978544  	93.965847 
3823.942968  	94.538480 
3824.907392  	94.821670 
3825.871817  	94.864201 
3826.836241  	94.368214 
3827.800666  	94.396861 
3828.765090  	95.002160 
3829.729515  	95.322572 
3830.693939  	95.179940 
3831.658364  	94.400590 
3832.622788  	94.470516 
3833.587213  	95.036567 
3834.551637  	94.588868 
3835.516062  	94.084714 
3836.480486  	94.725355 
3837.444910  	94.202152 
3838.409335  	93.164036 
3839.373759  	93.652781 
3840.338184  	93.021762 
3841.302608  	93.178290 
3842.267033  	94.540752 
3843.231457  	94.518076 
3844.195882  	93.749870 
3845.160306  	94.622803 
3846.124731  	95.153456 
3847.089155  	95.237870 
3848.053579  	95.276887 
3849.018004  	95.073827 
3849.982428  	94.657031 
3850.946853  	94.675416 
3851.911277  	93.903424 
3852.875702  	92.395777 
3853.840126  	91.503894 
3854.804551  	91.660796 
3855.768975  	93.841585 
3856.733400  	93.994490 
3857.697824  	93.660062 
3858.662248  	94.724185 
3859.626673  	95.335276 
3860.591097  	95.290092 
3861.555522  	94.678249 
3862.519946  	94.231361 
3863.484371  	94.548050 
3864.448795  	93.666440 
3865.413220  	92.582223 
3866.377644  	94.060856 
3867.342069  	95.090398 
3868.306493  	95.052428 
3869.270917  	93.811632 
3870.235342  	91.776516 
3871.199766  	93.069905 
3872.164191  	94.385647 
3873.128615  	94.674157 
3874.093040  	93.435542 
3875.057464  	93.452449 
3876.021889  	94.953605 
3876.986313  	95.304862 
3877.950738  	95.443891 
3878.915162  	95.413690 
3879.879586  	94.424650 
3880.844011  	92.707259 
3881.808435  	93.823581 
3882.772860  	94.689476 
3883.737284  	94.475261 
3884.701709  	94.486022 
3885.666133  	93.624347 
3886.630558  	93.329745 
3887.594982  	94.836214 
3888.559407  	95.299553 
3889.523831  	95.348389 
3890.488256  	94.945603 
3891.452680  	93.731156 
3892.417104  	93.739868 
3893.381529  	94.562724 
3894.345953  	94.479735 
3895.310378  	94.845867 
3896.274802  	95.355343 
3897.239227  	95.394973 
3898.203651  	94.736056 
3899.168076  	93.719589 
3900.132500  	93.724456 
3901.096925  	94.345422 
3902.061349  	93.120641 
3903.025773  	93.211772 
3903.990198  	93.541323 
3904.954622  	93.077374 
3905.919047  	93.478708 
3906.883471  	94.224079 
3907.847896  	95.150844 
3908.812320  	95.443135 
3909.776745  	95.485926 
3910.741169  	95.493136 
3911.705594  	95.487912 
3912.670018  	95.478079 
3913.634442  	95.502897 
3914.598867  	95.543736 
3915.563291  	95.421223 
3916.527716  	94.519628 
3917.492140  	93.773639 
3918.456565  	94.657943 
3919.420989  	94.873328 
3920.385414  	94.219504 
3921.349838  	94.766481 
3922.314263  	95.386554 
3923.278687  	95.088556 
3924.243111  	94.311170 
3925.207536  	93.856309 
3926.171960  	94.571833 
3927.136385  	95.355378 
3928.100809  	95.409182 
3929.065234  	95.205795 
3930.029658  	94.896507 
3930.994083  	94.712977 
3931.958507  	94.290008 
3932.922932  	93.905314 
3933.887356  	94.634247 
3934.851780  	95.034954 
3935.816205  	95.334316 
3936.780629  	95.480960 
3937.745054  	95.431809 
3938.709478  	95.264996 
3939.673903  	95.436980 
3940.638327  	95.539312 
3941.602752  	95.320592 
3942.567176  	94.468155 
3943.531601  	94.081217 
3944.496025  	94.819306 
3945.460449  	95.229121 
3946.424874  	95.382955 
3947.389298  	94.879171 
3948.353723  	94.537000 
3949.318147  	94.750227 
3950.282572  	94.451133 
3951.246996  	94.847039 
3952.211421  	95.384063 
3953.175845  	95.289956 
3954.140270  	95.377940 
3955.104694  	95.497343 
3956.069119  	95.416309 
3957.033543  	95.291193 
3957.997967  	95.302610 
3958.962392  	95.359748 
3959.926816  	95.411126 
3960.891241  	95.377569 
3961.855665  	95.008246 
3962.820090  	94.936689 
3963.784514  	95.382924 
3964.748939  	95.436061 
3965.713363  	95.461416 
3966.677788  	95.519910 
3967.642212  	95.546322 
3968.606636  	95.403357 
3969.571061  	95.240254 
3970.535485  	95.369581 
3971.499910  	95.445551 
3972.464334  	95.265496 
3973.428759  	95.353331 
3974.393183  	95.441563 
3975.357608  	95.306557 
3976.322032  	95.151493 
3977.286457  	95.291008 
3978.250881  	95.518893 
3979.215305  	95.554040 
3980.179730  	95.498845 
3981.144154  	95.460565 
3982.108579  	95.412432 
3983.073003  	95.443567 
3984.037428  	95.558071 
3985.001852  	95.555559 
3985.966277  	95.513226 
3986.930701  	95.537145 
3987.895126  	95.560208 
3988.859550  	95.555611 
3989.823974  	95.468814 
3990.788399  	95.283510 
3991.752823  	95.368516 
3992.717248  	95.498600 
3993.681672  	95.460995 
3994.646097  	95.382362 
3995.610521  	95.315335 
3996.574946  	95.474699 
3997.539370  	95.548887 
3998.503795  	95.573589 
3999.468219  	95.572463 
4000.432643  	95.604437 
4001.397068  	95.588280 
4002.361492  	95.571396 
4003.325917  	95.557920 
4004.290341  	95.586347 
4005.254766  	95.599976 
4006.219190  	95.553775 
4007.183615  	95.498280 
4008.148039  	95.438154 
4009.112464  	95.340724 
4010.076888  	95.449124 
4011.041313  	95.530601 
4012.005737  	95.566065 
4012.970161  	95.509703 
4013.934586  	95.506033 
4014.899010  	95.521022 
4015.863435  	95.506741 
4016.827859  	95.524243 
4017.792284  	95.550735 
4018.756708  	95.517467 
4019.721133  	95.455246 
4020.685557  	95.466702 
4021.649982  	95.537009 
4022.614406  	95.574591 
4023.578830  	95.552621 
4024.543255  	95.489249 
4025.507679  	95.409465 
4026.472104  	95.454287 
4027.436528  	95.567986 
4028.400953  	95.580834 
4029.365377  	95.559772 
4030.329802  	95.529387 
4031.294226  	95.515159 
4032.258651  	95.507169 
4033.223075  	95.572330 
4034.187499  	95.610115 
4035.151924  	95.613500 
4036.116348  	95.584301 
4037.080773  	95.571354 
4038.045197  	95.601296 
4039.009622  	95.603349 
4039.974046  	95.571320 
4040.938471  	95.574037 
4041.902895  	95.583053 
4042.867320  	95.598744 
4043.831744  	95.530466 
4044.796168  	95.425216 
4045.760593  	95.441199 
4046.725017  	95.562321 
4047.689442  	95.565791 
4048.653866  	95.548644 
4049.618291  	95.534802 
4050.582715  	95.527178 
4051.547140  	95.513501 
4052.511564  	95.527916 
4053.475989  	95.538238 
4054.440413  	95.537759 
4055.404837  	95.544095 
4056.369262  	95.600713 
4057.333686  	95.637382 
4058.298111  	95.578485 
4059.262535  	95.499630 
4060.226960  	95.508948 
4061.191384  	95.509370 
4062.155809  	95.548628 
4063.120233  	95.579318 
4064.084658  	95.552599 
4065.049082  	95.523182 
4066.013506  	95.516685 
4066.977931  	95.482199 
4067.942355  	95.461798 
4068.906780  	95.455734 
4069.871204  	95.511285 
4070.835629  	95.533272 
4071.800053  	95.508000 
4072.764478  	95.461090 
4073.728902  	95.454735 
4074.693327  	95.479417 
4075.657751  	95.524713 
4076.622176  	95.478875 
4077.586600  	95.447245 
4078.551024  	95.437703 
4079.515449  	95.426048 
4080.479873  	95.457246 
4081.444298  	95.485330 
4082.408722  	95.425504 
4083.373147  	95.365104 
4084.337571  	95.349433 
4085.301996  	95.386732 
4086.266420  	95.449033 
4087.230845  	95.444047 
4088.195269  	95.396868 
4089.159693  	95.396939 
4090.124118  	95.441752 
4091.088542  	95.462495 
4092.052967  	95.478877 
4093.017391  	95.432889 
4093.981816  	95.377460 
4094.946240  	95.398408 
4095.910665  	95.479358 
4096.875089  	95.557081 
4097.839514  	95.481626 
4098.803938  	95.391753 
4099.768362  	95.439397 
4100.732787  	95.460273 
4101.697211  	95.475911 
4102.661636  	95.500587 
4103.626060  	95.534353 
4104.590485  	95.541761 
4105.554909  	95.482109 
4106.519334  	95.468422 
4107.483758  	95.478817 
4108.448183  	95.517086 
4109.412607  	95.544216 
4110.377031  	95.506454 
4111.341456  	95.535315 
4112.305880  	95.602440 
4113.270305  	95.577164 
4114.234729  	95.528973 
4115.199154  	95.542724 
4116.163578  	95.552484 
4117.128003  	95.539353 
4118.092427  	95.559936 
4119.056852  	95.547198 
4120.021276  	95.511067 
4120.985700  	95.528313 
4121.950125  	95.597934 
4122.914549  	95.562628 
4123.878974  	95.517903 
4124.843398  	95.531010 
4125.807823  	95.577474 
4126.772247  	95.585246 
4127.736672  	95.551607 
4128.701096  	95.523045 
4129.665521  	95.552303 
4130.629945  	95.558879 
4131.594370  	95.601292 
4132.558794  	95.589540 
4133.523218  	95.514746 
4134.487643  	95.528950 
4135.452067  	95.591608 
4136.416492  	95.638506 
4137.380916  	95.648270 
4138.345341  	95.598515 
4139.309765  	95.522699 
4140.274190  	95.508923 
4141.238614  	95.513963 
4142.203039  	95.503184 
4143.167463  	95.554175 
4144.131887  	95.538841 
4145.096312  	95.570773 
4146.060736  	95.597821 
4147.025161  	95.588918 
4147.989585  	95.561288 
4148.954010  	95.545821 
4149.918434  	95.522718 
4150.882859  	95.546492 
4151.847283  	95.591270 
4152.811708  	95.587670 
4153.776132  	95.588430 
4154.740556  	95.596114 
4155.704981  	95.560248 
4156.669405  	95.574687 
4157.633830  	95.598698 
4158.598254  	95.573789 
4159.562679  	95.526479 
4160.527103  	95.489065 
4161.491528  	95.522576 
4162.455952  	95.582424 
4163.420377  	95.615827 
4164.384801  	95.605322 
4165.349225  	95.565684 
4166.313650  	95.585533 
4167.278074  	95.574469 
4168.242499  	95.630609 
4169.206923  	95.643522 
4170.171348  	95.630681 
4171.135772  	95.588975 
4172.100197  	95.533416 
4173.064621  	95.538665 
4174.029046  	95.569665 
4174.993470  	95.558103 
4175.957894  	95.566545 
4176.922319  	95.562594 
4177.886743  	95.559526 
4178.851168  	95.554840 
4179.815592  	95.523795 
4180.780017  	95.520823 
4181.744441  	95.573247 
4182.708866  	95.545457 
4183.673290  	95.552449 
4184.637715  	95.597199 
4185.602139  	95.621103 
4186.566563  	95.576233 
4187.530988  	95.535762 
4188.495412  	95.533601 
4189.459837  	95.586706 
4190.424261  	95.631463 
4191.388686  	95.653063 
4192.353110  	95.654845 
4193.317535  	95.628795 
4194.281959  	95.602987 
4195.246384  	95.632086 
4196.210808  	95.610604 
4197.175233  	95.559477 
4198.139657  	95.550827 
4199.104081  	95.538041 
4200.068506  	95.573191 
4201.032930  	95.590020 
4201.997355  	95.598046 
4202.961779  	95.653778 
4203.926204  	95.628102 
4204.890628  	95.587502 
4205.855053  	95.573724 
4206.819477  	95.589351 
4207.783902  	95.600959 
4208.748326  	95.602177 
4209.712750  	95.623173 
4210.677175  	95.644442 
4211.641599  	95.626720 
4212.606024  	95.580336 
4213.570448  	95.593880 
4214.534873  	95.638101 
4215.499297  	95.595538 
4216.463722  	95.588769 
4217.428146  	95.550179 
4218.392571  	95.560320 
4219.356995  	95.610672 
4220.321419  	95.614525 
4221.285844  	95.638620 
4222.250268  	95.653818 
4223.214693  	95.575077 
4224.179117  	95.552043 
4225.143542  	95.591967 
4226.107966  	95.640192 
4227.072391  	95.687784 
4228.036815  	95.622593 
4229.001240  	95.537737 
4229.965664  	95.506106 
4230.930088  	95.529227 
4231.894513  	95.590409 
4232.858937  	95.587495 
4233.823362  	95.613207 
4234.787786  	95.644022 
4235.752211  	95.589392 
4236.716635  	95.597332 
4237.681060  	95.640507 
4238.645484  	95.625423 
4239.609909  	95.574372 
4240.574333  	95.547578 
4241.538757  	95.604531 
4242.503182  	95.635806 
4243.467606  	95.653705 
4244.432031  	95.586856 
4245.396455  	95.563400 
4246.360880  	95.625651 
4247.325304  	95.640862 
4248.289729  	95.645060 
4249.254153  	95.709636 
4250.218578  	95.728153 
4251.183002  	95.727607 
4252.147427  	95.659047 
4253.111851  	95.576154 
4254.076275  	95.542411 
4255.040700  	95.572815 
4256.005124  	95.608087 
4256.969549  	95.649690 
4257.933973  	95.673709 
4258.898398  	95.636662 
4259.862822  	95.557404 
4260.827247  	95.537870 
4261.791671  	95.584207 
4262.756096  	95.611157 
4263.720520  	95.567700 
4264.684944  	95.523312 
4265.649369  	95.540397 
4266.613793  	95.606409 
4267.578218  	95.592912 
4268.542642  	95.609437 
4269.507067  	95.605356 
4270.471491  	95.620852 
4271.435916  	95.616509 
4272.400340  	95.517074 
4273.364765  	95.478889 
4274.329189  	95.576457 
4275.293613  	95.603861 
4276.258038  	95.617837 
4277.222462  	95.589006 
4278.186887  	95.500619 
4279.151311  	95.468847 
4280.115736  	95.522908 
4281.080160  	95.580229 
4282.044585  	95.551500 
4283.009009  	95.472082 
4283.973434  	95.484023 
4284.937858  	95.512598 
4285.902282  	95.496982 
4286.866707  	95.537018 
4287.831131  	95.588182 
4288.795556  	95.617480 
4289.759980  	95.600927 
4290.724405  	95.523980 
4291.688829  	95.519525 
4292.653254  	95.579001 
4293.617678  	95.635681 
4294.582103  	95.666013 
4295.546527  	95.608190 
4296.510951  	95.565176 
4297.475376  	95.618312 
4298.439800  	95.648284 
4299.404225  	95.606810 
4300.368649  	95.640624 
4301.333074  	95.624434 
4302.297498  	95.518722 
4303.261923  	95.500775 
4304.226347  	95.572881 
4305.190772  	95.673449 
4306.155196  	95.652757 
4307.119620  	95.600848 
4308.084045  	95.568641 
4309.048469  	95.617366 
4310.012894  	95.663386 
4310.977318  	95.664651 
4311.941743  	95.653331 
4312.906167  	95.654825 
4313.870592  	95.613419 
4314.835016  	95.597105 
4315.799441  	95.579865 
4316.763865  	95.569818 
4317.728290  	95.586150 
4318.692714  	95.630372 
4319.657138  	95.618142 
4320.621563  	95.592864 
4321.585987  	95.562037 
4322.550412  	95.589463 
4323.514836  	95.578014 
4324.479261  	95.593731 
4325.443685  	95.636690 
4326.408110  	95.658591 
4327.372534  	95.651313 
4328.336959  	95.637436 
4329.301383  	95.599174 
4330.265807  	95.614439 
4331.230232  	95.650062 
4332.194656  	95.651464 
4333.159081  	95.696752 
4334.123505  	95.695398 
4335.087930  	95.613394 
4336.052354  	95.610918 
4337.016779  	95.678042 
4337.981203  	95.696439 
4338.945628  	95.669408 
4339.910052  	95.645114 
4340.874476  	95.636741 
4341.838901  	95.668179 
4342.803325  	95.647796 
4343.767750  	95.571125 
4344.732174  	95.523236 
4345.696599  	95.523534 
4346.661023  	95.551375 
4347.625448  	95.557790 
4348.589872  	95.541942 
4349.554297  	95.571618 
4350.518721  	95.594086 
4351.483145  	95.630167 
4352.447570  	95.644723 
4353.411994  	95.620665 
4354.376419  	95.592068 
4355.340843  	95.631657 
4356.305268  	95.662138 
4357.269692  	95.659558 
4358.234117  	95.699097 
4359.198541  	95.681783 
4360.162966  	95.685613 
4361.127390  	95.658221 
4362.091814  	95.605026 
4363.056239  	95.546790 
4364.020663  	95.568566 
4364.985088  	95.610322 
4365.949512  	95.572666 
4366.913937  	95.574736 
4367.878361  	95.549628 
4368.842786  	95.571942 
4369.807210  	95.627058 
4370.771635  	95.625113 
4371.736059  	95.615529 
4372.700484  	95.631492 
4373.664908  	95.672790 
4374.629332  	95.666265 
4375.593757  	95.645936 
4376.558181  	95.665419 
4377.522606  	95.662053 
4378.487030  	95.583287 
4379.451455  	95.583066 
4380.415879  	95.613704 
4381.380304  	95.584849 
4382.344728  	95.579270 
4383.309153  	95.587470 
4384.273577  	95.605610 
4385.238001  	95.628718 
4386.202426  	95.637776 
4387.166850  	95.680282 
4388.131275  	95.667546 
4389.095699  	95.620546 
4390.060124  	95.638353 
4391.024548  	95.680469 
4391.988973  	95.716149 
4392.953397  	95.718571 
4393.917822  	95.640773 
4394.882246  	95.548437 
4395.846670  	95.555649 
4396.811095  	95.569877 
4397.775519  	95.604290 
4398.739944  	95.666045 
4399.704368  	95.699068 
4400.668793  	95.747080 
4401.633217  	95.642683 
4402.597642  	95.568788 
4403.562066  	95.650746 
4404.526491  	95.670719 
4405.490915  	95.617087 
4406.455339  	95.576983 
4407.419764  	95.590976 
4408.384188  	95.651042 
4409.348613  	95.698600 
4410.313037  	95.678834 
4411.277462  	95.609663 
4412.241886  	95.534463 
4413.206311  	95.507929 
4414.170735  	95.571009 
4415.135160  	95.638031 
4416.099584  	95.628099 
4417.064008  	95.563588 
4418.028433  	95.500916 
4418.992857  	95.575250 
4419.957282  	95.601320 
4420.921706  	95.518449 
4421.886131  	95.507008 
4422.850555  	95.557258 
4423.814980  	95.560383 
4424.779404  	95.551724 
4425.743829  	95.488738 
4426.708253  	95.464504 
4427.672677  	95.521604 
4428.637102  	95.556358 
4429.601526  	95.583812 
4430.565951  	95.526642 
4431.530375  	95.531795 
4432.494800  	95.555958 
4433.459224  	95.478432 
4434.423649  	95.438318 
4435.388073  	95.491629 
4436.352498  	95.613350 
4437.316922  	95.677359 
4438.281347  	95.686421 
4439.245771  	95.581685 
4440.210195  	95.528676 
4441.174620  	95.530507 
4442.139044  	95.534670 
4443.103469  	95.619192 
4444.067893  	95.639494 
4445.032318  	95.654240 
4445.996742  	95.667262 
4446.961167  	95.600708 
4447.925591  	95.510796 
4448.890016  	95.450545 
4449.854440  	95.475604 
4450.818864  	95.535820 
4451.783289  	95.519588 
4452.747713  	95.494648 
4453.712138  	95.570324 
4454.676562  	95.494404 
4455.640987  	95.481388 
4456.605411  	95.592547 
4457.569836  	95.592603 
4458.534260  	95.523977 
4459.498685  	95.475503 
4460.463109  	95.472624 
4461.427533  	95.477457 
4462.391958  	95.435152 
4463.356382  	95.472602 
4464.320807  	95.535101 
4465.285231  	95.555112 
4466.249656  	95.597383 
4467.214080  	95.652535 
4468.178505  	95.649839 
4469.142929  	95.601294 
4470.107354  	95.579449 
4471.071778  	95.566127 
4472.036202  	95.629780 
4473.000627  	95.668012 
4473.965051  	95.607524 
4474.929476  	95.521027 
4475.893900  	95.572553 
4476.858325  	95.622084 
4477.822749  	95.603556 
4478.787174  	95.609483 
4479.751598  	95.598174 
4480.716023  	95.616814 
4481.680447  	95.633510 
4482.644871  	95.637762 
4483.609296  	95.625771 
4484.573720  	95.666476 
4485.538145  	95.623513 
4486.502569  	95.608961 
4487.466994  	95.614979 
4488.431418  	95.632421 
4489.395843  	95.588975 
4490.360267  	95.542139 
4491.324692  	95.551967 
4492.289116  	95.571684 
4493.253541  	95.563759 
4494.217965  	95.604811 
4495.182389  	95.677561 
4496.146814  	95.672758 
4497.111238  	95.629959 
4498.075663  	95.653221 
4499.040087  	95.678567 
4500.004512  	95.615878 
4500.968936  	95.646905 
4501.933361  	95.634619 
4502.897785  	95.602571 
4503.862210  	95.680987 
4504.826634  	95.742785 
4505.791058  	95.718638 
4506.755483  	95.648239 
4507.719907  	95.600276 
4508.684332  	95.680956 
4509.648756  	95.714964 
4510.613181  	95.681616 
4511.577605  	95.680244 
4512.542030  	95.651418 
4513.506454  	95.643490 
4514.470879  	95.602042 
4515.435303  	95.528650 
4516.399727  	95.576971 
4517.364152  	95.590533 
4518.328576  	95.639104 
4519.293001  	95.730628 
4520.257425  	95.700199 
4521.221850  	95.617629 
4522.186274  	95.625817 
4523.150699  	95.682946 
4524.115123  	95.641697 
4525.079548  	95.627577 
4526.043972  	95.602557 
4527.008396  	95.597360 
4527.972821  	95.585040 
4528.937245  	95.601005 
4529.901670  	95.600983 
4530.866094  	95.635337 
4531.830519  	95.652157 
4532.794943  	95.619799 
4533.759368  	95.628881 
4534.723792  	95.688296 
4535.688217  	95.706034 
4536.652641  	95.688756 
4537.617065  	95.669612 
4538.581490  	95.706787 
4539.545914  	95.688594 
4540.510339  	95.663784 
4541.474763  	95.635001 
4542.439188  	95.609590 
4543.403612  	95.610553 
4544.368037  	95.617901 
4545.332461  	95.565869 
4546.296886  	95.611483 
4547.261310  	95.613343 
4548.225734  	95.641436 
4549.190159  	95.703165 
4550.154583  	95.755859 
4551.119008  	95.668948 
4552.083432  	95.584459 
4553.047857  	95.626164 
4554.012281  	95.665420 
4554.976706  	95.617253 
4555.941130  	95.624964 
4556.905555  	95.686432 
4557.869979  	95.704457 
4558.834404  	95.667667 
4559.798828  	95.601054 
4560.763252  	95.587289 
4561.727677  	95.616473 
4562.692101  	95.676069 
4563.656526  	95.788436 
4564.620950  	95.785172 
4565.585375  	95.668885 
4566.549799  	95.622649 
4567.514224  	95.656822 
4568.478648  	95.635461 
4569.443073  	95.626225 
4570.407497  	95.688338 
4571.371921  	95.771782 
4572.336346  	95.753025 
4573.300770  	95.707175 
4574.265195  	95.636105 
4575.229619  	95.608972 
4576.194044  	95.572129 
4577.158468  	95.585754 
4578.122893  	95.662129 
4579.087317  	95.646950 
4580.051742  	95.598794 
4581.016166  	95.621536 
4581.980590  	95.652623 
4582.945015  	95.714839 
4583.909439  	95.733638 
4584.873864  	95.736504 
4585.838288  	95.631330 
4586.802713  	95.641729 
4587.767137  	95.657319 
4588.731562  	95.641246 
4589.695986  	95.627364 
4590.660411  	95.622439 
4591.624835  	95.642710 
4592.589259  	95.661944 
4593.553684  	95.670477 
4594.518108  	95.578728 
4595.482533  	95.533992 
4596.446957  	95.623667 
4597.411382  	95.595914 
4598.375806  	95.553055 
4599.340231  	95.629093 
4600.304655  	95.688330 
4601.269080  	95.641387 
4602.233504  	95.621855 
4603.197928  	95.639029 
4604.162353  	95.629439 
4605.126777  	95.659447 
4606.091202  	95.669752 
4607.055626  	95.640320 
4608.020051  	95.647979 
4608.984475  	95.671201 
4609.948900  	95.617203 
4610.913324  	95.587208 
4611.877749  	95.653767 
4612.842173  	95.678637 
4613.806598  	95.721548 
4614.771022  	95.716253 
4615.735446  	95.680564 
4616.699871  	95.583248 
4617.664295  	95.539859 
4618.628720  	95.558260 
4619.593144  	95.542350 
4620.557569  	95.591650 
4621.521993  	95.663716 
4622.486418  	95.687638 
4623.450842  	95.688306 
4624.415267  	95.626319 
4625.379691  	95.659640 
4626.344115  	95.687521 
4627.308540  	95.689115 
4628.272964  	95.625904 
4629.237389  	95.625840 
4630.201813  	95.572321 
4631.166238  	95.585439 
4632.130662  	95.639841 
4633.095087  	95.589400 
4634.059511  	95.575499 
4635.023936  	95.669265 
4635.988360  	95.688205 
4636.952784  	95.637581 
4637.917209  	95.616940 
4638.881633  	95.594061 
4639.846058  	95.539270 
4640.810482  	95.659784 
4641.774907  	95.702161 
4642.739331  	95.596938 
4643.703756  	95.536348 
4644.668180  	95.556831 
4645.632605  	95.534309 
4646.597029  	95.548229 
4647.561453  	95.537573 
4648.525878  	95.522087 
4649.490302  	95.533891 
4650.454727  	95.609325 
4651.419151  	95.615829 
4652.383576  	95.591761 
4653.348000  	95.615438 
4654.312425  	95.625755 
4655.276849  	95.628890 
4656.241274  	95.641804 
4657.205698  	95.650099 
4658.170122  	95.592042 
4659.134547  	95.529527 
4660.098971  	95.534199 
4661.063396  	95.600330 
4662.027820  	95.662203 
4662.992245  	95.615386 
4663.956669  	95.629994 
4664.921094  	95.675026 
4665.885518  	95.651012 
4666.849943  	95.608455 
4667.814367  	95.608086 
4668.778791  	95.654588 
4669.743216  	95.626150 
4670.707640  	95.597443 
4671.672065  	95.575802 
4672.636489  	95.512003 
4673.600914  	95.492921 
4674.565338  	95.577310 
4675.529763  	95.648593 
4676.494187  	95.696828 
4677.458612  	95.725799 
4678.423036  	95.729555 
4679.387461  	95.774266 
4680.351885  	95.729211 
4681.316309  	95.599281 
4682.280734  	95.538089 
4683.245158  	95.505981 
4684.209583  	95.530774 
4685.174007  	95.603138 
4686.138432  	95.614736 
4687.102856  	95.605852 
4688.067281  	95.550544 
4689.031705  	95.503832 
4689.996130  	95.600286 
4690.960554  	95.674230 
4691.924978  	95.643549 
4692.889403  	95.544123 
4693.853827  	95.512155 
4694.818252  	95.578596 
4695.782676  	95.622004 
4696.747101  	95.559864 
4697.711525  	95.591382 
4698.675950  	95.696129 
4699.640374  	95.608100 