##TITLE=No Description
##DATA TYPE=INFRARED SPECTRUM
##XUNITS=1/CM
##YUNITS=%T
400.236149  	141.833564 
401.200574  	109.703920 
402.164998  	87.837354 
403.129423  	89.434743 
404.093847  	93.828329 
405.058272  	95.365350 
406.022696  	83.100901 
406.987120  	75.109502 
407.951545  	95.683152 
408.915969  	101.156291 
409.880394  	84.645218 
410.844818  	85.325502 
411.809243  	96.288303 
412.773667  	93.368822 
413.738092  	79.617657 
414.702516  	73.820582 
415.666941  	73.270626 
416.631365  	82.504638 
417.595789  	89.678340 
418.560214  	93.165213 
419.524638  	82.441431 
420.489063  	76.394503 
421.453487  	76.714576 
422.417912  	80.311801 
423.382336  	80.185735 
424.346761  	76.256251 
425.311185  	71.390036 
426.275610  	73.125285 
427.240034  	74.998220 
428.204458  	76.805486 
429.168883  	76.631339 
430.133307  	74.426450 
431.097732  	72.302398 
432.062156  	70.785091 
433.026581  	68.346670 
433.991005  	68.580676 
434.955430  	70.536573 
435.919854  	72.106636 
436.884279  	71.798591 
437.848703  	73.218697 
438.813127  	72.973273 
439.777552  	73.682918 
440.741976  	74.774680 
441.706401  	76.662164 
442.670825  	80.720765 
443.635250  	81.209031 
444.599674  	79.988319 
445.564099  	79.241021 
446.528523  	78.702341 
447.492948  	79.876378 
448.457372  	81.534821 
449.421796  	80.449135 
450.386221  	79.276347 
451.350645  	79.083530 
452.315070  	78.582414 
453.279494  	79.221448 
454.243919  	79.772714 
455.208343  	79.354815 
456.172768  	78.841344 
457.137192  	79.223154 
458.101617  	79.086060 
459.066041  	78.942368 
460.030466  	78.930607 
460.994890  	79.057400 
461.959314  	79.545372 
462.923739  	79.677118 
463.888163  	79.704251 
464.852588  	79.126294 
465.817012  	79.064429 
466.781437  	79.124830 
467.745861  	78.133554 
468.710286  	77.824435 
469.674710  	78.101958 
470.639135  	78.138607 
471.603559  	78.234497 
472.567983  	78.093556 
473.532408  	78.582307 
474.496832  	78.325337 
475.461257  	78.351462 
476.425681  	78.341588 
477.390106  	78.608263 
478.354530  	79.203175 
479.318955  	77.937332 
480.283379  	77.203804 
481.247804  	77.542796 
482.212228  	77.148660 
483.176652  	77.921176 
484.141077  	78.636648 
485.105501  	77.513182 
486.069926  	76.158113 
487.034350  	76.654195 
487.998775  	77.402443 
488.963199  	77.925812 
489.927624  	77.763263 
490.892048  	76.795325 
491.856473  	76.125595 
492.820897  	76.415337 
493.785321  	76.273023 
494.749746  	75.353031 
495.714170  	74.826140 
496.678595  	74.304279 
497.643019  	74.095840 
498.607444  	73.883785 
499.571868  	73.249557 
500.536293  	72.974706 
501.500717  	72.630588 
502.465142  	72.100227 
503.429566  	72.377847 
504.393990  	72.507924 
505.358415  	72.484532 
506.322839  	72.254017 
507.287264  	72.811783 
508.251688  	74.307146 
509.216113  	75.898819 
510.180537  	76.859879 
511.144962  	77.534111 
512.109386  	78.195411 
513.073811  	78.825640 
514.038235  	79.175383 
515.002660  	78.805451 
515.967084  	78.238940 
516.931508  	78.103862 
517.895933  	78.554132 
518.860357  	78.246580 
519.824782  	77.686518 
520.789206  	78.545524 
521.753631  	79.350558 
522.718055  	79.277387 
523.682480  	78.681700 
524.646904  	78.804481 
525.611329  	78.889067 
526.575753  	79.017295 
527.540177  	79.620303 
528.504602  	80.224229 
529.469026  	80.549060 
530.433451  	80.233445 
531.397875  	79.695952 
532.362300  	79.824326 
533.326724  	80.482146 
534.291149  	80.408585 
535.255573  	80.370526 
536.219998  	80.350327 
537.184422  	80.908242 
538.148846  	81.035109 
539.113271  	81.222224 
540.077695  	81.018534 
541.042120  	81.291631 
542.006544  	81.460543 
542.970969  	81.468188 
543.935393  	81.650390 
544.899818  	81.723227 
545.864242  	81.462433 
546.828667  	81.446467 
547.793091  	81.337889 
548.757515  	81.291115 
549.721940  	81.304406 
550.686364  	81.465030 
551.650789  	81.909375 
552.615213  	81.575016 
553.579638  	81.690387 
554.544062  	81.796557 
555.508487  	81.688976 
556.472911  	81.546102 
557.437336  	81.415808 
558.401760  	81.588102 
559.366184  	81.888540 
560.330609  	81.602784 
561.295033  	81.373055 
562.259458  	81.538666 
563.223882  	81.307357 
564.188307  	81.117966 
565.152731  	81.431834 
566.117156  	81.363981 
567.081580  	81.111188 
568.046005  	81.117412 
569.010429  	80.904092 
569.974853  	80.893368 
570.939278  	80.924742 
571.903702  	81.073512 
572.868127  	81.272518 
573.832551  	81.278551 
574.796976  	81.206535 
575.761400  	80.604853 
576.725825  	80.717160 
577.690249  	81.136044 
578.654674  	81.293124 
579.619098  	81.161533 
580.583523  	80.701069 
581.547947  	80.892551 
582.512371  	81.157878 
583.476796  	80.958212 
584.441220  	80.772567 
585.405645  	80.880162 
586.370069  	81.163835 
587.334494  	81.232127 
588.298918  	81.243050 
589.263343  	81.079347 
590.227767  	81.014252 
591.192192  	80.714334 
592.156616  	80.541983 
593.121040  	80.843995 
594.085465  	80.943133 
595.049889  	80.945640 
596.014314  	80.995519 
596.978738  	80.884100 
597.943163  	80.827391 
598.907587  	80.712445 
599.872012  	80.220770 
600.836436  	80.261200 
601.800861  	80.664516 
602.765285  	80.626886 
603.729709  	80.553126 
604.694134  	80.576077 
605.658558  	80.637769 
606.622983  	80.618969 
607.587407  	80.414001 
608.551832  	80.427719 
609.516256  	80.607326 
610.480681  	80.526650 
611.445105  	80.307846 
612.409530  	80.456721 
613.373954  	80.580029 
614.338378  	80.337718 
615.302803  	79.987867 
616.267227  	79.735684 
617.231652  	80.094298 
618.196076  	80.208273 
619.160501  	80.054136 
620.124925  	79.910452 
621.089350  	79.849479 
622.053774  	79.792466 
623.018199  	79.947099 
623.982623  	79.754264 
624.947047  	79.492690 
625.911472  	79.184509 
626.875896  	79.193361 
627.840321  	79.165149 
628.804745  	79.073626 
629.769170  	78.404333 
630.733594  	77.660663 
631.698019  	77.436904 
632.662443  	77.752830 
633.626868  	78.267234 
634.591292  	78.847157 
635.555717  	78.945391 
636.520141  	79.177243 
637.484565  	79.330578 
638.448990  	79.361115 
639.413414  	79.189295 
640.377839  	79.169841 
641.342263  	79.218855 
642.306688  	79.094300 
643.271112  	79.054364 
644.235537  	78.936767 
645.199961  	78.808944 
646.164386  	78.980786 
647.128810  	78.875079 
648.093234  	78.601847 
649.057659  	78.459849 
650.022083  	78.484020 
650.986508  	78.515129 
651.950932  	78.527932 
652.915357  	78.424651 
653.879781  	78.386190 
654.844206  	78.312440 
655.808630  	78.131845 
656.773055  	77.881138 
657.737479  	77.857007 
658.701903  	77.568017 
659.666328  	77.320415 
660.630752  	77.295206 
661.595177  	77.222417 
662.559601  	77.127434 
663.524026  	77.062889 
664.488450  	77.066025 
665.452875  	76.948387 
666.417299  	76.811643 
667.381724  	76.941809 
668.346148  	76.649387 
669.310572  	76.040852 
670.274997  	75.913031 
671.239421  	75.841133 
672.203846  	75.678336 
673.168270  	75.526127 
674.132695  	75.179143 
675.097119  	74.817540 
676.061544  	74.464230 
677.025968  	74.218486 
677.990393  	73.930083 
678.954817  	73.685528 
679.919241  	73.467283 
680.883666  	73.358931 
681.848090  	73.366272 
682.812515  	73.392772 
683.776939  	73.273551 
684.741364  	73.106217 
685.705788  	72.813656 
686.670213  	72.649386 
687.634637  	72.406288 
688.599062  	72.103057 
689.563486  	71.735024 
690.527910  	71.367432 
691.492335  	71.021280 
692.456759  	70.661576 
693.421184  	70.102763 
694.385608  	69.566802 
695.350033  	68.865092 
696.314457  	68.064634 
697.278882  	67.099766 
698.243306  	66.180961 
699.207731  	65.329223 
700.172155  	64.394047 
701.136580  	63.455607 
702.101004  	62.760934 
703.065428  	62.017385 
704.029853  	61.267100 
704.994277  	60.531639 
705.958702  	59.964136 
706.923126  	59.227180 
707.887551  	58.247484 
708.851975  	57.192432 
709.816400  	56.201434 
710.780824  	55.277605 
711.745249  	54.304098 
712.709673  	53.136384 
713.674097  	51.803302 
714.638522  	50.535457 
715.602946  	49.244672 
716.567371  	47.784634 
717.531795  	46.388258 
718.496220  	44.868121 
719.460644  	43.321112 
720.425069  	42.129721 
721.389493  	41.296472 
722.353918  	40.605212 
723.318342  	40.210911 
724.282766  	40.500467 
725.247191  	41.643287 
726.211615  	43.471074 
727.176040  	45.794595 
728.140464  	48.345564 
729.104889  	50.917826 
730.069313  	53.431980 
731.033738  	56.203622 
731.998162  	59.155766 
732.962587  	62.110116 
733.927011  	65.006977 
734.891435  	67.912563 
735.855860  	70.764877 
736.820284  	73.511263 
737.784709  	76.114207 
738.749133  	78.488120 
739.713558  	80.437832 
740.677982  	82.060407 
741.642407  	83.294770 
742.606831  	84.236572 
743.571256  	84.855924 
744.535680  	85.212929 
745.500104  	85.454912 
746.464529  	85.654163 
747.428953  	85.608825 
748.393378  	85.512994 
749.357802  	85.360626 
750.322227  	85.255786 
751.286651  	85.080615 
752.251076  	84.965042 
753.215500  	84.905873 
754.179925  	84.772876 
755.144349  	84.603648 
756.108774  	84.543278 
757.073198  	84.386748 
758.037622  	84.168515 
759.002047  	83.870256 
759.966471  	83.718712 
760.930896  	83.561792 
761.895320  	83.395199 
762.859745  	83.335569 
763.824169  	83.263160 
764.788594  	83.087042 
765.753018  	82.879613 
766.717443  	82.623427 
767.681867  	82.340580 
768.646291  	82.065815 
769.610716  	81.903456 
770.575140  	81.713836 
771.539565  	81.585858 
772.503989  	81.367869 
773.468414  	81.156775 
774.432838  	81.012536 
775.397263  	80.896303 
776.361687  	80.646350 
777.326112  	80.375153 
778.290536  	80.077654 
779.254960  	79.904582 
780.219385  	79.570692 
781.183809  	79.457736 
782.148234  	79.277652 
783.112658  	79.128773 
784.077083  	78.762248 
785.041507  	78.331137 
786.005932  	78.093881 
786.970356  	77.682265 
787.934781  	77.140434 
788.899205  	76.690719 
789.863629  	76.312426 
790.828054  	75.926516 
791.792478  	75.672178 
792.756903  	75.648386 
793.721327  	75.965097 
794.685752  	76.640234 
795.650176  	77.472697 
796.614601  	78.288046 
797.579025  	78.930021 
798.543450  	79.101795 
799.507874  	78.986126 
800.472298  	79.005031 
801.436723  	79.047441 
802.401147  	78.909220 
803.365572  	78.783848 
804.329996  	78.747265 
805.294421  	78.746301 
806.258845  	78.663278 
807.223270  	78.586956 
808.187694  	78.461009 
809.152119  	78.404232 
810.116543  	78.384655 
811.080967  	78.348284 
812.045392  	78.254716 
813.009816  	78.225895 
813.974241  	78.175586 
814.938665  	78.127326 
815.903090  	78.094825 
816.867514  	78.002561 
817.831939  	77.951596 
818.796363  	77.891091 
819.760788  	77.767334 
820.725212  	77.695007 
821.689637  	77.547789 
822.654061  	77.396226 
823.618485  	77.236860 
824.582910  	77.033383 
825.547334  	76.718702 
826.511759  	76.506970 
827.476183  	76.396169 
828.440608  	76.196441 
829.405032  	75.837953 
830.369457  	75.490002 
831.333881  	75.309428 
832.298306  	75.105605 
833.262730  	74.734119 
834.227154  	74.410138 
835.191579  	74.117300 
836.156003  	73.697467 
837.120428  	73.257831 
838.084852  	72.796235 
839.049277  	72.465350 
840.013701  	72.135171 
840.978126  	71.740948 
841.942550  	71.379980 
842.906975  	70.963577 
843.871399  	70.451400 
844.835823  	70.048840 
845.800248  	69.882255 
846.764672  	69.865223 
847.729097  	70.085194 
848.693521  	70.446472 
849.657946  	71.001899 
850.622370  	71.617650 
851.586795  	72.098832 
852.551219  	72.454479 
853.515644  	72.880148 
854.480068  	73.197607 
855.444492  	73.344662 
856.408917  	73.463087 
857.373341  	73.644497 
858.337766  	73.823307 
859.302190  	73.937031 
860.266615  	73.981321 
861.231039  	73.939318 
862.195464  	73.756768 
863.159888  	73.450540 
864.124313  	73.007666 
865.088737  	72.398183 
866.053161  	71.692951 
867.017586  	70.689490 
867.982010  	69.322792 
868.946435  	67.564489 
869.910859  	65.406394 
870.875284  	63.206593 
871.839708  	62.024108 
872.804133  	62.694205 
873.768557  	64.876209 
874.732982  	67.216336 
875.697406  	69.031952 
876.661831  	70.410713 
877.626255  	71.487332 
878.590679  	72.456368 
879.555104  	73.357092 
880.519528  	74.113419 
881.483953  	74.740429 
882.448377  	75.241255 
883.412802  	75.801361 
884.377226  	76.291933 
885.341651  	76.618750 
886.306075  	76.762692 
887.270500  	76.903124 
888.234924  	77.058093 
889.199348  	77.111651 
890.163773  	77.088705 
891.128197  	77.077507 
892.092622  	77.019235 
893.057046  	76.880981 
894.021471  	76.740735 
894.985895  	76.675959 
895.950320  	76.530690 
896.914744  	76.388003 
897.879169  	76.412398 
898.843593  	76.458328 
899.808017  	76.504826 
900.772442  	76.566027 
901.736866  	76.604739 
902.701291  	76.713678 
903.665715  	76.902126 
904.630140  	77.049742 
905.594564  	77.151313 
906.558989  	77.306485 
907.523413  	77.487108 
908.487838  	77.584882 
909.452262  	77.651772 
910.416686  	77.773712 
911.381111  	77.903857 
912.345535  	77.927504 
913.309960  	77.885811 
914.274384  	77.853878 
915.238809  	77.843328 
916.203233  	77.768655 
917.167658  	77.713787 
918.132082  	77.678592 
919.096507  	77.662490 
920.060931  	77.626066 
921.025355  	77.566479 
921.989780  	77.468384 
922.954204  	77.350812 
923.918629  	77.212575 
924.883053  	77.129161 
925.847478  	77.057316 
926.811902  	76.927315 
927.776327  	76.821391 
928.740751  	76.717169 
929.705176  	76.610942 
930.669600  	76.511151 
931.634024  	76.369406 
932.598449  	76.205854 
933.562873  	76.069380 
934.527298  	75.923549 
935.491722  	75.757780 
936.456147  	75.656123 
937.420571  	75.566766 
938.384996  	75.375126 
939.349420  	75.144812 
940.313845  	74.979115 
941.278269  	74.860037 
942.242694  	74.721200 
943.207118  	74.525758 
944.171542  	74.358827 
945.135967  	74.199874 
946.100391  	74.033878 
947.064816  	73.815535 
948.029240  	73.560843 
948.993665  	73.367140 
949.958089  	73.195826 
950.922514  	73.004558 
951.886938  	72.805556 
952.851363  	72.555554 
953.815787  	72.258894 
954.780211  	72.005453 
955.744636  	71.790046 
956.709060  	71.537821 
957.673485  	71.248195 
958.637909  	70.932220 
959.602334  	70.648057 
960.566758  	70.358008 
961.531183  	70.012032 
962.495607  	69.694189 
963.460032  	69.432503 
964.424456  	69.155616 
965.388880  	68.796739 
966.353305  	68.516855 
967.317729  	68.367636 
968.282154  	68.210401 
969.246578  	68.096563 
970.211003  	68.159193 
971.175427  	68.334955 
972.139852  	68.574268 
973.104276  	68.909169 
974.068701  	69.350739 
975.033125  	69.838307 
975.997549  	70.236664 
976.961974  	70.572344 
977.926398  	70.900102 
978.890823  	71.168873 
979.855247  	71.313962 
980.819672  	71.374807 
981.784096  	71.444370 
982.748521  	71.433903 
983.712945  	71.330747 
984.677370  	71.151042 
985.641794  	70.979613 
986.606218  	70.820178 
987.570643  	70.644083 
988.535067  	70.503343 
989.499492  	70.424363 
990.463916  	70.377660 
991.428341  	70.277780 
992.392765  	70.071781 
993.357190  	69.874487 
994.321614  	69.659570 
995.286039  	69.438486 
996.250463  	69.207789 
997.214888  	68.938920 
998.179312  	68.665820 
999.143736  	68.353118 
1000.108161  	68.030234 
1001.072585  	67.714969 
1002.037010  	67.426582 
1003.001434  	67.070243 
1003.965859  	66.651560 
1004.930283  	66.244725 
1005.894708  	65.761976 
1006.859132  	65.212174 
1007.823557  	64.618899 
1008.787981  	63.986178 
1009.752405  	63.241138 
1010.716830  	62.357999 
1011.681254  	61.373540 
1012.645679  	60.203838 
1013.610103  	58.806422 
1014.574528  	57.368292 
1015.538952  	56.261745 
1016.503377  	55.711422 
1017.467801  	55.788606 
1018.432226  	56.556280 
1019.396650  	57.829076 
1020.361074  	59.358346 
1021.325499  	61.010555 
1022.289923  	62.687006 
1023.254348  	64.510592 
1024.218772  	66.627760 
1025.183197  	68.885581 
1026.147621  	70.913227 
1027.112046  	72.382351 
1028.076470  	73.155546 
1029.040895  	73.318932 
1030.005319  	73.051054 
1030.969743  	72.528962 
1031.934168  	71.937032 
1032.898592  	71.360974 
1033.863017  	70.731016 
1034.827441  	70.086898 
1035.791866  	69.563743 
1036.756290  	69.119526 
1037.720715  	68.675233 
1038.685139  	68.273444 
1039.649564  	67.929051 
1040.613988  	67.626529 
1041.578412  	67.336142 
1042.542837  	67.096044 
1043.507261  	66.907969 
1044.471686  	66.745716 
1045.436110  	66.582314 
1046.400535  	66.473633 
1047.364959  	66.368140 
1048.329384  	66.222691 
1049.293808  	66.107909 
1050.258233  	66.055403 
1051.222657  	66.016460 
1052.187081  	65.944336 
1053.151506  	65.830106 
1054.115930  	65.728867 
1055.080355  	65.570511 
1056.044779  	65.338348 
1057.009204  	65.101800 
1057.973628  	64.888207 
1058.938053  	64.679139 
1059.902477  	64.408518 
1060.866902  	64.081846 
1061.831326  	63.784065 
1062.795751  	63.527714 
1063.760175  	63.194330 
1064.724599  	62.770547 
1065.689024  	62.395528 
1066.653448  	62.015926 
1067.617873  	61.600341 
1068.582297  	61.101558 
1069.546722  	60.589982 
1070.511146  	60.091517 
1071.475571  	59.542955 
1072.439995  	58.908946 
1073.404420  	58.289590 
1074.368844  	57.636961 
1075.333268  	56.869075 
1076.297693  	56.065694 
1077.262117  	55.285619 
1078.226542  	54.583000 
1079.190966  	53.826315 
1080.155391  	53.021134 
1081.119815  	52.334567 
1082.084240  	51.723747 
1083.048664  	51.134527 
1084.013089  	50.640239 
1084.977513  	50.240638 
1085.941937  	49.837302 
1086.906362  	49.436895 
1087.870786  	49.159299 
1088.835211  	48.914053 
1089.799635  	48.662112 
1090.764060  	48.456246 
1091.728484  	48.305564 
1092.692909  	48.220289 
1093.657333  	48.094616 
1094.621758  	47.988484 
1095.586182  	48.060536 
1096.550606  	48.214211 
1097.515031  	48.346368 
1098.479455  	48.564156 
1099.443880  	48.971758 
1100.408304  	49.456104 
1101.372729  	49.922958 
1102.337153  	50.492491 
1103.301578  	51.142310 
1104.266002  	51.775183 
1105.230427  	52.415119 
1106.194851  	53.087816 
1107.159275  	53.810964 
1108.123700  	54.478422 
1109.088124  	55.007991 
1110.052549  	55.464828 
1111.016973  	55.876822 
1111.981398  	56.203913 
1112.945822  	56.439883 
1113.910247  	56.636485 
1114.874671  	56.776387 
1115.839096  	56.791366 
1116.803520  	56.801782 
1117.767945  	56.909058 
1118.732369  	57.097336 
1119.696793  	57.388148 
1120.661218  	57.799136 
1121.625642  	58.303919 
1122.590067  	58.929117 
1123.554491  	59.657289 
1124.518916  	60.442235 
1125.483340  	61.374453 
1126.447765  	62.400273 
1127.412189  	63.492748 
1128.376614  	64.652862 
1129.341038  	65.869685 
1130.305462  	67.147288 
1131.269887  	68.437618 
1132.234311  	69.697500 
1133.198736  	70.980920 
1134.163160  	72.220071 
1135.127585  	73.350784 
1136.092009  	74.446049 
1137.056434  	75.530066 
1138.020858  	76.539714 
1138.985283  	77.459402 
1139.949707  	78.292685 
1140.914131  	79.053089 
1141.878556  	79.736176 
1142.842980  	80.337167 
1143.807405  	80.917709 
1144.771829  	81.459919 
1145.736254  	81.933295 
1146.700678  	82.393648 
1147.665103  	82.788076 
1148.629527  	83.172101 
1149.593952  	83.525186 
1150.558376  	83.817091 
1151.522800  	84.023528 
1152.487225  	84.207719 
1153.451649  	84.414531 
1154.416074  	84.583613 
1155.380498  	84.674801 
1156.344923  	84.762341 
1157.309347  	84.833276 
1158.273772  	84.848713 
1159.238196  	84.792675 
1160.202621  	84.754505 
1161.167045  	84.719398 
1162.131469  	84.619306 
1163.095894  	84.468506 
1164.060318  	84.326228 
1165.024743  	84.155745 
1165.989167  	83.880766 
1166.953592  	83.507395 
1167.918016  	83.085073 
1168.882441  	82.607173 
1169.846865  	82.049523 
1170.811290  	81.524162 
1171.775714  	81.100458 
1172.740138  	80.773221 
1173.704563  	80.438951 
1174.668987  	80.134459 
1175.633412  	80.039053 
1176.597836  	80.025731 
1177.562261  	79.969126 
1178.526685  	79.919149 
1179.491110  	79.898077 
1180.455534  	79.863545 
1181.419959  	79.813622 
1182.384383  	79.705642 
1183.348808  	79.537182 
1184.313232  	79.362214 
1185.277656  	79.082262 
1186.242081  	78.725646 
1187.206505  	78.355476 
1188.170930  	77.959701 
1189.135354  	77.478475 
1190.099779  	76.952743 
1191.064203  	76.470384 
1192.028628  	75.945208 
1192.993052  	75.327169 
1193.957477  	74.693597 
1194.921901  	74.123502 
1195.886325  	73.558464 
1196.850750  	72.910750 
1197.815174  	72.279902 
1198.779599  	71.713577 
1199.744023  	71.155821 
1200.708448  	70.543859 
1201.672872  	69.972454 
1202.637297  	69.461193 
1203.601721  	68.965188 
1204.566146  	68.447154 
1205.530570  	67.968939 
1206.494994  	67.541236 
1207.459419  	67.103153 
1208.423843  	66.641714 
1209.388268  	66.208522 
1210.352692  	65.810496 
1211.317117  	65.333278 
1212.281541  	64.799187 
1213.245966  	64.342233 
1214.210390  	63.851082 
1215.174815  	63.246778 
1216.139239  	62.598248 
1217.103663  	61.983169 
1218.068088  	61.364139 
1219.032512  	60.678691 
1219.996937  	60.031042 
1220.961361  	59.439650 
1221.925786  	58.907280 
1222.890210  	58.401339 
1223.854635  	57.911347 
1224.819059  	57.430856 
1225.783484  	56.970784 
1226.747908  	56.475881 
1227.712332  	55.924091 
1228.676757  	55.338206 
1229.641181  	54.662009 
1230.605606  	53.899219 
1231.570030  	53.082318 
1232.534455  	52.279974 
1233.498879  	51.467268 
1234.463304  	50.660382 
1235.427728  	49.943773 
1236.392153  	49.332326 
1237.356577  	48.806206 
1238.321002  	48.405038 
1239.285426  	48.181382 
1240.249850  	48.081569 
1241.214275  	48.104923 
1242.178699  	48.248253 
1243.143124  	48.493298 
1244.107548  	48.834926 
1245.071973  	49.291017 
1246.036397  	49.786346 
1247.000822  	50.314246 
1247.965246  	50.921803 
1248.929671  	51.543768 
1249.894095  	52.186107 
1250.858519  	52.838002 
1251.822944  	53.451140 
1252.787368  	54.030604 
1253.751793  	54.586814 
1254.716217  	55.077638 
1255.680642  	55.517465 
1256.645066  	55.932410 
1257.609491  	56.298148 
1258.573915  	56.633145 
1259.538340  	56.945660 
1260.502764  	57.294348 
1261.467188  	57.854195 
1262.431613  	58.436579 
1263.396037  	59.029899 
1264.360462  	59.689125 
1265.324886  	60.411379 
1266.289311  	61.166452 
1267.253735  	61.983656 
1268.218160  	62.829988 
1269.182584  	63.665561 
1270.147009  	64.462159 
1271.111433  	65.282033 
1272.075857  	66.081585 
1273.040282  	66.950499 
1274.004706  	67.679573 
1274.969131  	68.324918 
1275.933555  	68.978945 
1276.897980  	69.604107 
1277.862404  	70.166660 
1278.826829  	70.700739 
1279.791253  	71.157837 
1280.755678  	71.624231 
1281.720102  	72.119325 
1282.684526  	72.624962 
1283.648951  	73.080984 
1284.613375  	73.503520 
1285.577800  	73.942262 
1286.542224  	74.365816 
1287.506649  	74.687452 
1288.471073  	75.140411 
1289.435498  	75.776044 
1290.399922  	76.350089 
1291.364347  	76.934172 
1292.328771  	77.558156 
1293.293195  	78.156936 
1294.257620  	78.788538 
1295.222044  	79.366731 
1296.186469  	79.870973 
1297.150893  	80.503373 
1298.115318  	81.303371 
1299.079742  	81.938058 
1300.044167  	82.525521 
1301.008591  	83.104603 
1301.973016  	83.646910 
1302.937440  	84.080907 
1303.901865  	84.447855 
1304.866289  	84.782504 
1305.830713  	85.101154 
1306.795138  	85.384233 
1307.759562  	85.598263 
1308.723987  	85.887313 
1309.688411  	86.322281 
1310.652836  	86.579748 
1311.617260  	86.673464 
1312.581685  	86.510981 
1313.546109  	86.757449 
1314.510534  	87.076829 
1315.474958  	87.403947 
1316.439382  	87.473719 
1317.403807  	87.479459 
1318.368231  	87.582170 
1319.332656  	87.559417 
1320.297080  	87.969710 
1321.261505  	88.326415 
1322.225929  	88.556897 
1323.190354  	88.581648 
1324.154778  	88.600385 
1325.119203  	88.595754 
1326.083627  	88.451843 
1327.048051  	88.206918 
1328.012476  	87.817760 
1328.976900  	87.216842 
1329.941325  	86.325516 
1330.905749  	85.221096 
1331.870174  	83.823267 
1332.834598  	82.074298 
1333.799023  	80.161565 
1334.763447  	78.288225 
1335.727872  	76.425855 
1336.692296  	74.626673 
1337.656720  	73.609593 
1338.621145  	72.706085 
1339.585569  	72.317042 
1340.549994  	73.423126 
1341.514418  	75.834779 
1342.478843  	77.902376 
1343.443267  	79.650895 
1344.407692  	81.409537 
1345.372116  	83.080772 
1346.336541  	84.554971 
1347.300965  	85.799175 
1348.265389  	86.752342 
1349.229814  	87.429548 
1350.194238  	88.148603 
1351.158663  	88.757155 
1352.123087  	89.133745 
1353.087512  	89.472223 
1354.051936  	89.557695 
1355.016361  	89.452004 
1355.980785  	89.808647 
1356.945210  	89.990468 
1357.909634  	89.885034 
1358.874059  	89.927253 
1359.838483  	89.863845 
1360.802907  	89.114276 
1361.767332  	88.486664 
1362.731756  	87.484576 
1363.696181  	87.389349 
1364.660605  	88.579237 
1365.625030  	88.672035 
1366.589454  	88.434422 
1367.553879  	87.953597 
1368.518303  	87.242920 
1369.482728  	87.174388 
1370.447152  	87.559869 
1371.411576  	87.551299 
1372.376001  	87.374503 
1373.340425  	86.630258 
1374.304850  	86.084997 
1375.269274  	86.611847 
1376.233699  	87.531199 
1377.198123  	87.710398 
1378.162548  	87.456881 
1379.126972  	87.542976 
1380.091397  	87.706550 
1381.055821  	87.863087 
1382.020245  	87.857314 
1382.984670  	87.803828 
1383.949094  	87.769412 
1384.913519  	87.708972 
1385.877943  	87.228856 
1386.842368  	86.118389 
1387.806792  	85.930992 
1388.771217  	87.060882 
1389.735641  	87.502907 
1390.700066  	87.439217 
1391.664490  	87.491251 
1392.628914  	87.469912 
1393.593339  	86.758905 
1394.557763  	85.304271 
1395.522188  	84.934793 
1396.486612  	85.495604 
1397.451037  	85.257722 
1398.415461  	84.246970 
1399.379886  	83.608917 
1400.344310  	83.888626 
1401.308735  	83.786892 
1402.273159  	82.925436 
1403.237583  	81.822663 
1404.202008  	80.180530 
1405.166432  	78.219036 
1406.130857  	77.498095 
1407.095281  	76.990360 
1408.059706  	76.259716 
1409.024130  	75.982467 
1409.988555  	76.065312 
1410.952979  	76.809742 
1411.917404  	78.035499 
1412.881828  	80.030005 
1413.846252  	81.982655 
1414.810677  	83.688835 
1415.775101  	84.796260 
1416.739526  	85.470908 
1417.703950  	85.989114 
1418.668375  	86.083158 
1419.632799  	86.333689 
1420.597224  	88.810811 
1421.561648  	89.792043 
1422.526073  	90.058477 
1423.490497  	89.247676 
1424.454922  	89.080502 
1425.419346  	90.328994 
1426.383770  	90.770059 
1427.348195  	90.731615 
1428.312619  	90.453660 
1429.277044  	89.915841 
1430.241468  	89.487376 
1431.205893  	89.945535 
1432.170317  	89.857643 
1433.134742  	89.488149 
1434.099166  	89.598882 
1435.063591  	89.299710 
1436.028015  	87.766781 
1436.992439  	86.721942 
1437.956864  	88.330283 
1438.921288  	89.001647 
1439.885713  	89.080941 
1440.850137  	89.050379 
1441.814562  	88.985335 
1442.778986  	88.951771 
1443.743411  	88.837848 
1444.707835  	88.714794 
1445.672260  	88.567905 
1446.636684  	88.245473 
1447.601108  	87.292668 
1448.565533  	87.197304 
1449.529957  	88.039007 
1450.494382  	88.136444 
1451.458806  	87.572590 
1452.423231  	87.129300 
1453.387655  	87.547355 
1454.352080  	87.115182 
1455.316504  	85.899303 
1456.280929  	84.913945 
1457.245353  	84.206323 
1458.209777  	84.424016 
1459.174202  	85.491584 
1460.138626  	87.139065 
1461.103051  	88.022270 
1462.067475  	88.210592 
1463.031900  	88.275178 
1463.996324  	87.838637 
1464.960749  	86.952402 
1465.925173  	87.625310 
1466.889598  	88.172178 
1467.854022  	88.101465 
1468.818446  	87.960321 
1469.782871  	87.513843 
1470.747295  	86.604624 
1471.711720  	84.777831 
1472.676144  	83.800262 
1473.640569  	84.861887 
1474.604993  	86.823258 
1475.569418  	87.134700 
1476.533842  	86.930275 
1477.498267  	88.584526 
1478.462691  	89.522519 
1479.427116  	89.814206 
1480.391540  	89.735080 
1481.355964  	89.355782 
1482.320389  	90.058939 
1483.284813  	90.729200 
1484.249238  	91.038588 
1485.213662  	91.021605 
1486.178087  	90.493187 
1487.142511  	89.913319 
1488.106936  	90.105153 
1489.071360  	89.102449 
1490.035785  	87.633735 
1491.000209  	89.113020 
1491.964633  	90.954706 
1492.929058  	91.695115 
1493.893482  	91.765970 
1494.857907  	91.367382 
1495.822331  	90.150978 
1496.786756  	89.484589 
1497.751180  	89.931799 
1498.715605  	89.092844 
1499.680029  	88.924284 
1500.644454  	88.884100 
1501.608878  	87.754390 
1502.573302  	86.846846 
1503.537727  	86.146192 
1504.502151  	84.879262 
1505.466576  	82.868491 
1506.431000  	79.677546 
1507.395425  	79.606164 
1508.359849  	82.548933 
1509.324274  	84.997181 
1510.288698  	86.998892 
1511.253123  	88.651664 
1512.217547  	88.793838 
1513.181971  	89.815828 
1514.146396  	90.340167 
1515.110820  	89.411885 
1516.075245  	88.322749 
1517.039669  	86.919529 
1518.004094  	88.925408 
1518.968518  	90.303777 
1519.932943  	89.242108 
1520.897367  	86.720120 
1521.861792  	87.108213 
1522.826216  	88.520876 
1523.790640  	89.611890 
1524.755065  	89.144334 
1525.719489  	88.703217 
1526.683914  	89.340394 
1527.648338  	88.927622 
1528.612763  	89.423391 
1529.577187  	90.624807 
1530.541612  	90.977594 
1531.506036  	90.124086 
1532.470461  	89.532921 
1533.434885  	88.562709 
1534.399309  	89.003047 
1535.363734  	89.981393 
1536.328158  	90.514631 
1537.292583  	90.663879 
1538.257007  	89.551122 
1539.221432  	86.851166 
1540.185856  	86.569834 
1541.150281  	87.787452 
1542.114705  	87.756102 
1543.079130  	87.924110 
1544.043554  	87.973780 
1545.007979  	87.497056 
1545.972403  	88.785850 
1546.936827  	90.381451 
1547.901252  	90.672905 
1548.865676  	90.055587 
1549.830101  	88.136214 
1550.794525  	88.732739 
1551.758950  	90.306922 
1552.723374  	90.360791 
1553.687799  	89.407533 
1554.652223  	88.444576 
1555.616648  	89.527472 
1556.581072  	89.659456 
1557.545496  	88.404140 
1558.509921  	84.803044 
1559.474345  	83.913818 
1560.438770  	86.777687 
1561.403194  	89.404053 
1562.367619  	90.268691 
1563.332043  	90.499464 
1564.296468  	90.057035 
1565.260892  	89.687184 
1566.225317  	90.304839 
1567.189741  	90.490530 
1568.154165  	89.986483 
1569.118590  	88.462354 
1570.083014  	88.115735 
1571.047439  	89.456723 
1572.011863  	89.709676 
1572.976288  	89.556385 
1573.940712  	89.349735 
1574.905137  	88.738787 
1575.869561  	87.371558 
1576.833986  	86.615902 
1577.798410  	87.499036 
1578.762834  	88.212099 
1579.727259  	88.640416 
1580.691683  	88.989760 
1581.656108  	89.293356 
1582.620532  	89.600574 
1583.584957  	89.916299 
1584.549381  	90.237230 
1585.513806  	90.454816 
1586.478230  	90.637920 
1587.442655  	90.774745 
1588.407079  	90.849240 
1589.371503  	90.752474 
1590.335928  	90.721320 
1591.300352  	90.768259 
1592.264777  	90.811047 
1593.229201  	90.843272 
1594.193626  	90.565361 
1595.158050  	90.468162 
1596.122475  	90.586148 
1597.086899  	90.644577 
1598.051324  	90.746665 
1599.015748  	90.676524 
1599.980173  	90.601316 
1600.944597  	90.340687 
1601.909021  	90.164355 
1602.873446  	89.905838 
1603.837870  	89.890841 
1604.802295  	90.041864 
1605.766719  	89.915259 
1606.731144  	89.487640 
1607.695568  	89.289403 
1608.659993  	89.215999 
1609.624417  	88.809701 
1610.588842  	89.075328 
1611.553266  	89.223666 
1612.517690  	89.086514 
1613.482115  	89.044824 
1614.446539  	88.987023 
1615.410964  	88.587262 
1616.375388  	87.619482 
1617.339813  	87.657691 
1618.304237  	88.639064 
1619.268662  	89.009295 
1620.233086  	89.113846 
1621.197511  	89.159302 
1622.161935  	88.757496 
1623.126359  	87.735783 
1624.090784  	87.944456 
1625.055208  	88.862566 
1626.019633  	89.018604 
1626.984057  	88.721585 
1627.948482  	88.168541 
1628.912906  	88.608110 
1629.877331  	88.933535 
1630.841755  	88.934695 
1631.806180  	88.912132 
1632.770604  	88.886772 
1633.735028  	88.544901 
1634.699453  	87.486263 
1635.663877  	85.731953 
1636.628302  	86.610865 
1637.592726  	86.732105 
1638.557151  	87.541701 
1639.521575  	88.031960 
1640.486000  	87.993036 
1641.450424  	87.997059 
1642.414849  	87.890563 
1643.379273  	87.917202 
1644.343697  	87.824194 
1645.308122  	86.928246 
1646.272546  	85.406505 
1647.236971  	84.751135 
1648.201395  	85.094320 
1649.165820  	86.531917 
1650.130244  	87.067037 
1651.094669  	86.746596 
1652.059093  	85.687878 
1653.023518  	82.631033 
1653.987942  	82.127656 
1654.952366  	84.430411 
1655.916791  	85.879104 
1656.881215  	86.173080 
1657.845640  	86.335557 
1658.810064  	86.407202 
1659.774489  	86.300573 
1660.738913  	85.826115 
1661.703338  	85.112078 
1662.667762  	84.226805 
1663.632187  	84.472336 
1664.596611  	84.792039 
1665.561036  	84.666203 
1666.525460  	84.438834 
1667.489884  	83.765008 
1668.454309  	82.193681 
1669.418733  	81.278348 
1670.383158  	81.944779 
1671.347582  	81.461687 
1672.312007  	81.548250 
1673.276431  	81.885925 
1674.240856  	81.247973 
1675.205280  	79.815849 
1676.169705  	79.938620 
1677.134129  	80.388446 
1678.098553  	80.136252 
1679.062978  	79.324909 
1680.027402  	77.669833 
1680.991827  	77.440747 
1681.956251  	77.768985 
1682.920676  	76.462573 
1683.885100  	72.978951 
1684.849525  	73.078433 
1685.813949  	76.000332 
1686.778374  	76.385987 
1687.742798  	75.581392 
1688.707222  	74.790835 
1689.671647  	74.551748 
1690.636071  	74.176447 
1691.600496  	74.028083 
1692.564920  	73.395229 
1693.529345  	72.414156 
1694.493769  	71.061683 
1695.458194  	68.940282 
1696.422618  	67.033090 
1697.387043  	66.761077 
1698.351467  	65.962463 
1699.315891  	64.396962 
1700.280316  	60.988941 
1701.244740  	60.611740 
1702.209165  	60.460247 
1703.173589  	59.379225 
1704.138014  	57.622477 
1705.102438  	55.950132 
1706.066863  	54.624888 
1707.031287  	53.277575 
1707.995712  	52.639421 
1708.960136  	51.800445 
1709.924560  	50.598887 
1710.888985  	49.813446 
1711.853409  	49.490982 
1712.817834  	48.892395 
1713.782258  	48.152541 
1714.746683  	47.625186 
1715.711107  	48.309041 
1716.675532  	48.687777 
1717.639956  	48.358334 
1718.604381  	50.012815 
1719.568805  	52.555105 
1720.533230  	54.037933 
1721.497654  	55.247657 
1722.462078  	56.366452 
1723.426503  	57.290010 
1724.390927  	58.802880 
1725.355352  	60.267358 
1726.319776  	61.532973 
1727.284201  	62.842556 
1728.248625  	64.169274 
1729.213050  	64.752339 
1730.177474  	65.329562 
1731.141899  	67.581542 
1732.106323  	68.823903 
1733.070747  	68.758459 
1734.035172  	68.424752 
1734.999596  	72.118316 
1735.964021  	74.901717 
1736.928445  	76.295125 
1737.892870  	77.627853 
1738.857294  	78.513284 
1739.821719  	79.295641 
1740.786143  	81.718472 
1741.750568  	83.186933 
1742.714992  	83.423715 
1743.679416  	83.839351 
1744.643841  	85.662568 
1745.608265  	87.002716 
1746.572690  	87.486009 
1747.537114  	87.735801 
1748.501539  	87.979052 
1749.465963  	88.742105 
1750.430388  	89.272888 
1751.394812  	88.794514 
1752.359237  	90.491435 
1753.323661  	91.793041 
1754.288085  	92.405131 
1755.252510  	92.588460 
1756.216934  	91.949669 
1757.181359  	91.376475 
1758.145783  	92.154714 
1759.110208  	92.703382 
1760.074632  	92.998765 
1761.039057  	92.385176 
1762.003481  	91.450298 
1762.967906  	92.564333 
1763.932330  	93.323004 
1764.896754  	93.500021 
1765.861179  	93.561514 
1766.825603  	93.350031 
1767.790028  	92.319189 
1768.754452  	92.166536 
1769.718877  	93.188181 
1770.683301  	92.833319 
1771.647726  	91.756627 
1772.612150  	91.325897 
1773.576575  	92.456581 
1774.540999  	93.065372 
1775.505423  	92.678901 
1776.469848  	93.045560 
1777.434272  	93.704292 
1778.398697  	93.519671 
1779.363121  	93.176509 
1780.327546  	92.677256 
1781.291970  	92.653825 
1782.256395  	93.408997 
1783.220819  	93.722063 
1784.185244  	93.324324 
1785.149668  	92.780652 
1786.114093  	93.358373 
1787.078517  	93.724466 
1788.042941  	93.753607 
1789.007366  	93.745361 
1789.971790  	93.381399 
1790.936215  	92.321692 
1791.900639  	91.789014 
1792.865064  	91.781131 
1793.829488  	92.825320 
1794.793913  	93.187704 
1795.758337  	92.503813 
1796.722762  	92.610284 
1797.687186  	93.419231 
1798.651610  	93.374064 
1799.616035  	92.773849 
1800.580459  	92.790733 
1801.544884  	92.530368 
1802.509308  	92.328969 
1803.473733  	93.157484 
1804.438157  	93.632962 
1805.402582  	93.598897 
1806.367006  	93.557094 
1807.331431  	93.252109 
1808.295855  	93.127180 
1809.260279  	93.437675 
1810.224704  	92.945618 
1811.189128  	92.532202 
1812.153553  	92.862849 
1813.117977  	93.277183 
1814.082402  	93.676057 
1815.046826  	93.728830 
1816.011251  	93.739048 
1816.975675  	93.451473 
1817.940100  	93.261970 
1818.904524  	93.536576 
1819.868948  	93.639629 
1820.833373  	93.540988 
1821.797797  	93.430704 
1822.762222  	93.227646 
1823.726646  	93.240671 
1824.691071  	92.633267 
1825.655495  	91.967979 
1826.619920  	93.058628 
1827.584344  	93.480571 
1828.548769  	92.991554 
1829.513193  	91.812741 
1830.477617  	91.896981 
1831.442042  	93.117451 
1832.406466  	93.497732 
1833.370891  	93.403072 
1834.335315  	93.631241 
1835.299740  	93.788169 
1836.264164  	93.588056 
1837.228589  	93.110074 
1838.193013  	93.342500 
1839.157438  	93.695237 
1840.121862  	93.808496 
1841.086287  	93.802978 
1842.050711  	93.431018 
1843.015135  	93.074880 
1843.979560  	92.347152 
1844.943984  	92.294198 
1845.908409  	93.086302 
1846.872833  	93.288410 
1847.837258  	92.873262 
1848.801682  	93.177448 
1849.766107  	93.806653 
1850.730531  	94.085516 
1851.694956  	94.061124 
1852.659380  	93.979002 
1853.623804  	94.084277 
1854.588229  	94.100883 
1855.552653  	94.102741 
1856.517078  	94.106503 
1857.481502  	94.071715 
1858.445927  	93.888713 
1859.410351  	93.842344 
1860.374776  	93.935493 
1861.339200  	93.859778 
1862.303625  	93.915766 
1863.268049  	94.059751 
1864.232473  	94.053164 
1865.196898  	94.040597 
1866.161322  	93.719088 
1867.125747  	93.292061 
1868.090171  	92.716253 
1869.054596  	92.253348 
1870.019020  	92.800665 
1870.983445  	93.507861 
1871.947869  	93.984555 
1872.912294  	94.292461 
1873.876718  	94.297561 
1874.841142  	94.208420 
1875.805567  	94.183408 
1876.769991  	94.230683 
1877.734416  	94.238530 
1878.698840  	94.175573 
1879.663265  	94.052980 
1880.627689  	94.122296 
1881.592114  	94.114144 
1882.556538  	94.107837 
1883.520963  	94.138574 
1884.485387  	94.065164 
1885.449811  	93.923219 
1886.414236  	94.103262 
1887.378660  	94.213179 
1888.343085  	93.987736 
1889.307509  	93.106032 
1890.271934  	93.100445 
1891.236358  	93.813331 
1892.200783  	93.976368 
1893.165207  	94.078163 
1894.129632  	94.022937 
1895.094056  	93.528497 
1896.058480  	93.598059 
1897.022905  	93.990739 
1897.987329  	94.015339 
1898.951754  	93.958859 
1899.916178  	94.064080 
1900.880603  	94.149334 
1901.845027  	93.966190 
1902.809452  	93.969431 
1903.773876  	93.955705 
1904.738301  	93.883434 
1905.702725  	93.859659 
1906.667150  	93.861020 
1907.631574  	93.632117 
1908.595998  	93.532802 
1909.560423  	93.354340 
1910.524847  	93.371367 
1911.489272  	93.857993 
1912.453696  	93.943542 
1913.418121  	93.983529 
1914.382545  	93.973635 
1915.346970  	93.983658 
1916.311394  	93.890983 
1917.275819  	93.304396 
1918.240243  	92.655294 
1919.204667  	93.364720 
1920.169092  	93.748677 
1921.133516  	93.657747 
1922.097941  	93.038156 
1923.062365  	92.457302 
1924.026790  	93.310298 
1924.991214  	93.855231 
1925.955639  	93.778368 
1926.920063  	93.820012 
1927.884488  	93.846549 
1928.848912  	93.851086 
1929.813336  	93.824541 
1930.777761  	93.767824 
1931.742185  	93.792940 
1932.706610  	93.780879 
1933.671034  	93.802419 
1934.635459  	93.865712 
1935.599883  	93.805624 
1936.564308  	93.884443 
1937.528732  	93.700019 
1938.493157  	93.645699 
1939.457581  	93.927201 
1940.422005  	93.885329 
1941.386430  	93.382717 
1942.350854  	92.304197 
1943.315279  	92.441794 
1944.279703  	93.340090 
1945.244128  	93.348294 
1946.208552  	93.418871 
1947.172977  	93.443299 
1948.137401  	93.361005 
1949.101826  	93.362569 
1950.066250  	93.710239 
1951.030674  	93.628540 
1951.995099  	93.279286 
1952.959523  	93.189765 
1953.923948  	93.221573 
1954.888372  	93.132399 
1955.852797  	93.254606 
1956.817221  	93.503211 
1957.781646  	93.572465 
1958.746070  	93.488436 
1959.710495  	93.505672 
1960.674919  	93.332178 
1961.639344  	93.331577 
1962.603768  	93.302410 
1963.568192  	93.491890 
1964.532617  	93.655817 
1965.497041  	93.604911 
1966.461466  	93.349691 
1967.425890  	93.128186 
1968.390315  	93.329386 
1969.354739  	93.492849 
1970.319164  	93.600990 
1971.283588  	94.105558 
1972.248013  	94.054696 
1973.212437  	93.991622 
1974.176861  	94.165570 
1975.141286  	93.858482 
1976.105710  	93.844392 
1977.070135  	94.398210 
1978.034559  	94.211128 
1978.998984  	93.461472 
1979.963408  	93.304910 
1980.927833  	93.293027 
1981.892257  	93.403936 
1982.856682  	93.671579 
1983.821106  	93.762894 
1984.785530  	93.752553 
1985.749955  	93.662455 
1986.714379  	93.826737 
1987.678804  	93.571998 
1988.643228  	93.342927 
1989.607653  	93.908985 
1990.572077  	93.954878 
1991.536502  	93.171324 
1992.500926  	92.765425 
1993.465351  	93.085541 
1994.429775  	93.420392 
1995.394199  	93.709503 
1996.358624  	93.894726 
1997.323048  	93.828982 
1998.287473  	93.642174 
1999.251897  	93.738487 
2000.216322  	94.214034 
2001.180746  	94.690659 
2002.145171  	94.743603 
2003.109595  	94.660713 
2004.074020  	94.608544 
2005.038444  	94.679252 
2006.002868  	94.576706 
2006.967293  	94.375057 
2007.931717  	94.138497 
2008.896142  	94.187907 
2009.860566  	94.467371 
2010.824991  	94.440228 
2011.789415  	94.184627 
2012.753840  	94.037923 
2013.718264  	93.945676 
2014.682689  	93.967378 
2015.647113  	94.207152 
2016.611537  	93.939490 
2017.575962  	93.829312 
2018.540386  	94.003152 
2019.504811  	94.247586 
2020.469235  	94.479107 
2021.433660  	94.450670 
2022.398084  	94.578379 
2023.362509  	94.732050 
2024.326933  	94.501812 
2025.291358  	94.065411 
2026.255782  	94.046530 
2027.220207  	94.231302 
2028.184631  	94.416329 
2029.149055  	94.674454 
2030.113480  	94.769241 
2031.077904  	94.735442 
2032.042329  	94.286921 
2033.006753  	94.042357 
2033.971178  	94.033611 
2034.935602  	94.141814 
2035.900027  	94.370017 
2036.864451  	94.286889 
2037.828876  	94.140207 
2038.793300  	94.194058 
2039.757724  	93.827697 
2040.722149  	93.761980 
2041.686573  	93.532232 
2042.650998  	93.565897 
2043.615422  	93.737957 
2044.579847  	93.909424 
2045.544271  	94.057695 
2046.508696  	94.121707 
2047.473120  	94.080001 
2048.437545  	94.051295 
2049.401969  	94.099639 
2050.366393  	93.729728 
2051.330818  	93.446453 
2052.295242  	93.851156 
2053.259667  	94.142355 
2054.224091  	93.873284 
2055.188516  	93.627317 
2056.152940  	93.659482 
2057.117365  	93.524814 
2058.081789  	93.621762 
2059.046214  	93.740544 
2060.010638  	93.732683 
2060.975062  	93.585713 
2061.939487  	93.522120 
2062.903911  	93.498703 
2063.868336  	93.319002 
2064.832760  	93.049279 
2065.797185  	93.222995 
2066.761609  	93.423269 
2067.726034  	93.440503 
2068.690458  	93.389074 
2069.654883  	93.383417 
2070.619307  	93.399059 
2071.583731  	93.347544 
2072.548156  	93.366121 
2073.512580  	93.277313 
2074.477005  	93.258631 
2075.441429  	93.441919 
2076.405854  	93.495113 
2077.370278  	93.369238 
2078.334703  	93.268729 
2079.299127  	93.250123 
2080.263552  	93.209154 
2081.227976  	93.189493 
2082.192401  	93.101617 
2083.156825  	92.989858 
2084.121249  	93.098664 
2085.085674  	93.310870 
2086.050098  	93.291764 
2087.014523  	93.209183 
2087.978947  	93.259161 
2088.943372  	93.300549 
2089.907796  	93.072920 
2090.872221  	93.093931 
2091.836645  	93.464718 
2092.801070  	93.461279 
2093.765494  	93.276566 
2094.729918  	93.227038 
2095.694343  	93.140443 
2096.658767  	93.048991 
2097.623192  	93.078089 
2098.587616  	93.050335 
2099.552041  	93.125894 
2100.516465  	93.202186 
2101.480890  	93.226527 
2102.445314  	93.203000 
2103.409739  	93.172630 
2104.374163  	93.143409 
2105.338587  	93.017405 
2106.303012  	93.053967 
2107.267436  	93.137082 
2108.231861  	93.094515 
2109.196285  	93.060088 
2110.160710  	93.179624 
2111.125134  	93.231508 
2112.089559  	93.171520 
2113.053983  	93.169541 
2114.018408  	93.159094 
2114.982832  	93.152233 
2115.947256  	93.075805 
2116.911681  	93.055911 
2117.876105  	93.162731 
2118.840530  	93.265824 
2119.804954  	93.368395 
2120.769379  	93.409125 
2121.733803  	93.455530 
2122.698228  	93.544160 
2123.662652  	93.544087 
2124.627077  	93.497091 
2125.591501  	93.627284 
2126.555925  	93.804708 
2127.520350  	93.754627 
2128.484774  	93.700038 
2129.449199  	93.794133 
2130.413623  	93.949621 
2131.378048  	94.004735 
2132.342472  	93.891642 
2133.306897  	93.784991 
2134.271321  	93.775191 
2135.235746  	93.614654 
2136.200170  	93.461213 
2137.164594  	93.823871 
2138.129019  	94.098172 
2139.093443  	94.155297 
2140.057868  	94.061669 
2141.022292  	93.945096 
2141.986717  	93.800615 
2142.951141  	93.712158 
2143.915566  	94.057037 
2144.879990  	94.124428 
2145.844415  	94.139059 
2146.808839  	94.150726 
2147.773264  	94.043031 
2148.737688  	93.988409 
2149.702112  	94.074291 
2150.666537  	94.046861 
2151.630961  	94.110632 
2152.595386  	94.511960 
2153.559810  	94.497321 
2154.524235  	94.635839 
2155.488659  	94.840886 
2156.453084  	95.132049 
2157.417508  	95.354909 
2158.381933  	95.367804 
2159.346357  	94.578782 
2160.310781  	93.783809 
2161.275206  	93.478872 
2162.239630  	93.658317 
2163.204055  	94.016591 
2164.168479  	93.964963 
2165.132904  	93.821898 
2166.097328  	94.046670 
2167.061753  	93.938394 
2168.026177  	93.754932 
2168.990602  	93.717646 
2169.955026  	93.679713 
2170.919450  	93.856968 
2171.883875  	93.871203 
2172.848299  	93.757885 
2173.812724  	93.977939 
2174.777148  	94.209230 
2175.741573  	94.052658 
2176.705997  	93.856241 
2177.670422  	93.780354 
2178.634846  	93.915944 
2179.599271  	94.080654 
2180.563695  	94.079702 
2181.528119  	94.191943 
2182.492544  	94.142863 
2183.456968  	93.692967 
2184.421393  	93.520797 
2185.385817  	93.946909 
2186.350242  	94.118271 
2187.314666  	93.634245 
2188.279091  	93.390554 
2189.243515  	93.441173 
2190.207940  	93.554755 
2191.172364  	93.758584 
2192.136788  	93.714887 
2193.101213  	93.548834 
2194.065637  	93.470492 
2195.030062  	93.435107 
2195.994486  	93.412493 
2196.958911  	93.577823 
2197.923335  	93.642069 
2198.887760  	93.430671 
2199.852184  	93.563057 
2200.816609  	93.595140 
2201.781033  	93.608854 
2202.745458  	93.738083 
2203.709882  	93.731149 
2204.674306  	93.573996 
2205.638731  	93.514933 
2206.603155  	93.591100 
2207.567580  	93.558722 
2208.532004  	93.477520 
2209.496429  	93.427169 
2210.460853  	93.320185 
2211.425278  	93.399551 
2212.389702  	93.479420 
2213.354127  	93.421198 
2214.318551  	93.272180 
2215.282975  	93.218482 
2216.247400  	93.306630 
2217.211824  	93.575343 
2218.176249  	93.659070 
2219.140673  	93.561394 
2220.105098  	93.363994 
2221.069522  	93.324049 
2222.033947  	93.407789 
2222.998371  	93.297806 
2223.962796  	93.262036 
2224.927220  	93.370272 
2225.891644  	93.222999 
2226.856069  	93.235179 
2227.820493  	93.317525 
2228.784918  	93.418082 
2229.749342  	93.371918 
2230.713767  	93.316273 
2231.678191  	93.170253 
2232.642616  	93.046733 
2233.607040  	93.268396 
2234.571465  	93.328138 
2235.535889  	93.184950 
2236.500313  	93.157023 
2237.464738  	93.179330 
2238.429162  	93.149185 
2239.393587  	93.136698 
2240.358011  	93.182802 
2241.322436  	93.392580 
2242.286860  	93.318929 
2243.251285  	93.159148 
2244.215709  	93.222911 
2245.180134  	93.137417 
2246.144558  	93.047958 
2247.108982  	93.095609 
2248.073407  	93.134358 
2249.037831  	93.201168 
2250.002256  	93.070070 
2250.966680  	92.919229 
2251.931105  	92.973728 
2252.895529  	93.013128 
2253.859954  	92.983116 
2254.824378  	92.949364 
2255.788803  	92.868596 
2256.753227  	92.918349 
2257.717651  	93.056392 
2258.682076  	92.940489 
2259.646500  	92.860238 
2260.610925  	92.800020 
2261.575349  	92.780316 
2262.539774  	92.811991 
2263.504198  	92.883947 
2264.468623  	92.858105 
2265.433047  	92.897082 
2266.397472  	93.006070 
2267.361896  	92.983376 
2268.326321  	92.878855 
2269.290745  	92.858437 
2270.255169  	92.970131 
2271.219594  	93.033276 
2272.184018  	92.937387 
2273.148443  	92.896970 
2274.112867  	92.889965 
2275.077292  	92.790286 
2276.041716  	92.675620 
2277.006141  	92.717299 
2277.970565  	92.818516 
2278.934990  	92.759374 
2279.899414  	92.678794 
2280.863838  	92.691882 
2281.828263  	92.632459 
2282.792687  	92.572276 
2283.757112  	92.616963 
2284.721536  	92.606274 
2285.685961  	92.537448 
2286.650385  	92.581649 
2287.614810  	92.584972 
2288.579234  	92.545785 
2289.543659  	92.465755 
2290.508083  	92.587112 
2291.472507  	92.586322 
2292.436932  	92.597290 
2293.401356  	92.534070 
2294.365781  	92.461664 
2295.330205  	92.458415 
2296.294630  	92.431626 
2297.259054  	92.489823 
2298.223479  	92.416511 
2299.187903  	92.406697 
2300.152328  	92.423597 
2301.116752  	92.385288 
2302.081176  	92.449122 
2303.045601  	92.370751 
2304.010025  	92.418605 
2304.974450  	92.307414 
2305.938874  	92.356865 
2306.903299  	92.309825 
2307.867723  	92.424488 
2308.832148  	92.302711 
2309.796572  	92.299258 
2310.760997  	92.182234 
2311.725421  	92.232734 
2312.689845  	92.317144 
2313.654270  	92.313135 
2314.618694  	92.360867 
2315.583119  	92.484238 
2316.547543  	92.552812 
2317.511968  	92.557678 
2318.476392  	92.487637 
2319.440817  	92.419113 
2320.405241  	92.417722 
2321.369666  	92.530724 
2322.334090  	92.627845 
2323.298515  	92.613424 
2324.262939  	92.590936 
2325.227363  	92.903835 
2326.191788  	93.267850 
2327.156212  	93.491643 
2328.120637  	93.596852 
2329.085061  	93.620575 
2330.049486  	93.711326 
2331.013910  	93.742434 
2331.978335  	93.879803 
2332.942759  	94.071003 
2333.907184  	94.178473 
2334.871608  	94.191444 
2335.836032  	94.316419 
2336.800457  	94.417479 
2337.764881  	94.425003 
2338.729306  	94.425484 
2339.693730  	94.410265 
2340.658155  	94.468423 
2341.622579  	94.572970 
2342.587004  	94.466323 
2343.551428  	94.242033 
2344.515853  	94.023214 
2345.480277  	93.812661 
2346.444701  	93.543825 
2347.409126  	93.327178 
2348.373550  	93.026182 
2349.337975  	92.850859 
2350.302399  	93.027303 
2351.266824  	93.426179 
2352.231248  	93.868952 
2353.195673  	94.098611 
2354.160097  	94.118040 
2355.124522  	94.254696 
2356.088946  	94.615806 
2357.053370  	94.780353 
2358.017795  	94.787829 
2358.982219  	94.795636 
2359.946644  	94.967153 
2360.911068  	95.093470 
2361.875493  	94.971768 
2362.839917  	94.817359 
2363.804342  	94.813660 
2364.768766  	94.727768 
2365.733191  	94.648115 
2366.697615  	94.540928 
2367.662039  	94.267924 
2368.626464  	93.944507 
2369.590888  	93.669075 
2370.555313  	93.435469 
2371.519737  	93.273013 
2372.484162  	93.143078 
2373.448586  	92.955218 
2374.413011  	92.735022 
2375.377435  	92.546037 
2376.341860  	92.411388 
2377.306284  	92.296807 
2378.270708  	92.197913 
2379.235133  	92.103999 
2380.199557  	92.177709 
2381.163982  	92.238463 
2382.128406  	92.286615 
2383.092831  	92.324387 
2384.057255  	92.357199 
2385.021680  	92.428007 
2385.986104  	92.531778 
2386.950529  	92.610029 
2387.914953  	92.659505 
2388.879378  	92.671990 
2389.843802  	92.708839 
2390.808226  	92.711568 
2391.772651  	92.694530 
2392.737075  	92.684145 
2393.701500  	92.752087 
2394.665924  	92.763249 
2395.630349  	92.713488 
2396.594773  	92.666381 
2397.559198  	92.664090 
2398.523622  	92.727468 
2399.488047  	92.785926 
2400.452471  	92.754920 
2401.416895  	92.721597 
2402.381320  	92.746254 
2403.345744  	92.801357 
2404.310169  	92.810216 
2405.274593  	92.782128 
2406.239018  	92.684275 
2407.203442  	92.668672 
2408.167867  	92.707759 
2409.132291  	92.733773 
2410.096716  	92.734396 
2411.061140  	92.688319 
2412.025564  	92.686451 
2412.989989  	92.720501 
2413.954413  	92.732180 
2414.918838  	92.763263 
2415.883262  	92.710198 
2416.847687  	92.680574 
2417.812111  	92.754950 
2418.776536  	92.809995 
2419.740960  	92.805899 
2420.705385  	92.818588 
2421.669809  	92.756514 
2422.634233  	92.742784 
2423.598658  	92.767663 
2424.563082  	92.787314 
2425.527507  	92.827856 
2426.491931  	92.789066 
2427.456356  	92.718070 
2428.420780  	92.763898 
2429.385205  	92.833575 
2430.349629  	92.890123 
2431.314054  	92.852736 
2432.278478  	92.828679 
2433.242902  	92.791132 
2434.207327  	92.751804 
2435.171751  	92.791941 
2436.136176  	92.864310 
2437.100600  	92.886882 
2438.065025  	92.840348 
2439.029449  	92.840459 
2439.993874  	92.894026 
2440.958298  	92.865992 
2441.922723  	92.781283 
2442.887147  	92.736725 
2443.851572  	92.795705 
2444.815996  	92.861859 
2445.780420  	92.810525 
2446.744845  	92.739916 
2447.709269  	92.764647 
2448.673694  	92.792661 
2449.638118  	92.734328 
2450.602543  	92.675889 
2451.566967  	92.693860 
2452.531392  	92.723210 
2453.495816  	92.749052 
2454.460241  	92.810411 
2455.424665  	92.849831 
2456.389089  	92.815753 
2457.353514  	92.766097 
2458.317938  	92.763427 
2459.282363  	92.786259 
2460.246787  	92.791753 
2461.211212  	92.736594 
2462.175636  	92.719121 
2463.140061  	92.737991 
2464.104485  	92.756489 
2465.068910  	92.752075 
2466.033334  	92.717293 
2466.997758  	92.775552 
2467.962183  	92.864854 
2468.926607  	92.829967 
2469.891032  	92.788910 
2470.855456  	92.801010 
2471.819881  	92.802985 
2472.784305  	92.804685 
2473.748730  	92.770234 
2474.713154  	92.814196 
2475.677579  	92.809003 
2476.642003  	92.728686 
2477.606427  	92.717557 
2478.570852  	92.728747 
2479.535276  	92.735979 
2480.499701  	92.722111 
2481.464125  	92.686522 
2482.428550  	92.720772 
2483.392974  	92.755341 
2484.357399  	92.750200 
2485.321823  	92.690884 
2486.286248  	92.650971 
2487.250672  	92.676646 
2488.215096  	92.714400 
2489.179521  	92.679064 
2490.143945  	92.610826 
2491.108370  	92.569679 
2492.072794  	92.575188 
2493.037219  	92.616858 
2494.001643  	92.668963 
2494.966068  	92.673529 
2495.930492  	92.723251 
2496.894917  	92.717286 
2497.859341  	92.663887 
2498.823765  	92.624184 
2499.788190  	92.634399 
2500.752614  	92.633705 
2501.717039  	92.613825 
2502.681463  	92.636577 
2503.645888  	92.647685 
2504.610312  	92.568472 
2505.574737  	92.548172 
2506.539161  	92.592657 
2507.503586  	92.622438 
2508.468010  	92.645835 
2509.432435  	92.644868 
2510.396859  	92.626953 
2511.361283  	92.629100 
2512.325708  	92.596607 
2513.290132  	92.605011 
2514.254557  	92.624986 
2515.218981  	92.562864 
2516.183406  	92.534068 
2517.147830  	92.614050 
2518.112255  	92.577830 
2519.076679  	92.551148 
2520.041104  	92.560000 
2521.005528  	92.579064 
2521.969952  	92.542383 
2522.934377  	92.504035 
2523.898801  	92.536457 
2524.863226  	92.588495 
2525.827650  	92.516933 
2526.792075  	92.473504 
2527.756499  	92.519258 
2528.720924  	92.567829 
2529.685348  	92.524677 
2530.649773  	92.532975 
2531.614197  	92.538719 
2532.578621  	92.563537 
2533.543046  	92.574256 
2534.507470  	92.540876 
2535.471895  	92.501061 
2536.436319  	92.489611 
2537.400744  	92.488907 
2538.365168  	92.439706 
2539.329593  	92.404685 
2540.294017  	92.445512 
2541.258442  	92.473533 
2542.222866  	92.509208 
2543.187290  	92.548422 
2544.151715  	92.569472 
2545.116139  	92.573097 
2546.080564  	92.530704 
2547.044988  	92.441272 
2548.009413  	92.399343 
2548.973837  	92.423696 
2549.938262  	92.489967 
2550.902686  	92.502348 
2551.867111  	92.471962 
2552.831535  	92.414555 
2553.795959  	92.418306 
2554.760384  	92.439434 
2555.724808  	92.389414 
2556.689233  	92.370697 
2557.653657  	92.422063 
2558.618082  	92.445536 
2559.582506  	92.509101 
2560.546931  	92.473147 
2561.511355  	92.402930 
2562.475780  	92.382192 
2563.440204  	92.376246 
2564.404629  	92.421563 
2565.369053  	92.457145 
2566.333477  	92.482939 
2567.297902  	92.509443 
2568.262326  	92.429079 
2569.226751  	92.301862 
2570.191175  	92.302304 
2571.155600  	92.392876 
2572.120024  	92.406194 
2573.084449  	92.436629 
2574.048873  	92.420576 
2575.013298  	92.359592 
2575.977722  	92.364763 
2576.942146  	92.416649 
2577.906571  	92.416368 
2578.870995  	92.379349 
2579.835420  	92.403632 
2580.799844  	92.438238 
2581.764269  	92.397137 
2582.728693  	92.391384 
2583.693118  	92.357367 
2584.657542  	92.305386 
2585.621967  	92.351276 
2586.586391  	92.375364 
2587.550815  	92.357405 
2588.515240  	92.379733 
2589.479664  	92.344209 
2590.444089  	92.312318 
2591.408513  	92.360519 
2592.372938  	92.393347 
2593.337362  	92.379799 
2594.301787  	92.359947 
2595.266211  	92.344759 
2596.230636  	92.384709 
2597.195060  	92.423867 
2598.159484  	92.431323 
2599.123909  	92.415262 
2600.088333  	92.370387 
2601.052758  	92.308273 
2602.017182  	92.317835 
2602.981607  	92.323685 
2603.946031  	92.336424 
2604.910456  	92.338010 
2605.874880  	92.349436 
2606.839305  	92.324325 
2607.803729  	92.314490 
2608.768153  	92.308789 
2609.732578  	92.295113 
2610.697002  	92.271746 
2611.661427  	92.276956 
2612.625851  	92.307880 
2613.590276  	92.335210 
2614.554700  	92.334453 
2615.519125  	92.298128 
2616.483549  	92.275810 
2617.447974  	92.243351 
2618.412398  	92.245826 
2619.376822  	92.272153 
2620.341247  	92.260583 
2621.305671  	92.230795 
2622.270096  	92.234014 
2623.234520  	92.245040 
2624.198945  	92.243708 
2625.163369  	92.270938 
2626.127794  	92.244420 
2627.092218  	92.219968 
2628.056643  	92.234466 
2629.021067  	92.225755 
2629.985492  	92.228688 
2630.949916  	92.277251 
2631.914340  	92.285097 
2632.878765  	92.249163 
2633.843189  	92.214994 
2634.807614  	92.207316 
2635.772038  	92.218023 
2636.736463  	92.217557 
2637.700887  	92.239002 
2638.665312  	92.232319 
2639.629736  	92.231511 
2640.594161  	92.288888 
2641.558585  	92.282099 
2642.523009  	92.237596 
2643.487434  	92.246867 
2644.451858  	92.274423 
2645.416283  	92.257063 
2646.380707  	92.240968 
2647.345132  	92.258073 
2648.309556  	92.305746 
2649.273981  	92.299683 
2650.238405  	92.275877 
2651.202830  	92.276505 
2652.167254  	92.266545 
2653.131678  	92.247623 
2654.096103  	92.248228 
2655.060527  	92.261234 
2656.024952  	92.270234 
2656.989376  	92.266540 
2657.953801  	92.272313 
2658.918225  	92.312458 
2659.882650  	92.297006 
2660.847074  	92.266340 
2661.811499  	92.291041 
2662.775923  	92.301978 
2663.740347  	92.322246 
2664.704772  	92.354166 
2665.669196  	92.389853 
2666.633621  	92.382918 
2667.598045  	92.359765 
2668.562470  	92.353977 
2669.526894  	92.354059 
2670.491319  	92.334799 
2671.455743  	92.379464 
2672.420168  	92.392620 
2673.384592  	92.369110 
2674.349016  	92.364961 
2675.313441  	92.362042 
2676.277865  	92.366441 
2677.242290  	92.370778 
2678.206714  	92.352195 
2679.171139  	92.339357 
2680.135563  	92.344321 
2681.099988  	92.357146 
2682.064412  	92.381323 
2683.028837  	92.395270 
2683.993261  	92.362321 
2684.957686  	92.344267 
2685.922110  	92.321645 
2686.886534  	92.291754 
2687.850959  	92.305702 
2688.815383  	92.348139 
2689.779808  	92.338383 
2690.744232  	92.317595 
2691.708657  	92.330494 
2692.673081  	92.346235 
2693.637506  	92.329454 
2694.601930  	92.333466 
2695.566355  	92.343017 
2696.530779  	92.325027 
2697.495203  	92.304936 
2698.459628  	92.318003 
2699.424052  	92.335969 
2700.388477  	92.312823 
2701.352901  	92.294394 
2702.317326  	92.282263 
2703.281750  	92.279923 
2704.246175  	92.268455 
2705.210599  	92.258118 
2706.175024  	92.270748 
2707.139448  	92.289486 
2708.103872  	92.307532 
2709.068297  	92.316231 
2710.032721  	92.293229 
2710.997146  	92.268083 
2711.961570  	92.260190 
2712.925995  	92.267903 
2713.890419  	92.276712 
2714.854844  	92.269763 
2715.819268  	92.275223 
2716.783693  	92.295522 
2717.748117  	92.295931 
2718.712541  	92.286764 
2719.676966  	92.286773 
2720.641390  	92.285848 
2721.605815  	92.290121 
2722.570239  	92.279598 
2723.534664  	92.278215 
2724.499088  	92.253714 
2725.463513  	92.233876 
2726.427937  	92.241726 
2727.392362  	92.264838 
2728.356786  	92.251725 
2729.321210  	92.195212 
2730.285635  	92.182361 
2731.250059  	92.181308 
2732.214484  	92.149634 
2733.178908  	92.146277 
2734.143333  	92.172959 
2735.107757  	92.186170 
2736.072182  	92.213360 
2737.036606  	92.229893 
2738.001031  	92.211164 
2738.965455  	92.181407 
2739.929879  	92.182666 
2740.894304  	92.203279 
2741.858728  	92.205250 
2742.823153  	92.168020 
2743.787577  	92.151476 
2744.752002  	92.147952 
2745.716426  	92.116182 
2746.680851  	92.094030 
2747.645275  	92.113259 
2748.609700  	92.140711 
2749.574124  	92.134203 
2750.538549  	92.137558 
2751.502973  	92.126680 
2752.467397  	92.115649 
2753.431822  	92.121320 
2754.396246  	92.121753 
2755.360671  	92.137755 
2756.325095  	92.162177 
2757.289520  	92.138348 
2758.253944  	92.129115 
2759.218369  	92.128914 
2760.182793  	92.122330 
2761.147218  	92.123777 
2762.111642  	92.106167 
2763.076066  	92.100309 
2764.040491  	92.113907 
2765.004915  	92.106224 
2765.969340  	92.122562 
2766.933764  	92.140135 
2767.898189  	92.113885 
2768.862613  	92.088836 
2769.827038  	92.064940 
2770.791462  	92.057011 
2771.755887  	92.063888 
2772.720311  	92.067882 
2773.684735  	92.060654 
2774.649160  	92.053433 
2775.613584  	92.066101 
2776.578009  	92.061915 
2777.542433  	92.077412 
2778.506858  	92.060816 
2779.471282  	92.043472 
2780.435707  	92.035401 
2781.400131  	92.026662 
2782.364556  	92.017069 
2783.328980  	91.992785 
2784.293404  	91.971951 
2785.257829  	91.988756 
2786.222253  	91.997103 
2787.186678  	91.998444 
2788.151102  	91.985309 
2789.115527  	92.004695 
2790.079951  	91.991524 
2791.044376  	91.973889 
2792.008800  	91.938545 
2792.973225  	91.913154 
2793.937649  	91.930935 
2794.902073  	91.913076 
2795.866498  	91.900971 
2796.830922  	91.900238 
2797.795347  	91.902999 
2798.759771  	91.886625 
2799.724196  	91.844908 
2800.688620  	91.817202 
2801.653045  	91.814605 
2802.617469  	91.824670 
2803.581894  	91.860386 
2804.546318  	91.873081 
2805.510743  	91.863141 
2806.475167  	91.849403 
2807.439591  	91.807389 
2808.404016  	91.777108 
2809.368440  	91.814814 
2810.332865  	91.844811 
2811.297289  	91.795024 
2812.261714  	91.791709 
2813.226138  	91.818523 
2814.190563  	91.791311 
2815.154987  	91.796427 
2816.119412  	91.788293 
2817.083836  	91.751254 
2818.048260  	91.762573 
2819.012685  	91.796926 
2819.977109  	91.827689 
2820.941534  	91.819218 
2821.905958  	91.792060 
2822.870383  	91.762138 
2823.834807  	91.766220 
2824.799232  	91.766907 
2825.763656  	91.733930 
2826.728081  	91.704538 
2827.692505  	91.719969 
2828.656929  	91.738699 
2829.621354  	91.729032 
2830.585778  	91.689827 
2831.550203  	91.677240 
2832.514627  	91.651978 
2833.479052  	91.609935 
2834.443476  	91.590497 
2835.407901  	91.560851 
2836.372325  	91.529989 
2837.336750  	91.492768 
2838.301174  	91.433698 
2839.265598  	91.370376 
2840.230023  	91.320616 
2841.194447  	91.273542 
2842.158872  	91.182728 
2843.123296  	91.061149 
2844.087721  	90.942666 
2845.052145  	90.783210 
2846.016570  	90.577779 
2846.980994  	90.359013 
2847.945419  	90.102358 
2848.909843  	89.888545 
2849.874267  	89.802268 
2850.838692  	89.855075 
2851.803116  	89.989421 
2852.767541  	90.135227 
2853.731965  	90.292349 
2854.696390  	90.437157 
2855.660814  	90.587425 
2856.625239  	90.713786 
2857.589663  	90.745372 
2858.554088  	90.763988 
2859.518512  	90.820016 
2860.482936  	90.886286 
2861.447361  	90.888099 
2862.411785  	90.894241 
2863.376210  	90.942693 
2864.340634  	90.937332 
2865.305059  	90.920822 
2866.269483  	90.929874 
2867.233908  	90.911040 
2868.198332  	90.902579 
2869.162757  	90.896920 
2870.127181  	90.936628 
2871.091606  	90.918240 
2872.056030  	90.899134 
2873.020454  	90.927378 
2873.984879  	90.934425 
2874.949303  	90.871954 
2875.913728  	90.848415 
2876.878152  	90.859772 
2877.842577  	90.859561 
2878.807001  	90.822518 
2879.771426  	90.807617 
2880.735850  	90.775054 
2881.700275  	90.746511 
2882.664699  	90.738345 
2883.629123  	90.707887 
2884.593548  	90.657152 
2885.557972  	90.618797 
2886.522397  	90.585318 
2887.486821  	90.564574 
2888.451246  	90.518380 
2889.415670  	90.493874 
2890.380095  	90.475026 
2891.344519  	90.455629 
2892.308944  	90.418054 
2893.273368  	90.383547 
2894.237792  	90.364168 
2895.202217  	90.285817 
2896.166641  	90.276323 
2897.131066  	90.277906 
2898.095490  	90.225595 
2899.059915  	90.168784 
2900.024339  	90.100432 
2900.988764  	90.025987 
2901.953188  	89.945628 
2902.917613  	89.846917 
2903.882037  	89.754827 
2904.846461  	89.692722 
2905.810886  	89.614731 
2906.775310  	89.531456 
2907.739735  	89.462251 
2908.704159  	89.407775 
2909.668584  	89.389959 
2910.633008  	89.327812 
2911.597433  	89.255061 
2912.561857  	89.201988 
2913.526282  	89.133030 
2914.490706  	89.002840 
2915.455130  	88.858939 
2916.419555  	88.788882 
2917.383979  	88.777654 
2918.348404  	88.770114 
2919.312828  	88.855571 
2920.277253  	88.972982 
2921.241677  	89.064088 
2922.206102  	89.182507 
2923.170526  	89.311982 
2924.134951  	89.482516 
2925.099375  	89.609346 
2926.063800  	89.698176 
2927.028224  	89.781982 
2927.992648  	89.910006 
2928.957073  	90.037125 
2929.921497  	90.107210 
2930.885922  	90.151872 
2931.850346  	90.208651 
2932.814771  	90.260996 
2933.779195  	90.306508 
2934.743620  	90.361221 
2935.708044  	90.393678 
2936.672469  	90.402459 
2937.636893  	90.441761 
2938.601317  	90.472529 
2939.565742  	90.509891 
2940.530166  	90.496694 
2941.494591  	90.457218 
2942.459015  	90.421034 
2943.423440  	90.373491 
2944.387864  	90.325912 
2945.352289  	90.296779 
2946.316713  	90.286910 
2947.281138  	90.262890 
2948.245562  	90.217933 
2949.209986  	90.155675 
2950.174411  	90.080964 
2951.138835  	90.036532 
2952.103260  	89.957208 
2953.067684  	89.875305 
2954.032109  	89.789456 
2954.996533  	89.730790 
2955.960958  	89.688449 
2956.925382  	89.635991 
2957.889807  	89.567699 
2958.854231  	89.534752 
2959.818655  	89.501504 
2960.783080  	89.470170 
2961.747504  	89.432505 
2962.711929  	89.416831 
2963.676353  	89.396394 
2964.640778  	89.337347 
2965.605202  	89.265751 
2966.569627  	89.204191 
2967.534051  	89.232463 
2968.498476  	89.306023 
2969.462900  	89.279208 
2970.427324  	89.272715 
2971.391749  	89.321037 
2972.356173  	89.404440 
2973.320598  	89.510646 
2974.285022  	89.614279 
2975.249447  	89.627650 
2976.213871  	89.670603 
2977.178296  	89.788220 
2978.142720  	89.897026 
2979.107145  	90.008054 
2980.071569  	90.134378 
2981.035993  	90.188288 
2982.000418  	90.280506 
2982.964842  	90.398566 
2983.929267  	90.468032 
2984.893691  	90.546410 
2985.858116  	90.574384 
2986.822540  	90.608361 
2987.786965  	90.685724 
2988.751389  	90.717042 
2989.715814  	90.785114 
2990.680238  	90.867162 
2991.644663  	90.903678 
2992.609087  	90.929265 
2993.573511  	90.946355 
2994.537936  	90.933805 
2995.502360  	90.998348 
2996.466785  	91.033842 
2997.431209  	91.018308 
2998.395634  	91.033427 
2999.360058  	91.030161 
3000.324483  	91.045770 
3001.288907  	91.066870 
3002.253332  	91.038505 
3003.217756  	91.016293 
3004.182180  	91.028502 
3005.146605  	91.073205 
3006.111029  	91.143931 
3007.075454  	91.181733 
3008.039878  	91.188180 
3009.004303  	91.203701 
3009.968727  	91.183340 
3010.933152  	91.163023 
3011.897576  	91.159226 
3012.862001  	91.116234 
3013.826425  	91.204820 
3014.790849  	91.291305 
3015.755274  	91.286974 
3016.719698  	91.307349 
3017.684123  	91.346016 
3018.648547  	91.383930 
3019.612972  	91.381209 
3020.577396  	91.428636 
3021.541821  	91.475635 
3022.506245  	91.506062 
3023.470670  	91.563509 
3024.435094  	91.596092 
3025.399518  	91.559639 
3026.363943  	91.544038 
3027.328367  	91.623137 
3028.292792  	91.689255 
3029.257216  	91.727566 
3030.221641  	91.666643 
3031.186065  	91.534524 
3032.150490  	91.485721 
3033.114914  	91.584463 
3034.079339  	91.642154 
3035.043763  	91.654083 
3036.008187  	91.668548 
3036.972612  	91.690492 
3037.937036  	91.691320 
3038.901461  	91.685997 
3039.865885  	91.706657 
3040.830310  	91.702340 
3041.794734  	91.666374 
3042.759159  	91.658849 
3043.723583  	91.709997 
3044.688008  	91.661003 
3045.652432  	91.621693 
3046.616857  	91.578613 
3047.581281  	91.541729 
3048.545705  	91.460406 
3049.510130  	91.415191 
3050.474554  	91.400698 
3051.438979  	91.362191 
3052.403403  	91.330278 
3053.367828  	91.286818 
3054.332252  	91.222616 
3055.296677  	91.234275 
3056.261101  	91.198572 
3057.225526  	91.195547 
3058.189950  	91.321291 
3059.154374  	91.389290 
3060.118799  	91.416645 
3061.083223  	91.464303 
3062.047648  	91.465236 
3063.012072  	91.428631 
3063.976497  	91.374811 
3064.940921  	91.303046 
3065.905346  	91.319342 
3066.869770  	91.267294 
3067.834195  	91.276374 
3068.798619  	91.343720 
3069.763043  	91.370616 
3070.727468  	91.413828 
3071.691892  	91.411873 
3072.656317  	91.385464 
3073.620741  	91.411225 
3074.585166  	91.472449 
3075.549590  	91.470843 
3076.514015  	91.440552 
3077.478439  	91.423582 
3078.442864  	91.429083 
3079.407288  	91.420020 
3080.371712  	91.432433 
3081.336137  	91.423045 
3082.300561  	91.379306 
3083.264986  	91.449373 
3084.229410  	91.501066 
3085.193835  	91.504247 
3086.158259  	91.524478 
3087.122684  	91.461453 
3088.087108  	91.446715 
3089.051533  	91.492457 
3090.015957  	91.494320 
3090.980381  	91.525882 
3091.944806  	91.566631 
3092.909230  	91.572361 
3093.873655  	91.562653 
3094.838079  	91.547553 
3095.802504  	91.524892 
3096.766928  	91.557121 
3097.731353  	91.546879 
3098.695777  	91.506862 
3099.660202  	91.491605 
3100.624626  	91.480189 
3101.589050  	91.420164 
3102.553475  	91.416982 
3103.517899  	91.477440 
3104.482324  	91.560594 
3105.446748  	91.555074 
3106.411173  	91.523412 
3107.375597  	91.514300 
3108.340022  	91.553477 
3109.304446  	91.590507 
3110.268871  	91.534176 
3111.233295  	91.519184 
3112.197720  	91.522063 
3113.162144  	91.544837 
3114.126568  	91.578288 
3115.090993  	91.560171 
3116.055417  	91.524667 
3117.019842  	91.562468 
3117.984266  	91.566431 
3118.948691  	91.521664 
3119.913115  	91.628204 
3120.877540  	91.734407 
3121.841964  	91.632304 
3122.806389  	91.488854 
3123.770813  	91.551263 
3124.735237  	91.618698 
3125.699662  	91.593352 
3126.664086  	91.539373 
3127.628511  	91.562776 
3128.592935  	91.592703 
3129.557360  	91.575673 
3130.521784  	91.607195 
3131.486209  	91.658829 
3132.450633  	91.599590 
3133.415058  	91.546035 
3134.379482  	91.653078 
3135.343906  	91.696862 
3136.308331  	91.663458 
3137.272755  	91.622884 
3138.237180  	91.653741 
3139.201604  	91.720886 
3140.166029  	91.718584 
3141.130453  	91.714429 
3142.094878  	91.711763 
3143.059302  	91.666432 
3144.023727  	91.670427 
3144.988151  	91.673191 
3145.952575  	91.649307 
3146.917000  	91.626556 
3147.881424  	91.655972 
3148.845849  	91.723236 
3149.810273  	91.682191 
3150.774698  	91.665181 
3151.739122  	91.700097 
3152.703547  	91.697064 
3153.667971  	91.709883 
3154.632396  	91.763986 
3155.596820  	91.727033 
3156.561244  	91.665451 
3157.525669  	91.672585 
3158.490093  	91.690069 
3159.454518  	91.690915 
3160.418942  	91.677905 
3161.383367  	91.666424 
3162.347791  	91.659019 
3163.312216  	91.621266 
3164.276640  	91.636487 
3165.241065  	91.707469 
3166.205489  	91.752335 
3167.169914  	91.718555 
3168.134338  	91.616943 
3169.098762  	91.579017 
3170.063187  	91.561010 
3171.027611  	91.537824 
3171.992036  	91.575391 
3172.956460  	91.657354 
3173.920885  	91.607208 
3174.885309  	91.565308 
3175.849734  	91.602004 
3176.814158  	91.570485 
3177.778583  	91.453988 
3178.743007  	91.416467 
3179.707431  	91.514523 
3180.671856  	91.607289 
3181.636280  	91.652918 
3182.600705  	91.634493 
3183.565129  	91.587006 
3184.529554  	91.537210 
3185.493978  	91.493812 
3186.458403  	91.542062 
3187.422827  	91.565011 
3188.387252  	91.562116 
3189.351676  	91.620714 
3190.316100  	91.647316 
3191.280525  	91.615882 
3192.244949  	91.582075 
3193.209374  	91.550843 
3194.173798  	91.516219 
3195.138223  	91.547544 
3196.102647  	91.532794 
3197.067072  	91.456985 
3198.031496  	91.388596 
3198.995921  	91.507998 
3199.960345  	91.559430 
3200.924769  	91.548483 
3201.889194  	91.583527 
3202.853618  	91.597963 
3203.818043  	91.571545 
3204.782467  	91.514207 
3205.746892  	91.436742 
3206.711316  	91.408300 
3207.675741  	91.462352 
3208.640165  	91.497245 
3209.604590  	91.448617 
3210.569014  	91.413860 
3211.533438  	91.472830 
3212.497863  	91.498185 
3213.462287  	91.458183 
3214.426712  	91.362539 
3215.391136  	91.371887 
3216.355561  	91.377185 
3217.319985  	91.414035 
3218.284410  	91.427178 
3219.248834  	91.366923 
3220.213259  	91.363121 
3221.177683  	91.438612 
3222.142107  	91.472897 
3223.106532  	91.490668 
3224.070956  	91.452863 
3225.035381  	91.430534 
3225.999805  	91.440477 
3226.964230  	91.426392 
3227.928654  	91.395887 
3228.893079  	91.411320 
3229.857503  	91.403899 
3230.821928  	91.370129 
3231.786352  	91.381127 
3232.750777  	91.362427 
3233.715201  	91.355415 
3234.679625  	91.347486 
3235.644050  	91.358982 
3236.608474  	91.393139 
3237.572899  	91.395798 
3238.537323  	91.404715 
3239.501748  	91.333219 
3240.466172  	91.266762 
3241.430597  	91.298819 
3242.395021  	91.352448 
3243.359446  	91.345509 
3244.323870  	91.277282 
3245.288294  	91.162173 
3246.252719  	91.197383 
3247.217143  	91.288508 
3248.181568  	91.306762 
3249.145992  	91.271314 
3250.110417  	91.304531 
3251.074841  	91.318194 
3252.039266  	91.303952 
3253.003690  	91.351179 
3253.968115  	91.301111 
3254.932539  	91.214203 
3255.896963  	91.183449 
3256.861388  	91.172713 
3257.825812  	91.226364 
3258.790237  	91.207938 
3259.754661  	91.196403 
3260.719086  	91.197207 
3261.683510  	91.224459 
3262.647935  	91.233433 
3263.612359  	91.235483 
3264.576784  	91.216657 
3265.541208  	91.147093 
3266.505632  	91.169112 
3267.470057  	91.172609 
3268.434481  	91.166266 
3269.398906  	91.189818 
3270.363330  	91.182482 
3271.327755  	91.192774 
3272.292179  	91.154317 
3273.256604  	91.097320 
3274.221028  	91.112548 
3275.185453  	91.167812 
3276.149877  	91.096414 
3277.114301  	91.043009 
3278.078726  	91.113033 
3279.043150  	91.086787 
3280.007575  	91.060440 
3280.971999  	91.063523 
3281.936424  	91.055688 
3282.900848  	91.037838 
3283.865273  	91.004085 
3284.829697  	91.041767 
3285.794122  	91.046438 
3286.758546  	91.065088 
3287.722971  	91.098367 
3288.687395  	91.090317 
3289.651819  	91.134477 
3290.616244  	91.137291 
3291.580668  	91.042353 
3292.545093  	91.006162 
3293.509517  	91.043755 
3294.473942  	91.066925 
3295.438366  	91.053684 
3296.402791  	91.064933 
3297.367215  	91.027005 
3298.331640  	91.001188 
3299.296064  	91.038635 
3300.260488  	91.036721 
3301.224913  	91.066949 
3302.189337  	91.112660 
3303.153762  	91.073079 
3304.118186  	91.031012 
3305.082611  	91.046070 
3306.047035  	91.093891 
3307.011460  	91.168815 
3307.975884  	91.093198 
3308.940309  	90.976352 
3309.904733  	91.037197 
3310.869157  	91.006282 
3311.833582  	90.929346 
3312.798006  	90.976477 
3313.762431  	91.066000 
3314.726855  	91.150286 
3315.691280  	91.142536 
3316.655704  	91.094086 
3317.620129  	91.058696 
3318.584553  	91.059565 
3319.548978  	91.059061 
3320.513402  	91.052816 
3321.477826  	91.057945 
3322.442251  	91.040953 
3323.406675  	91.079087 
3324.371100  	91.132696 
3325.335524  	91.067677 
3326.299949  	91.018724 
3327.264373  	90.958438 
3328.228798  	90.978481 
3329.193222  	91.007055 
3330.157647  	90.986732 
3331.122071  	91.000675 
3332.086495  	91.056578 
3333.050920  	91.045043 
3334.015344  	90.914092 
3334.979769  	90.840619 
3335.944193  	90.862370 
3336.908618  	90.785432 
3337.873042  	90.845255 
3338.837467  	90.975418 
3339.801891  	90.961905 
3340.766316  	90.973986 
3341.730740  	90.972393 
3342.695164  	90.959535 
3343.659589  	91.030651 
3344.624013  	91.143560 
3345.588438  	91.158715 
3346.552862  	91.116413 
3347.517287  	91.084842 
3348.481711  	91.080313 
3349.446136  	91.097594 
3350.410560  	91.133128 
3351.374985  	91.233275 
3352.339409  	91.229102 
3353.303834  	91.173477 
3354.268258  	91.205269 
3355.232682  	91.142558 
3356.197107  	91.016760 
3357.161531  	91.050193 
3358.125956  	91.140255 
3359.090380  	91.179314 
3360.054805  	91.127087 
3361.019229  	91.111856 
3361.983654  	91.075655 
3362.948078  	91.092124 
3363.912503  	91.139488 
3364.876927  	91.077641 
3365.841351  	91.081367 
3366.805776  	91.175393 
3367.770200  	91.138628 
3368.734625  	91.064378 
3369.699049  	91.142193 
3370.663474  	91.300080 
3371.627898  	91.321688 
3372.592323  	91.243013 
3373.556747  	91.184295 
3374.521172  	91.195305 
3375.485596  	91.208428 
3376.450020  	91.233843 
3377.414445  	91.231534 
3378.378869  	91.211421 
3379.343294  	91.255203 
3380.307718  	91.249569 
3381.272143  	91.244559 
3382.236567  	91.246069 
3383.200992  	91.206740 
3384.165416  	91.135552 
3385.129841  	91.084721 
3386.094265  	91.125577 
3387.058689  	91.226703 
3388.023114  	91.319924 
3388.987538  	91.336270 
3389.951963  	91.321101 
3390.916387  	91.261105 
3391.880812  	91.150899 
3392.845236  	90.898993 
3393.809661  	90.984643 
3394.774085  	91.226100 
3395.738510  	91.181577 
3396.702934  	91.058027 
3397.667358  	90.988099 
3398.631783  	91.175309 
3399.596207  	91.300309 
3400.560632  	91.210046 
3401.525056  	91.141301 
3402.489481  	91.203878 
3403.453905  	91.154593 
3404.418330  	91.139945 
3405.382754  	91.168625 
3406.347179  	91.160635 
3407.311603  	91.189039 
3408.276028  	91.194498 
3409.240452  	91.105526 
3410.204876  	91.067529 
3411.169301  	91.061363 
3412.133725  	91.107325 
3413.098150  	91.177007 
3414.062574  	91.111785 
3415.026999  	91.030047 
3415.991423  	90.988416 
3416.955848  	90.996132 
3417.920272  	90.991424 
3418.884697  	90.953107 
3419.849121  	90.699430 
3420.813545  	90.392301 
3421.777970  	90.412407 
3422.742394  	90.538037 
3423.706819  	90.654145 
3424.671243  	90.776422 
3425.635668  	90.818148 
3426.600092  	90.781099 
3427.564517  	90.745612 
3428.528941  	90.778102 
3429.493366  	90.765125 
3430.457790  	90.685293 
3431.422214  	90.703591 
3432.386639  	90.804108 
3433.351063  	90.894283 
3434.315488  	90.951185 
3435.279912  	90.905068 
3436.244337  	90.916415 
3437.208761  	90.953003 
3438.173186  	90.922456 
3439.137610  	90.894210 
3440.102035  	90.944682 
3441.066459  	90.918446 
3442.030883  	90.798522 
3442.995308  	90.586413 
3443.959732  	90.801832 
3444.924157  	91.002955 
3445.888581  	90.951092 
3446.853006  	90.406596 
3447.817430  	90.137861 
3448.781855  	90.737935 
3449.746279  	91.019448 
3450.710704  	91.133462 
3451.675128  	91.176395 
3452.639552  	91.160971 
3453.603977  	91.130803 
3454.568401  	91.126632 
3455.532826  	91.108662 
3456.497250  	91.124799 
3457.461675  	91.144446 
3458.426099  	91.146682 
3459.390524  	91.129745 
3460.354948  	91.159489 
3461.319373  	91.072276 
3462.283797  	91.041426 
3463.248221  	91.053946 
3464.212646  	91.209583 
3465.177070  	91.278191 
3466.141495  	91.211901 
3467.105919  	91.040924 
3468.070344  	91.216611 
3469.034768  	91.370523 
3469.999193  	91.292770 
3470.963617  	91.251554 
3471.928042  	91.327762 
3472.892466  	91.356873 
3473.856891  	91.303716 
3474.821315  	91.143617 
3475.785739  	91.218885 
3476.750164  	91.369419 
3477.714588  	91.333444 
3478.679013  	91.338469 
3479.643437  	91.341101 
3480.607862  	91.024114 
3481.572286  	90.828349 
3482.536711  	90.731994 
3483.501135  	91.026657 
3484.465560  	91.263821 
3485.429984  	91.261984 
3486.394408  	91.320441 
3487.358833  	91.280526 
3488.323257  	90.946343 
3489.287682  	91.024486 
3490.252106  	91.307740 
3491.216531  	91.350090 
3492.180955  	91.428812 
3493.145380  	91.507350 
3494.109804  	91.510152 
3495.074229  	91.350670 
3496.038653  	91.106600 
3497.003077  	90.993499 
3497.967502  	91.173126 
3498.931926  	91.298619 
3499.896351  	91.227047 
3500.860775  	91.121664 
3501.825200  	90.785249 
3502.789624  	90.321590 
3503.754049  	90.251908 
3504.718473  	90.669225 
3505.682898  	91.029287 
3506.647322  	91.334575 
3507.611746  	91.470273 
3508.576171  	91.161001 
3509.540595  	90.434420 
3510.505020  	90.596136 
3511.469444  	91.098927 
3512.433869  	91.191294 
3513.398293  	91.220004 
3514.362718  	91.363107 
3515.327142  	91.531881 
3516.291567  	91.505716 
3517.255991  	91.353941 
3518.220415  	91.255793 
3519.184840  	91.207160 
3520.149264  	91.253568 
3521.113689  	91.398779 
3522.078113  	91.207659 
3523.042538  	90.430224 
3524.006962  	90.016129 
3524.971387  	90.335229 
3525.935811  	90.511789 
3526.900236  	90.444661 
3527.864660  	90.292275 
3528.829085  	90.386573 
3529.793509  	90.592610 
3530.757933  	90.877196 
3531.722358  	90.912288 
3532.686782  	91.155829 
3533.651207  	91.373824 
3534.615631  	91.400403 
3535.580056  	91.038452 
3536.544480  	90.396686 
3537.508905  	90.616633 
3538.473329  	91.197015 
3539.437754  	91.265242 
3540.402178  	91.287476 
3541.366602  	91.284707 
3542.331027  	91.247901 
3543.295451  	90.925746 
3544.259876  	90.515618 
3545.224300  	89.664919 
3546.188725  	89.439475 
3547.153149  	89.490553 
3548.117574  	90.009881 
3549.081998  	90.833289 
3550.046423  	91.103399 
3551.010847  	91.070031 
3551.975271  	90.490004 
3552.939696  	90.193822 
3553.904120  	90.534735 
3554.868545  	90.973037 
3555.832969  	91.358009 
3556.797394  	91.230274 
3557.761818  	91.224993 
3558.726243  	91.349641 
3559.690667  	90.942473 
3560.655092  	90.469208 
3561.619516  	90.861048 
3562.583940  	90.833159 
3563.548365  	90.645232 
3564.512789  	90.606263 
3565.477214  	89.855413 
3566.441638  	87.749356 
3567.406063  	87.564474 
3568.370487  	87.869823 
3569.334912  	89.417629 
3570.299336  	90.582531 
3571.263761  	90.793789 
3572.228185  	91.219544 
3573.192609  	91.275798 
3574.157034  	91.130044 
3575.121458  	91.101303 
3576.085883  	91.211089 
3577.050307  	91.079062 
3578.014732  	91.140528 
3578.979156  	91.251186 
3579.943581  	90.829699 
3580.908005  	90.796476 
3581.872430  	91.207313 
3582.836854  	91.219719 
3583.801278  	91.075422 
3584.765703  	91.098115 
3585.730127  	90.687498 
3586.694552  	89.158048 
3587.658976  	88.300175 
3588.623401  	88.436075 
3589.587825  	89.443115 
3590.552250  	90.846736 
3591.516674  	91.250876 
3592.481099  	91.161700 
3593.445523  	90.467033 
3594.409948  	90.444203 
3595.374372  	89.939986 
3596.338796  	89.835966 
3597.303221  	90.763262 
3598.267645  	90.852809 
3599.232070  	90.577691 
3600.196494  	90.611756 
3601.160919  	90.283039 
3602.125343  	90.604522 
3603.089768  	90.892995 
3604.054192  	91.211088 
3605.018617  	91.373476 
3605.983041  	91.168347 
3606.947465  	90.091426 
3607.911890  	89.595669 
3608.876314  	89.704662 
3609.840739  	89.421672 
3610.805163  	90.561602 
3611.769588  	90.528831 
3612.734012  	89.291880 
3613.698437  	89.338491 
3614.662861  	89.465348 
3615.627286  	89.643229 
3616.591710  	90.722771 
3617.556134  	90.126206 
3618.520559  	89.246413 
3619.484983  	89.146782 
3620.449408  	89.255553 
3621.413832  	89.947441 
3622.378257  	90.651152 
3623.342681  	91.131858 
3624.307106  	91.311156 
3625.271530  	91.266858 
3626.235955  	90.782754 
3627.200379  	90.492637 
3628.164803  	89.480649 
3629.129228  	86.792607 
3630.093652  	87.495893 
3631.058077  	89.745253 
3632.022501  	90.692835 
3632.986926  	90.804829 
3633.951350  	90.134855 
3634.915775  	90.491665 
3635.880199  	91.137190 
3636.844624  	91.221330 
3637.809048  	91.045316 
3638.773472  	91.022840 
3639.737897  	91.335999 
3640.702321  	91.417859 
3641.666746  	91.049514 
3642.631170  	90.520503 
3643.595595  	90.822243 
3644.560019  	91.281456 
3645.524444  	91.020208 
3646.488868  	89.869675 
3647.453293  	88.129536 
3648.417717  	88.389992 
3649.382142  	88.132516 
3650.346566  	87.262908 
3651.310990  	87.418755 
3652.275415  	89.511436 
3653.239839  	90.865338 
3654.204264  	91.279853 
3655.168688  	91.164865 
3656.133113  	90.163226 
3657.097537  	89.983556 
3658.061962  	91.085376 
3659.026386  	91.288763 
3659.990811  	91.237065 
3660.955235  	91.456060 
3661.919659  	91.651064 
3662.884084  	91.642318 
3663.848508  	91.671130 
3664.812933  	91.614477 
3665.777357  	91.651008 
3666.741782  	91.740841 
3667.706206  	91.652001 
3668.670631  	90.721000 
3669.635055  	89.592808 
3670.599480  	88.704874 
3671.563904  	89.236848 
3672.528328  	90.989611 
3673.492753  	91.272302 
3674.457177  	90.032888 
3675.421602  	87.183980 
3676.386026  	87.815381 
3677.350451  	89.679264 
3678.314875  	90.350152 
3679.279300  	90.329052 
3680.243724  	90.513078 
3681.208149  	91.371058 
3682.172573  	91.683457 
3683.136997  	91.679289 
3684.101422  	91.564999 
3685.065846  	91.471972 
3686.030271  	91.642607 
3686.994695  	91.477664 
3687.959120  	90.563899 
3688.923544  	89.606652 
3689.887969  	90.162212 
3690.852393  	89.469752 
3691.816818  	89.423947 
3692.781242  	91.057256 
3693.745666  	91.433949 
3694.710091  	91.575595 
3695.674515  	91.736564 
3696.638940  	91.574789 
3697.603364  	91.599403 
3698.567789  	91.801100 
3699.532213  	91.790083 
3700.496638  	91.730386 
3701.461062  	90.878354 
3702.425487  	90.333949 
3703.389911  	91.363928 
3704.354335  	91.766940 
3705.318760  	91.672634 
3706.283184  	91.710944 
3707.247609  	91.838893 
3708.212033  	91.728302 
3709.176458  	91.031699 
3710.140882  	90.502233 
3711.105307  	90.121597 
3712.069731  	88.832154 
3713.034156  	89.174611 
3713.998580  	90.655225 
3714.963005  	90.677860 
3715.927429  	91.024903 
3716.891853  	91.739935 
3717.856278  	91.834968 
3718.820702  	91.115144 
3719.785127  	90.858362 
3720.749551  	91.481262 
3721.713976  	90.975405 
3722.678400  	89.676140 
3723.642825  	90.426652 
3724.607249  	90.724007 
3725.571674  	90.022207 
3726.536098  	89.772125 
3727.500522  	90.007909 
3728.464947  	91.012201 
3729.429371  	91.634823 
3730.393796  	91.557866 
3731.358220  	91.093881 
3732.322645  	90.311575 
3733.287069  	90.567250 
3734.251494  	89.812556 
3735.215918  	86.632578 
3736.180343  	87.000121 
3737.144767  	88.632460 
3738.109191  	89.678735 
3739.073616  	90.141177 
3740.038040  	90.722043 
3741.002465  	90.345041 
3741.966889  	90.615551 
3742.931314  	91.167106 
3743.895738  	89.971448 
3744.860163  	86.503309 
3745.824587  	89.184144 
3746.789012  	90.144981 
3747.753436  	90.121406 
3748.717860  	89.962697 
3749.682285  	89.542296 
3750.646709  	89.547988 
3751.611134  	88.857618 
3752.575558  	87.599213 
3753.539983  	89.498457 
3754.504407  	90.563220 
3755.468832  	91.126275 
3756.433256  	90.837890 
3757.397681  	90.848815 
3758.362105  	91.104466 
3759.326529  	90.074514 
3760.290954  	89.609049 
3761.255378  	91.109057 
3762.219803  	91.464882 
3763.184227  	91.568778 
3764.148652  	91.654484 
3765.113076  	91.222294 
3766.077501  	90.382487 
3767.041925  	91.138520 
3768.006350  	91.654632 
3768.970774  	91.340318 
3769.935199  	90.320956 
3770.899623  	90.489027 
3771.864047  	91.252731 
3772.828472  	91.584766 
3773.792896  	91.761025 
3774.757321  	91.885949 
3775.721745  	91.970708 
3776.686170  	92.030035 
3777.650594  	91.946605 
3778.615019  	91.509379 
3779.579443  	90.645309 
3780.543868  	90.881906 
3781.508292  	91.646064 
3782.472716  	91.704700 
3783.437141  	91.773118 
3784.401565  	91.433928 
3785.365990  	90.970621 
3786.330414  	91.313256 
3787.294839  	91.650445 
3788.259263  	91.863481 
3789.223688  	91.918285 
3790.188112  	91.915715 
3791.152537  	91.960057 
3792.116961  	91.950847 
3793.081385  	92.012702 
3794.045810  	92.090090 
3795.010234  	91.919208 
3795.974659  	91.249227 
3796.939083  	90.416179 
3797.903508  	90.763434 
3798.867932  	91.300711 
3799.832357  	91.443710 
3800.796781  	90.429889 
3801.761206  	88.913738 
3802.725630  	89.439495 
3803.690054  	90.454498 
3804.654479  	91.396725 
3805.618903  	91.557848 
3806.583328  	90.809579 
3807.547752  	90.187411 
3808.512177  	91.265694 
3809.476601  	91.607435 
3810.441026  	91.657742 
3811.405450  	91.808901 
3812.369875  	91.915274 
3813.334299  	91.957764 
3814.298723  	91.889690 
3815.263148  	91.227900 
3816.227572  	89.630620 
3817.191997  	90.280091 
3818.156421  	91.169046 
3819.120846  	91.106921 
3820.085270  	90.466114 
3821.049695  	88.858373 
3822.014119  	88.720465 
3822.978544  	90.368801 
3823.942968  	90.952881 
3824.907392  	91.269218 
3825.871817  	91.292595 
3826.836241  	90.709588 
3827.800666  	90.780338 
3828.765090  	91.409757 
3829.729515  	91.726369 
3830.693939  	91.582967 
3831.658364  	90.823378 
3832.622788  	90.989858 
3833.587213  	91.556408 
3834.551637  	91.010218 
3835.516062  	90.421373 
3836.480486  	91.052149 
3837.444910  	90.476228 
3838.409335  	89.465979 
3839.373759  	90.018711 
3840.338184  	89.319968 
3841.302608  	89.491664 
3842.267033  	90.945486 
3843.231457  	90.877815 
3844.195882  	90.076920 
3845.160306  	91.007493 
3846.124731  	91.558265 
3847.089155  	91.699721 
3848.053579  	91.779103 
3849.018004  	91.558599 
3849.982428  	91.109548 
3850.946853  	91.123224 
3851.911277  	90.298076 
3852.875702  	88.791346 
3853.840126  	87.830759 
3854.804551  	88.183736 
3855.768975  	90.333739 
3856.733400  	90.296025 
3857.697824  	89.883003 
3858.662248  	91.066123 
3859.626673  	91.726240 
3860.591097  	91.647442 
3861.555522  	90.953186 
3862.519946  	90.511844 
3863.484371  	90.897572 
3864.448795  	89.961583 
3865.413220  	88.867018 
3866.377644  	90.437034 
3867.342069  	91.461567 
3868.306493  	91.408257 
3869.270917  	90.097665 
3870.235342  	88.122965 
3871.199766  	89.468458 
3872.164191  	90.753716 
3873.128615  	91.049891 
3874.093040  	89.747258 
3875.057464  	89.868259 
3876.021889  	91.407039 
3876.986313  	91.699906 
3877.950738  	91.867867 
3878.915162  	91.869670 
3879.879586  	90.780922 
3880.844011  	88.908056 
3881.808435  	90.175262 
3882.772860  	91.055144 
3883.737284  	90.821245 
3884.701709  	90.871857 
3885.666133  	89.951308 
3886.630558  	89.673851 
3887.594982  	91.197403 
3888.559407  	91.647861 
3889.523831  	91.739679 
3890.488256  	91.313799 
3891.452680  	90.029268 
3892.417104  	90.068710 
3893.381529  	90.929784 
3894.345953  	90.862169 
3895.310378  	91.281807 
3896.274802  	91.801095 
3897.239227  	91.808410 
3898.203651  	91.096864 
3899.168076  	89.999340 
3900.132500  	89.990660 
3901.096925  	90.609773 
3902.061349  	89.232635 
3903.025773  	89.388669 
3903.990198  	89.743338 
3904.954622  	89.268861 
3905.919047  	89.706595 
3906.883471  	90.517294 
3907.847896  	91.524763 
3908.812320  	91.845206 
3909.776745  	91.927705 
3910.741169  	91.974868 
3911.705594  	91.940864 
3912.670018  	91.872354 
3913.634442  	91.893267 
3914.598867  	91.967516 
3915.563291  	91.797630 
3916.527716  	90.740582 
3917.492140  	89.931365 
3918.456565  	90.965549 
3919.420989  	91.246253 
3920.385414  	90.541327 
3921.349838  	91.158667 
3922.314263  	91.833565 
3923.278687  	91.478571 
3924.243111  	90.599672 
3925.207536  	90.105431 
3926.171960  	90.903463 
3927.136385  	91.755410 
3928.100809  	91.799166 
3929.065234  	91.610678 
3930.029658  	91.286131 
3930.994083  	91.065386 
3931.958507  	90.575231 
3932.922932  	90.186469 
3933.887356  	91.014541 
3934.851780  	91.438340 
3935.816205  	91.774052 
3936.780629  	91.966856 
3937.745054  	91.865690 
3938.709478  	91.640430 
3939.673903  	91.841468 
3940.638327  	91.977872 
3941.602752  	91.786217 
3942.567176  	90.797874 
3943.531601  	90.317133 
3944.496025  	91.201203 
3945.460449  	91.660729 
3946.424874  	91.730671 
3947.389298  	91.123836 
3948.353723  	90.770933 
3949.318147  	91.011839 
3950.282572  	90.731042 
3951.246996  	91.193717 
3952.211421  	91.761206 
3953.175845  	91.643851 
3954.140270  	91.735875 
3955.104694  	91.847621 
3956.069119  	91.784731 
3957.033543  	91.615069 
3957.997967  	91.634013 
3958.962392  	91.746110 
3959.926816  	91.785416 
3960.891241  	91.699815 
3961.855665  	91.278185 
3962.820090  	91.282227 
3963.784514  	91.788262 
3964.748939  	91.827988 
3965.713363  	91.898455 
3966.677788  	92.008371 
3967.642212  	92.020425 
3968.606636  	91.795818 
3969.571061  	91.591311 
3970.535485  	91.786318 
3971.499910  	91.857900 
3972.464334  	91.643393 
3973.428759  	91.722787 
3974.393183  	91.793488 
3975.357608  	91.636454 
3976.322032  	91.521733 
3977.286457  	91.733555 
3978.250881  	91.951995 
3979.215305  	91.924304 
3980.179730  	91.909209 
3981.144154  	91.897822 
3982.108579  	91.793490 
3983.073003  	91.805947 
3984.037428  	91.951552 
3985.001852  	91.971539 
3985.966277  	91.906474 
3986.930701  	91.958900 
3987.895126  	91.998866 
3988.859550  	91.950851 
3989.823974  	91.844659 
3990.788399  	91.624226 
3991.752823  	91.699954 
3992.717248  	91.852880 
3993.681672  	91.853870 
3994.646097  	91.761467 
3995.610521  	91.673024 
3996.574946  	91.868023 
3997.539370  	91.992416 
3998.503795  	92.023230 
3999.468219  	92.013449 
4000.432643  	92.038819 
4001.397068  	92.028321 
4002.361492  	91.989146 
4003.325917  	91.914757 
4004.290341  	91.959129 
4005.254766  	91.983893 
4006.219190  	91.949427 
4007.183615  	91.898799 
4008.148039  	91.794833 
4009.112464  	91.699015 
4010.076888  	91.832263 
4011.041313  	91.913085 
4012.005737  	91.965372 
4012.970161  	91.942916 
4013.934586  	91.938958 
4014.899010  	91.940711 
4015.863435  	91.930619 
4016.827859  	91.907422 
4017.792284  	91.914887 
4018.756708  	91.949818 
4019.721133  	91.855096 
4020.685557  	91.821562 
4021.649982  	91.924750 
4022.614406  	92.003528 
4023.578830  	91.998079 
4024.543255  	91.890299 
4025.507679  	91.785891 
4026.472104  	91.865983 
4027.436528  	91.984724 
4028.400953  	91.949178 
4029.365377  	91.895605 
4030.329802  	91.936464 
4031.294226  	91.988067 
4032.258651  	91.959318 
4033.223075  	91.982844 
4034.187499  	91.988962 
4035.151924  	91.936051 
4036.116348  	91.891012 
4037.080773  	91.921397 
4038.045197  	91.997107 
4039.009622  	91.997413 
4039.974046  	91.941062 
4040.938471  	91.969499 
4041.902895  	91.951540 
4042.867320  	91.950142 
4043.831744  	91.879914 
4044.796168  	91.757789 
4045.760593  	91.764039 
4046.725017  	91.897964 
4047.689442  	91.931004 
4048.653866  	91.919993 
4049.618291  	91.931437 
4050.582715  	91.969768 
4051.547140  	91.952560 
4052.511564  	91.938726 
4053.475989  	91.908400 
4054.440413  	91.881070 
4055.404837  	91.845174 
4056.369262  	91.866473 
4057.333686  	91.930475 
4058.298111  	91.959216 
4059.262535  	91.941030 
4060.226960  	91.908194 
4061.191384  	91.891821 
4062.155809  	91.945280 
4063.120233  	91.962475 
4064.084658  	91.977088 
4065.049082  	91.984734 
4066.013506  	91.990108 
4066.977931  	91.962268 
4067.942355  	91.902702 
4068.906780  	91.880742 
4069.871204  	91.927186 
4070.835629  	91.918774 
4071.800053  	91.912119 
4072.764478  	91.884266 
4073.728902  	91.880659 
4074.693327  	91.892635 
4075.657751  	91.919458 
4076.622176  	91.888402 
4077.586600  	91.876892 
4078.551024  	91.884829 
4079.515449  	91.843195 
4080.479873  	91.864927 
4081.444298  	91.918960 
4082.408722  	91.859051 
4083.373147  	91.801602 
4084.337571  	91.803524 
4085.301996  	91.805043 
4086.266420  	91.788035 
4087.230845  	91.803045 
4088.195269  	91.764260 
4089.159693  	91.777015 
4090.124118  	91.856037 
4091.088542  	91.890091 
4092.052967  	91.879452 
4093.017391  	91.913171 
4093.981816  	91.863102 
4094.946240  	91.814126 
4095.910665  	91.844644 
4096.875089  	91.939121 
4097.839514  	91.915852 
4098.803938  	91.811440 
4099.768362  	91.857848 
4100.732787  	91.925356 
4101.697211  	91.924221 
4102.661636  	91.918975 
4103.626060  	91.917673 
4104.590485  	91.883107 
4105.554909  	91.795311 
4106.519334  	91.771058 
4107.483758  	91.789154 
4108.448183  	91.841461 
4109.412607  	91.876307 
4110.377031  	91.883563 
4111.341456  	91.959581 
4112.305880  	91.944329 
4113.270305  	91.876059 
4114.234729  	91.908554 
4115.199154  	91.965138 
4116.163578  	91.924544 
4117.128003  	91.864828 
4118.092427  	91.865161 
4119.056852  	91.867363 
4120.021276  	91.848838 
4120.985700  	91.870264 
4121.950125  	91.928481 
4122.914549  	91.906123 
4123.878974  	91.910849 
4124.843398  	91.949837 
4125.807823  	91.962213 
4126.772247  	91.918523 
4127.736672  	91.924076 
4128.701096  	91.954349 
4129.665521  	91.976031 
4130.629945  	91.947458 
4131.594370  	91.939280 
4132.558794  	91.940441 
4133.523218  	91.902269 
4134.487643  	91.903553 
4135.452067  	91.915214 
4136.416492  	91.916818 
4137.380916  	91.948941 
4138.345341  	91.911093 
4139.309765  	91.855598 
4140.274190  	91.922911 
4141.238614  	91.940917 
4142.203039  	91.900555 
4143.167463  	91.983347 
4144.131887  	91.937176 
4145.096312  	91.941317 
4146.060736  	91.968642 
4147.025161  	91.928512 
4147.989585  	91.913493 
4148.954010  	91.894902 
4149.918434  	91.891485 
4150.882859  	91.954307 
4151.847283  	91.964812 
4152.811708  	91.931237 
4153.776132  	91.920414 
4154.740556  	91.960878 
4155.704981  	91.946266 
4156.669405  	91.913534 
4157.633830  	91.923819 
4158.598254  	91.964450 
4159.562679  	91.900630 
4160.527103  	91.827442 
4161.491528  	91.852427 
4162.455952  	91.913111 
4163.420377  	91.928445 
4164.384801  	91.959776 
4165.349225  	91.941002 
4166.313650  	91.926749 
4167.278074  	91.895040 
4168.242499  	91.898617 
4169.206923  	91.933773 
4170.171348  	91.963868 
4171.135772  	91.967596 
4172.100197  	91.938227 
4173.064621  	91.913631 
4174.029046  	91.943231 
4174.993470  	91.961094 
4175.957894  	91.935636 
4176.922319  	91.942606 
4177.886743  	91.962598 
4178.851168  	91.929927 
4179.815592  	91.895860 
4180.780017  	91.887608 
4181.744441  	91.903774 
4182.708866  	91.926669 
4183.673290  	91.976660 
4184.637715  	92.012292 
4185.602139  	91.970488 
4186.566563  	91.833974 
4187.530988  	91.832090 
4188.495412  	91.961337 
4189.459837  	91.994901 
4190.424261  	91.935962 
4191.388686  	91.931344 
4192.353110  	91.975213 
4193.317535  	91.964785 
4194.281959  	91.940627 
4195.246384  	91.926045 
4196.210808  	91.915103 
4197.175233  	91.904662 
4198.139657  	91.875340 
4199.104081  	91.899058 
4200.068506  	91.938830 
4201.032930  	91.981846 
4201.997355  	92.020477 
4202.961779  	91.993614 
4203.926204  	91.908711 
4204.890628  	91.876351 
4205.855053  	91.909937 
4206.819477  	91.944009 
4207.783902  	91.941399 
4208.748326  	91.911438 
4209.712750  	91.968891 
4210.677175  	92.040395 
4211.641599  	91.986266 
4212.606024  	91.949207 
4213.570448  	91.973727 
4214.534873  	91.940663 
4215.499297  	91.891624 
4216.463722  	91.931546 
4217.428146  	91.888162 
4218.392571  	91.863267 
4219.356995  	91.885035 
4220.321419  	91.915908 
4221.285844  	91.976900 
4222.250268  	91.993551 
4223.214693  	91.888942 
4224.179117  	91.822532 
4225.143542  	91.859087 
4226.107966  	91.963711 
4227.072391  	92.033727 
4228.036815  	91.992278 
4229.001240  	91.962370 
4229.965664  	91.963460 
4230.930088  	91.931318 
4231.894513  	91.929434 
4232.858937  	91.960263 
4233.823362  	92.000773 
4234.787786  	92.004842 
4235.752211  	91.955262 
4236.716635  	91.949809 
4237.681060  	91.985064 
4238.645484  	91.962284 
4239.609909  	91.911320 
4240.574333  	91.884946 
4241.538757  	91.940911 
4242.503182  	91.979335 
4243.467606  	91.951778 
4244.432031  	91.853051 
4245.396455  	91.829951 
4246.360880  	91.913401 
4247.325304  	91.986958 
4248.289729  	91.990892 
4249.254153  	91.980457 
4250.218578  	91.982372 
4251.183002  	91.986262 
4252.147427  	91.952412 
4253.111851  	91.914367 
4254.076275  	91.883507 
4255.040700  	91.897501 
4256.005124  	91.909950 
4256.969549  	92.006916 
4257.933973  	92.024990 
4258.898398  	91.969646 
4259.862822  	91.924495 
4260.827247  	91.918284 
4261.791671  	91.919074 
4262.756096  	91.917499 
4263.720520  	91.928436 
4264.684944  	91.931538 
4265.649369  	91.923038 
4266.613793  	91.974983 
4267.578218  	91.920616 
4268.542642  	91.892685 
4269.507067  	91.868633 
4270.471491  	91.868299 
4271.435916  	91.914548 
4272.400340  	91.886134 
4273.364765  	91.861358 
4274.329189  	91.888285 
4275.293613  	91.890373 
4276.258038  	91.911355 
4277.222462  	91.911833 
4278.186887  	91.827006 
4279.151311  	91.763564 
4280.115736  	91.814138 
4281.080160  	91.911455 
4282.044585  	91.932546 
4283.009009  	91.863660 
4283.973434  	91.849040 
4284.937858  	91.838082 
4285.902282  	91.820103 
4286.866707  	91.821089 
4287.831131  	91.832993 
4288.795556  	91.877709 
4289.759980  	91.920307 
4290.724405  	91.836928 
4291.688829  	91.806573 
4292.653254  	91.850334 
4293.617678  	91.917777 
4294.582103  	91.993819 
4295.546527  	92.002990 
4296.510951  	91.942336 
4297.475376  	91.934387 
4298.439800  	91.940811 
4299.404225  	91.922657 
4300.368649  	91.913812 
4301.333074  	91.883875 
4302.297498  	91.834856 
4303.261923  	91.863579 
4304.226347  	91.945048 
4305.190772  	92.017917 
4306.155196  	91.952879 
4307.119620  	91.877276 
4308.084045  	91.883326 
4309.048469  	91.964932 
4310.012894  	91.962539 
4310.977318  	91.993411 
4311.941743  	91.940209 
4312.906167  	91.884489 
4313.870592  	91.917237 
4314.835016  	91.947083 
4315.799441  	91.928069 
4316.763865  	91.923756 
4317.728290  	91.935081 
4318.692714  	91.963015 
4319.657138  	91.981847 
4320.621563  	91.969125 
4321.585987  	91.914730 
4322.550412  	91.917251 
4323.514836  	91.935394 
4324.479261  	91.936916 
4325.443685  	91.886940 
4326.408110  	91.884959 
4327.372534  	91.939299 
4328.336959  	91.975985 
4329.301383  	91.975781 
4330.265807  	91.962553 
4331.230232  	91.962075 
4332.194656  	91.923786 
4333.159081  	91.921975 
4334.123505  	91.951955 
4335.087930  	91.940744 
4336.052354  	91.932523 
4337.016779  	91.940330 
4337.981203  	91.955692 
4338.945628  	91.998910 
4339.910052  	92.018082 
4340.874476  	91.914280 
4341.838901  	91.912449 
4342.803325  	91.937471 
4343.767750  	91.893319 
4344.732174  	91.869027 
4345.696599  	91.867389 
4346.661023  	91.912771 
4347.625448  	91.904468 
4348.589872  	91.884438 
4349.554297  	91.937791 
4350.518721  	91.991993 
4351.483145  	91.991354 
4352.447570  	91.966139 
4353.411994  	91.946518 
4354.376419  	91.915611 
4355.340843  	91.926910 
4356.305268  	91.932745 
4357.269692  	91.931298 
4358.234117  	91.961261 
4359.198541  	91.933648 
4360.162966  	91.925120 
4361.127390  	91.942125 
4362.091814  	91.925975 
4363.056239  	91.935939 
4364.020663  	91.970483 
4364.985088  	91.948905 
4365.949512  	91.923837 
4366.913937  	91.947733 
4367.878361  	91.901606 
4368.842786  	91.890050 
4369.807210  	91.940934 
4370.771635  	91.949995 
4371.736059  	91.930702 
4372.700484  	91.945095 
4373.664908  	91.979576 
4374.629332  	91.946629 
4375.593757  	91.887092 
4376.558181  	91.926147 
4377.522606  	91.978707 
4378.487030  	91.934147 
4379.451455  	91.897947 
4380.415879  	91.910946 
4381.380304  	91.908822 
4382.344728  	91.945826 
4383.309153  	91.983677 
4384.273577  	91.956477 
4385.238001  	91.948746 
4386.202426  	91.938766 
4387.166850  	91.901742 
4388.131275  	91.882863 
4389.095699  	91.854553 
4390.060124  	91.857570 
4391.024548  	91.930638 
4391.988973  	91.973375 
4392.953397  	91.991151 
4393.917822  	91.990953 
4394.882246  	91.959479 
4395.846670  	91.903011 
4396.811095  	91.900622 
4397.775519  	91.927324 
4398.739944  	91.955512 
4399.704368  	91.973015 
4400.668793  	91.976501 
4401.633217  	91.849776 
4402.597642  	91.805377 
4403.562066  	91.919007 
4404.526491  	91.975529 
4405.490915  	91.946049 
4406.455339  	91.889203 
4407.419764  	91.940368 
4408.384188  	92.043563 
4409.348613  	92.025327 
4410.313037  	91.944445 
4411.277462  	91.924642 
4412.241886  	91.909522 
4413.206311  	91.895683 
4414.170735  	91.916359 
4415.135160  	91.916899 
4416.099584  	91.891804 
4417.064008  	91.873229 
4418.028433  	91.881324 
4418.992857  	91.893422 
4419.957282  	91.839066 
4420.921706  	91.842505 
4421.886131  	91.897042 
4422.850555  	91.888886 
4423.814980  	91.827718 
4424.779404  	91.817834 
4425.743829  	91.810790 
4426.708253  	91.831967 
4427.672677  	91.806424 
4428.637102  	91.831983 
4429.601526  	91.917165 
4430.565951  	91.915818 
4431.530375  	91.827870 
4432.494800  	91.758089 
4433.459224  	91.742077 
4434.423649  	91.740887 
4435.388073  	91.826545 
4436.352498  	91.953036 
4437.316922  	91.978973 
4438.281347  	91.928171 
4439.245771  	91.844516 
4440.210195  	91.889961 
4441.174620  	91.882323 
4442.139044  	91.839661 
4443.103469  	91.930228 
4444.067893  	91.973806 
4445.032318  	91.942724 
4445.996742  	91.911600 
4446.961167  	91.887423 
4447.925591  	91.844492 
4448.890016  	91.813935 
4449.854440  	91.801171 
4450.818864  	91.860549 
4451.783289  	91.920504 
4452.747713  	91.848372 
4453.712138  	91.857465 
4454.676562  	91.877206 
4455.640987  	91.849364 
4456.605411  	91.896591 
4457.569836  	91.942550 
4458.534260  	91.908414 
4459.498685  	91.855887 
4460.463109  	91.827155 
4461.427533  	91.831563 
4462.391958  	91.826539 
4463.356382  	91.833114 
4464.320807  	91.875129 
4465.285231  	91.883032 
4466.249656  	91.888803 
4467.214080  	91.893273 
4468.178505  	91.812998 
4469.142929  	91.787471 
4470.107354  	91.875412 
4471.071778  	91.913815 
4472.036202  	91.963945 
4473.000627  	91.980852 
4473.965051  	91.910573 
4474.929476  	91.878678 
4475.893900  	91.933332 
4476.858325  	91.960326 
4477.822749  	91.915101 
4478.787174  	91.951903 
4479.751598  	91.964257 
4480.716023  	91.900926 
4481.680447  	91.887070 
4482.644871  	91.872180 
4483.609296  	91.872381 
4484.573720  	91.908337 
4485.538145  	91.925800 
4486.502569  	91.945735 
4487.466994  	91.948941 
4488.431418  	92.017336 
4489.395843  	92.007700 
4490.360267  	91.980913 
4491.324692  	91.931951 
4492.289116  	91.839825 
4493.253541  	91.826683 
4494.217965  	91.920122 
4495.182389  	91.926389 
4496.146814  	91.893092 
4497.111238  	91.929772 
4498.075663  	91.963432 
4499.040087  	91.917484 
4500.004512  	91.885049 
4500.968936  	91.951806 
4501.933361  	91.988979 
4502.897785  	91.985059 
4503.862210  	91.981091 
4504.826634  	91.971249 
4505.791058  	91.936795 
4506.755483  	91.898089 
4507.719907  	91.884552 
4508.684332  	91.937066 
4509.648756  	91.945929 
4510.613181  	91.953732 
4511.577605  	92.037547 
4512.542030  	92.031583 
4513.506454  	91.977506 
4514.470879  	91.930373 
4515.435303  	91.888049 
4516.399727  	91.872080 
4517.364152  	91.835077 
4518.328576  	91.904415 
4519.293001  	91.999660 
4520.257425  	91.959640 
4521.221850  	91.900982 
4522.186274  	91.923369 
4523.150699  	91.951525 
4524.115123  	91.946161 
4525.079548  	91.916697 
4526.043972  	91.897567 
4527.008396  	91.954028 
4527.972821  	91.982987 
4528.937245  	91.980963 
4529.901670  	91.905389 
4530.866094  	91.897397 
4531.830519  	91.882205 
4532.794943  	91.915398 
4533.759368  	92.001966 
4534.723792  	91.973564 
4535.688217  	91.953867 
4536.652641  	92.007350 
4537.617065  	91.995995 
4538.581490  	91.975875 
4539.545914  	91.956108 
4540.510339  	91.956080 
4541.474763  	91.852233 
4542.439188  	91.842076 
4543.403612  	91.894657 
4544.368037  	91.804685 
4545.332461  	91.764603 
4546.296886  	91.840928 
4547.261310  	91.831212 
4548.225734  	91.873901 
4549.190159  	91.949286 
4550.154583  	91.979730 
4551.119008  	91.940600 
4552.083432  	91.924807 
4553.047857  	91.935345 
4554.012281  	91.994170 
4554.976706  	91.991805 
4555.941130  	91.942142 
4556.905555  	91.909811 
4557.869979  	91.953015 
4558.834404  	91.966940 
4559.798828  	91.839360 
4560.763252  	91.730867 
4561.727677  	91.784453 
4562.692101  	91.863126 
4563.656526  	91.911978 
4564.620950  	91.914549 
4565.585375  	91.850252 
4566.549799  	91.846119 
4567.514224  	91.910660 
4568.478648  	91.934080 
4569.443073  	91.928005 
4570.407497  	91.887582 
4571.371921  	91.920835 
4572.336346  	91.978022 
4573.300770  	91.950329 
4574.265195  	91.849813 
4575.229619  	91.862335 
4576.194044  	91.849700 
4577.158468  	91.858600 
4578.122893  	91.930780 
4579.087317  	92.006381 
4580.051742  	91.980727 
4581.016166  	91.971782 
4581.980590  	91.977782 
4582.945015  	91.969205 
4583.909439  	91.949994 
4584.873864  	91.856977 
4585.838288  	91.791878 
4586.802713  	91.871649 
4587.767137  	91.859959 
4588.731562  	91.864522 
4589.695986  	91.882022 
4590.660411  	91.897015 
4591.624835  	91.905707 
4592.589259  	91.844613 
4593.553684  	91.837593 
4594.518108  	91.842163 
4595.482533  	91.814696 
4596.446957  	91.816508 
4597.411382  	91.791332 
4598.375806  	91.794046 
4599.340231  	91.875929 
4600.304655  	91.929364 
4601.269080  	91.878928 
4602.233504  	91.843688 
4603.197928  	91.824857 
4604.162353  	91.880630 
4605.126777  	91.883717 
4606.091202  	91.884186 
4607.055626  	91.905305 
4608.020051  	91.943588 
4608.984475  	91.897394 
4609.948900  	91.865578 
4610.913324  	91.874967 
4611.877749  	91.915956 
4612.842173  	91.887774 
4613.806598  	91.913832 
4614.771022  	91.904858 
4615.735446  	91.880047 
4616.699871  	91.878597 
4617.664295  	91.878915 
4618.628720  	91.876101 
4619.593144  	91.863265 
4620.557569  	91.925900 
4621.521993  	91.923891 
4622.486418  	91.883496 
4623.450842  	91.931134 
4624.415267  	91.946290 
4625.379691  	91.876475 
4626.344115  	91.798406 
4627.308540  	91.875822 
4628.272964  	91.916075 
4629.237389  	91.912904 
4630.201813  	91.859032 
4631.166238  	91.818276 
4632.130662  	91.808151 
4633.095087  	91.806577 
4634.059511  	91.781508 
4635.023936  	91.840968 
4635.988360  	91.894402 
4636.952784  	91.895218 
4637.917209  	91.896614 
4638.881633  	91.830244 
4639.846058  	91.767762 
4640.810482  	91.769109 
4641.774907  	91.798351 
4642.739331  	91.739028 
4643.703756  	91.763108 
4644.668180  	91.851221 
4645.632605  	91.796295 
4646.597029  	91.811968 
4647.561453  	91.812545 
4648.525878  	91.864955 
4649.490302  	91.905286 
4650.454727  	91.876186 
4651.419151  	91.896549 
4652.383576  	91.891354 
4653.348000  	91.843415 
4654.312425  	91.852344 
4655.276849  	91.890267 
4656.241274  	91.890242 
4657.205698  	91.852492 
4658.170122  	91.852956 
4659.134547  	91.859119 
4660.098971  	91.784813 
4661.063396  	91.872802 
4662.027820  	91.941092 
4662.992245  	91.776574 
4663.956669  	91.758080 
4664.921094  	91.861718 
4665.885518  	91.875242 
4666.849943  	91.877157 
4667.814367  	91.855984 
4668.778791  	91.878163 
4669.743216  	91.933424 
4670.707640  	91.901533 
4671.672065  	91.841209 
4672.636489  	91.789285 
4673.600914  	91.784411 
4674.565338  	91.855975 
4675.529763  	91.941093 
4676.494187  	91.946122 
4677.458612  	91.948000 
4678.423036  	91.972776 
4679.387461  	91.942095 
4680.351885  	91.868537 
4681.316309  	91.843250 
4682.280734  	91.812882 
4683.245158  	91.769150 
4684.209583  	91.752872 
4685.174007  	91.841693 
4686.138432  	91.866789 
4687.102856  	91.888392 
4688.067281  	91.862931 
4689.031705  	91.783571 
4689.996130  	91.754864 
4690.960554  	91.865318 
4691.924978  	91.872833 
4692.889403  	91.830002 
4693.853827  	91.811298 
4694.818252  	91.832344 
4695.782676  	91.852519 
4696.747101  	91.781718 
4697.711525  	91.777830 
4698.675950  	91.808187 
4699.640374  	91.734281 