##TITLE=No Description
##DATA TYPE=INFRARED SPECTRUM
##XUNITS=1/CM
##YUNITS=%T
400.236149  	116.794157 
401.200574  	105.759439 
402.164998  	76.542181 
403.129423  	73.762717 
404.093847  	82.689603 
405.058272  	89.003850 
406.022696  	87.256344 
406.987120  	78.028494 
407.951545  	74.532578 
408.915969  	71.356283 
409.880394  	69.567722 
410.844818  	79.859947 
411.809243  	92.555628 
412.773667  	95.148850 
413.738092  	87.208421 
414.702516  	76.541311 
415.666941  	73.353109 
416.631365  	76.644133 
417.595789  	82.627168 
418.560214  	80.136196 
419.524638  	72.486929 
420.489063  	77.078127 
421.453487  	77.770952 
422.417912  	80.596522 
423.382336  	78.762187 
424.346761  	74.371418 
425.311185  	71.465769 
426.275610  	71.867746 
427.240034  	72.004406 
428.204458  	72.695086 
429.168883  	73.142984 
430.133307  	73.843757 
431.097732  	73.798196 
432.062156  	71.416925 
433.026581  	68.671248 
433.991005  	70.052734 
434.955430  	71.185175 
435.919854  	70.533125 
436.884279  	72.347191 
437.848703  	74.624038 
438.813127  	75.285159 
439.777552  	76.095799 
440.741976  	75.247512 
441.706401  	77.559529 
442.670825  	81.094875 
443.635250  	80.427531 
444.599674  	79.649249 
445.564099  	79.060228 
446.528523  	79.988901 
447.492948  	81.788949 
448.457372  	83.157366 
449.421796  	82.475942 
450.386221  	82.039240 
451.350645  	82.268559 
452.315070  	81.678603 
453.279494  	81.046590 
454.243919  	80.533069 
455.208343  	80.072486 
456.172768  	79.761714 
457.137192  	79.107524 
458.101617  	79.766557 
459.066041  	80.993002 
460.030466  	80.889315 
460.994890  	80.315114 
461.959314  	79.704485 
462.923739  	79.848141 
463.888163  	79.899990 
464.852588  	79.892989 
465.817012  	80.858587 
466.781437  	81.087906 
467.745861  	79.767961 
468.710286  	78.666293 
469.674710  	78.670056 
470.639135  	78.877927 
471.603559  	78.479388 
472.567983  	78.708703 
473.532408  	79.437199 
474.496832  	79.295783 
475.461257  	79.529354 
476.425681  	79.099192 
477.390106  	79.177647 
478.354530  	79.851491 
479.318955  	79.436404 
480.283379  	78.635670 
481.247804  	78.815727 
482.212228  	78.558009 
483.176652  	78.727206 
484.141077  	79.077070 
485.105501  	78.690452 
486.069926  	77.971251 
487.034350  	78.234567 
487.998775  	78.410907 
488.963199  	78.658017 
489.927624  	78.580766 
490.892048  	77.937927 
491.856473  	77.237200 
492.820897  	77.285714 
493.785321  	76.826644 
494.749746  	75.912739 
495.714170  	75.653140 
496.678595  	75.550287 
497.643019  	75.455257 
498.607444  	74.736864 
499.571868  	73.996016 
500.536293  	74.019759 
501.500717  	73.396984 
502.465142  	72.529692 
503.429566  	72.766446 
504.393990  	73.058376 
505.358415  	73.343898 
506.322839  	73.149012 
507.287264  	73.513065 
508.251688  	75.331946 
509.216113  	77.105582 
510.180537  	78.083756 
511.144962  	78.838238 
512.109386  	79.594757 
513.073811  	80.057410 
514.038235  	80.169388 
515.002660  	79.506466 
515.967084  	78.829549 
516.931508  	78.641413 
517.895933  	79.189296 
518.860357  	79.382132 
519.824782  	79.055186 
520.789206  	79.655146 
521.753631  	80.346776 
522.718055  	80.347004 
523.682480  	80.219008 
524.646904  	80.248004 
525.611329  	79.871703 
526.575753  	79.934644 
527.540177  	80.874491 
528.504602  	81.217608 
529.469026  	80.699849 
530.433451  	80.623888 
531.397875  	80.951083 
532.362300  	81.255057 
533.326724  	81.535680 
534.291149  	81.517061 
535.255573  	81.659705 
536.219998  	81.811584 
537.184422  	82.167792 
538.148846  	82.052430 
539.113271  	82.382410 
540.077695  	82.161283 
541.042120  	82.353046 
542.006544  	82.616579 
542.970969  	82.776597 
543.935393  	82.841840 
544.899818  	82.618960 
545.864242  	82.442054 
546.828667  	82.363989 
547.793091  	82.026654 
548.757515  	82.418044 
549.721940  	82.875360 
550.686364  	83.052234 
551.650789  	83.279259 
552.615213  	82.966506 
553.579638  	82.938154 
554.544062  	83.002681 
555.508487  	83.283455 
556.472911  	83.192574 
557.437336  	82.890522 
558.401760  	83.009306 
559.366184  	83.099480 
560.330609  	82.955048 
561.295033  	82.960253 
562.259458  	82.930046 
563.223882  	82.513572 
564.188307  	82.420659 
565.152731  	82.662175 
566.117156  	82.667375 
567.081580  	82.286580 
568.046005  	82.192801 
569.010429  	81.999196 
569.974853  	82.123530 
570.939278  	82.149831 
571.903702  	82.278734 
572.868127  	82.374295 
573.832551  	82.082731 
574.796976  	82.032421 
575.761400  	81.706637 
576.725825  	81.920587 
577.690249  	82.211516 
578.654674  	82.221044 
579.619098  	82.125690 
580.583523  	81.768859 
581.547947  	82.124428 
582.512371  	82.447563 
583.476796  	82.114454 
584.441220  	81.881085 
585.405645  	82.007974 
586.370069  	82.409464 
587.334494  	82.543456 
588.298918  	82.391488 
589.263343  	82.166734 
590.227767  	82.178097 
591.192192  	81.791512 
592.156616  	81.435128 
593.121040  	82.001630 
594.085465  	82.320591 
595.049889  	82.258496 
596.014314  	82.204844 
596.978738  	82.188075 
597.943163  	82.070437 
598.907587  	81.758549 
599.872012  	81.353896 
600.836436  	81.494987 
601.800861  	81.724308 
602.765285  	81.608013 
603.729709  	81.526056 
604.694134  	81.641961 
605.658558  	81.749199 
606.622983  	81.819106 
607.587407  	81.589140 
608.551832  	81.484010 
609.516256  	81.559072 
610.480681  	81.458089 
611.445105  	81.289901 
612.409530  	81.441354 
613.373954  	81.600004 
614.338378  	81.361165 
615.302803  	81.051679 
616.267227  	80.967773 
617.231652  	81.193190 
618.196076  	81.201903 
619.160501  	80.985533 
620.124925  	80.788415 
621.089350  	80.827289 
622.053774  	80.845773 
623.018199  	81.020367 
623.982623  	80.776887 
624.947047  	80.548885 
625.911472  	80.370206 
626.875896  	80.444744 
627.840321  	80.203772 
628.804745  	79.924487 
629.769170  	79.263051 
630.733594  	78.625391 
631.698019  	78.497651 
632.662443  	78.758566 
633.626868  	79.247075 
634.591292  	79.833502 
635.555717  	79.992327 
636.520141  	80.358772 
637.484565  	80.434852 
638.448990  	80.377477 
639.413414  	80.239989 
640.377839  	80.202718 
641.342263  	80.102636 
642.306688  	79.874707 
643.271112  	79.807512 
644.235537  	79.816395 
645.199961  	79.824191 
646.164386  	79.893544 
647.128810  	79.927950 
648.093234  	79.839858 
649.057659  	79.575658 
650.022083  	79.516850 
650.986508  	79.465120 
651.950932  	79.290482 
652.915357  	79.127939 
653.879781  	79.148871 
654.844206  	79.214376 
655.808630  	79.045097 
656.773055  	78.773976 
657.737479  	78.778459 
658.701903  	78.562777 
659.666328  	78.361958 
660.630752  	78.398021 
661.595177  	78.377251 
662.559601  	78.205794 
663.524026  	78.007561 
664.488450  	77.885506 
665.452875  	77.804753 
666.417299  	77.779947 
667.381724  	78.024269 
668.346148  	77.938345 
669.310572  	77.176566 
670.274997  	76.891419 
671.239421  	76.752509 
672.203846  	76.679196 
673.168270  	76.438926 
674.132695  	76.061302 
675.097119  	75.773506 
676.061544  	75.328563 
677.025968  	74.993261 
677.990393  	74.769187 
678.954817  	74.511392 
679.919241  	74.280948 
680.883666  	74.270045 
681.848090  	74.214044 
682.812515  	74.161316 
683.776939  	73.959969 
684.741364  	73.764741 
685.705788  	73.640084 
686.670213  	73.514600 
687.634637  	73.206588 
688.599062  	72.912212 
689.563486  	72.482653 
690.527910  	72.132645 
691.492335  	71.770751 
692.456759  	71.373758 
693.421184  	70.842992 
694.385608  	70.375191 
695.350033  	69.708140 
696.314457  	68.867255 
697.278882  	67.821682 
698.243306  	66.776361 
699.207731  	65.872987 
700.172155  	65.057069 
701.136580  	64.098133 
702.101004  	63.207967 
703.065428  	62.520774 
704.029853  	61.939804 
704.994277  	61.234463 
705.958702  	60.495507 
706.923126  	59.661162 
707.887551  	58.773690 
708.851975  	57.909164 
709.816400  	56.943442 
710.780824  	55.908924 
711.745249  	54.901171 
712.709673  	53.699329 
713.674097  	52.420815 
714.638522  	51.167725 
715.602946  	49.974918 
716.567371  	48.615232 
717.531795  	47.113701 
718.496220  	45.580554 
719.460644  	44.159675 
720.425069  	43.003635 
721.389493  	42.120301 
722.353918  	41.334680 
723.318342  	40.791076 
724.282766  	40.879892 
725.247191  	41.877428 
726.211615  	43.619680 
727.176040  	45.884369 
728.140464  	48.272103 
729.104889  	50.869073 
730.069313  	53.513855 
731.033738  	56.262209 
731.998162  	59.055229 
732.962587  	61.986505 
733.927011  	64.916120 
734.891435  	67.780778 
735.855860  	70.604737 
736.820284  	73.372304 
737.784709  	75.914749 
738.749133  	78.153378 
739.713558  	80.031346 
740.677982  	81.657130 
741.642407  	82.933949 
742.606831  	83.923883 
743.571256  	84.473117 
744.535680  	84.704820 
745.500104  	84.912252 
746.464529  	85.031407 
747.428953  	84.983881 
748.393378  	85.012048 
749.357802  	84.968131 
750.322227  	84.865730 
751.286651  	84.725993 
752.251076  	84.615524 
753.215500  	84.536073 
754.179925  	84.341975 
755.144349  	84.089776 
756.108774  	84.029165 
757.073198  	83.926751 
758.037622  	83.717943 
759.002047  	83.460386 
759.966471  	83.301508 
760.930896  	83.144445 
761.895320  	82.964463 
762.859745  	82.899913 
763.824169  	82.810436 
764.788594  	82.486475 
765.753018  	82.255617 
766.717443  	82.047653 
767.681867  	81.833484 
768.646291  	81.575369 
769.610716  	81.417198 
770.575140  	81.242411 
771.539565  	81.055883 
772.503989  	80.823722 
773.468414  	80.635105 
774.432838  	80.409849 
775.397263  	80.166701 
776.361687  	79.992851 
777.326112  	79.949497 
778.290536  	79.699205 
779.254960  	79.474565 
780.219385  	79.193591 
781.183809  	79.189111 
782.148234  	78.847373 
783.112658  	78.619841 
784.077083  	78.206976 
785.041507  	77.813637 
786.005932  	77.563161 
786.970356  	77.111451 
787.934781  	76.551447 
788.899205  	76.137303 
789.863629  	75.823124 
790.828054  	75.481790 
791.792478  	75.175386 
792.756903  	75.117369 
793.721327  	75.423447 
794.685752  	76.084319 
795.650176  	76.992226 
796.614601  	77.784809 
797.579025  	78.382734 
798.543450  	78.621652 
799.507874  	78.651856 
800.472298  	78.682592 
801.436723  	78.584209 
802.401147  	78.388865 
803.365572  	78.251429 
804.329996  	78.219529 
805.294421  	78.178253 
806.258845  	78.083510 
807.223270  	78.026609 
808.187694  	78.027092 
809.152119  	78.019678 
810.116543  	77.867489 
811.080967  	77.650075 
812.045392  	77.563903 
813.009816  	77.584756 
813.974241  	77.637679 
814.938665  	77.612729 
815.903090  	77.512661 
816.867514  	77.362767 
817.831939  	77.237689 
818.796363  	77.183945 
819.760788  	77.174999 
820.725212  	77.101260 
821.689637  	76.874576 
822.654061  	76.651845 
823.618485  	76.563751 
824.582910  	76.377388 
825.547334  	76.063773 
826.511759  	75.815558 
827.476183  	75.657121 
828.440608  	75.499713 
829.405032  	75.210682 
830.369457  	74.936521 
831.333881  	74.740607 
832.298306  	74.424419 
833.262730  	74.071693 
834.227154  	73.742937 
835.191579  	73.432260 
836.156003  	73.126921 
837.120428  	72.720733 
838.084852  	72.222242 
839.049277  	71.837204 
840.013701  	71.500136 
840.978126  	71.108476 
841.942550  	70.784539 
842.906975  	70.407575 
843.871399  	69.978322 
844.835823  	69.612183 
845.800248  	69.364829 
846.764672  	69.321190 
847.729097  	69.542423 
848.693521  	69.943709 
849.657946  	70.528184 
850.622370  	71.165986 
851.586795  	71.699386 
852.551219  	72.026932 
853.515644  	72.344195 
854.480068  	72.661155 
855.444492  	72.850511 
856.408917  	72.969613 
857.373341  	73.118865 
858.337766  	73.282879 
859.302190  	73.438881 
860.266615  	73.466171 
861.231039  	73.318709 
862.195464  	73.163661 
863.159888  	72.893027 
864.124313  	72.507697 
865.088737  	71.927283 
866.053161  	71.183299 
867.017586  	70.202621 
867.982010  	68.866061 
868.946435  	67.177728 
869.910859  	65.093192 
870.875284  	62.981154 
871.839708  	61.824726 
872.804133  	62.378571 
873.768557  	64.394254 
874.732982  	66.647679 
875.697406  	68.441772 
876.661831  	69.741771 
877.626255  	70.824278 
878.590679  	71.804879 
879.555104  	72.673347 
880.519528  	73.404099 
881.483953  	73.996449 
882.448377  	74.548412 
883.412802  	75.060173 
884.377226  	75.467351 
885.341651  	75.786944 
886.306075  	75.979060 
887.270500  	76.127204 
888.234924  	76.284302 
889.199348  	76.325534 
890.163773  	76.275611 
891.128197  	76.238569 
892.092622  	76.179133 
893.057046  	76.093941 
894.021471  	76.004016 
894.985895  	75.959582 
895.950320  	75.863593 
896.914744  	75.738170 
897.879169  	75.665876 
898.843593  	75.654314 
899.808017  	75.682891 
900.772442  	75.768934 
901.736866  	75.853205 
902.701291  	75.971090 
903.665715  	76.126517 
904.630140  	76.275641 
905.594564  	76.400219 
906.558989  	76.579085 
907.523413  	76.774278 
908.487838  	76.875526 
909.452262  	76.935975 
910.416686  	77.068690 
911.381111  	77.167355 
912.345535  	77.125295 
913.309960  	77.104105 
914.274384  	77.090621 
915.238809  	77.069452 
916.203233  	77.027900 
917.167658  	76.995781 
918.132082  	76.939033 
919.096507  	76.905540 
920.060931  	76.834777 
921.025355  	76.719080 
921.989780  	76.635542 
922.954204  	76.534219 
923.918629  	76.396383 
924.883053  	76.303438 
925.847478  	76.247241 
926.811902  	76.127375 
927.776327  	75.986663 
928.740751  	75.835901 
929.705176  	75.744597 
930.669600  	75.631024 
931.634024  	75.503293 
932.598449  	75.383970 
933.562873  	75.274173 
934.527298  	75.139239 
935.491722  	74.928175 
936.456147  	74.809116 
937.420571  	74.729860 
938.384996  	74.541315 
939.349420  	74.341082 
940.313845  	74.214232 
941.278269  	74.111431 
942.242694  	73.940407 
943.207118  	73.717636 
944.171542  	73.553838 
945.135967  	73.412250 
946.100391  	73.218572 
947.064816  	73.003044 
948.029240  	72.814828 
948.993665  	72.626424 
949.958089  	72.436871 
950.922514  	72.260460 
951.886938  	72.085416 
952.851363  	71.845900 
953.815787  	71.554349 
954.780211  	71.330770 
955.744636  	71.141360 
956.709060  	70.903209 
957.673485  	70.643937 
958.637909  	70.401405 
959.602334  	70.157700 
960.566758  	69.858070 
961.531183  	69.531856 
962.495607  	69.248556 
963.460032  	69.038392 
964.424456  	68.800156 
965.388880  	68.511222 
966.353305  	68.284542 
967.317729  	68.166864 
968.282154  	68.068757 
969.246578  	67.991747 
970.211003  	68.063463 
971.175427  	68.260557 
972.139852  	68.518785 
973.104276  	68.905212 
974.068701  	69.358689 
975.033125  	69.800497 
975.997549  	70.192955 
976.961974  	70.576074 
977.926398  	70.946307 
978.890823  	71.225657 
979.855247  	71.359835 
980.819672  	71.427869 
981.784096  	71.484971 
982.748521  	71.490533 
983.712945  	71.400662 
984.677370  	71.222589 
985.641794  	71.052502 
986.606218  	70.878478 
987.570643  	70.712580 
988.535067  	70.560691 
989.499492  	70.458166 
990.463916  	70.359097 
991.428341  	70.234144 
992.392765  	70.060092 
993.357190  	69.864774 
994.321614  	69.693721 
995.286039  	69.499109 
996.250463  	69.278872 
997.214888  	69.000201 
998.179312  	68.756033 
999.143736  	68.496781 
1000.108161  	68.182206 
1001.072585  	67.885814 
1002.037010  	67.599213 
1003.001434  	67.274646 
1003.965859  	66.936120 
1004.930283  	66.552231 
1005.894708  	66.085580 
1006.859132  	65.594505 
1007.823557  	65.029375 
1008.787981  	64.403070 
1009.752405  	63.740992 
1010.716830  	62.967113 
1011.681254  	62.009238 
1012.645679  	60.896871 
1013.610103  	59.645788 
1014.574528  	58.328152 
1015.538952  	57.209702 
1016.503377  	56.627327 
1017.467801  	56.744875 
1018.432226  	57.579844 
1019.396650  	58.897601 
1020.361074  	60.464155 
1021.325499  	62.163849 
1022.289923  	63.916050 
1023.254348  	65.851532 
1024.218772  	68.039438 
1025.183197  	70.283073 
1026.147621  	72.285895 
1027.112046  	73.750496 
1028.076470  	74.506370 
1029.040895  	74.602519 
1030.005319  	74.239106 
1030.969743  	73.598921 
1031.934168  	72.925524 
1032.898592  	72.299143 
1033.863017  	71.646199 
1034.827441  	70.914706 
1035.791866  	70.271196 
1036.756290  	69.721232 
1037.720715  	69.210250 
1038.685139  	68.732060 
1039.649564  	68.359111 
1040.613988  	68.037355 
1041.578412  	67.719390 
1042.542837  	67.473014 
1043.507261  	67.287376 
1044.471686  	67.099169 
1045.436110  	66.921035 
1046.400535  	66.832457 
1047.364959  	66.788918 
1048.329384  	66.693722 
1049.293808  	66.605757 
1050.258233  	66.579270 
1051.222657  	66.552695 
1052.187081  	66.477773 
1053.151506  	66.316569 
1054.115930  	66.203380 
1055.080355  	66.104646 
1056.044779  	65.911847 
1057.009204  	65.713462 
1057.973628  	65.527872 
1058.938053  	65.329189 
1059.902477  	65.015938 
1060.866902  	64.620456 
1061.831326  	64.334445 
1062.795751  	64.008047 
1063.760175  	63.601454 
1064.724599  	63.214969 
1065.689024  	62.874148 
1066.653448  	62.441737 
1067.617873  	61.962247 
1068.582297  	61.499795 
1069.546722  	61.031718 
1070.511146  	60.529709 
1071.475571  	59.964357 
1072.439995  	59.352216 
1073.404420  	58.759308 
1074.368844  	58.090744 
1075.333268  	57.287636 
1076.297693  	56.484936 
1077.262117  	55.759045 
1078.226542  	55.000737 
1079.190966  	54.181090 
1080.155391  	53.367817 
1081.119815  	52.654601 
1082.084240  	52.002136 
1083.048664  	51.436956 
1084.013089  	50.976849 
1084.977513  	50.551014 
1085.941937  	50.119916 
1086.906362  	49.746156 
1087.870786  	49.463592 
1088.835211  	49.206461 
1089.799635  	48.943115 
1090.764060  	48.729119 
1091.728484  	48.610259 
1092.692909  	48.497745 
1093.657333  	48.383745 
1094.621758  	48.340993 
1095.586182  	48.452939 
1096.550606  	48.619946 
1097.515031  	48.804011 
1098.479455  	49.086330 
1099.443880  	49.472348 
1100.408304  	49.931927 
1101.372729  	50.448652 
1102.337153  	51.066573 
1103.301578  	51.724455 
1104.266002  	52.355876 
1105.230427  	52.992354 
1106.194851  	53.718180 
1107.159275  	54.487051 
1108.123700  	55.144025 
1109.088124  	55.709718 
1110.052549  	56.227222 
1111.016973  	56.680966 
1111.981398  	56.988933 
1112.945822  	57.217016 
1113.910247  	57.406653 
1114.874671  	57.487997 
1115.839096  	57.466419 
1116.803520  	57.434585 
1117.767945  	57.512074 
1118.732369  	57.723641 
1119.696793  	58.072584 
1120.661218  	58.517395 
1121.625642  	59.032984 
1122.590067  	59.687857 
1123.554491  	60.430732 
1124.518916  	61.236652 
1125.483340  	62.191692 
1126.447765  	63.235708 
1127.412189  	64.361671 
1128.376614  	65.547041 
1129.341038  	66.733981 
1130.305462  	67.977958 
1131.269887  	69.286670 
1132.234311  	70.555979 
1133.198736  	71.804946 
1134.163160  	73.010326 
1135.127585  	74.147952 
1136.092009  	75.232255 
1137.056434  	76.273073 
1138.020858  	77.243136 
1138.985283  	78.123805 
1139.949707  	78.913778 
1140.914131  	79.679612 
1141.878556  	80.390878 
1142.842980  	81.003316 
1143.807405  	81.595740 
1144.771829  	82.139135 
1145.736254  	82.617768 
1146.700678  	83.087461 
1147.665103  	83.480490 
1148.629527  	83.849055 
1149.593952  	84.193264 
1150.558376  	84.480175 
1151.522800  	84.704789 
1152.487225  	84.903457 
1153.451649  	85.116179 
1154.416074  	85.296160 
1155.380498  	85.371702 
1156.344923  	85.442019 
1157.309347  	85.523104 
1158.273772  	85.534865 
1159.238196  	85.473245 
1160.202621  	85.456819 
1161.167045  	85.425264 
1162.131469  	85.289572 
1163.095894  	85.101798 
1164.060318  	84.905796 
1165.024743  	84.674132 
1165.989167  	84.335403 
1166.953592  	83.920840 
1167.918016  	83.452842 
1168.882441  	82.920765 
1169.846865  	82.314845 
1170.811290  	81.721359 
1171.775714  	81.230233 
1172.740138  	80.835312 
1173.704563  	80.453370 
1174.668987  	80.119498 
1175.633412  	79.986770 
1176.597836  	79.921418 
1177.562261  	79.826080 
1178.526685  	79.730752 
1179.491110  	79.669570 
1180.455534  	79.610747 
1181.419959  	79.506117 
1182.384383  	79.348954 
1183.348808  	79.175212 
1184.313232  	78.943223 
1185.277656  	78.597740 
1186.242081  	78.186853 
1187.206505  	77.793162 
1188.170930  	77.376697 
1189.135354  	76.844081 
1190.099779  	76.276360 
1191.064203  	75.774256 
1192.028628  	75.230813 
1192.993052  	74.590104 
1193.957477  	73.937746 
1194.921901  	73.316357 
1195.886325  	72.702616 
1196.850750  	72.049240 
1197.815174  	71.425064 
1198.779599  	70.878319 
1199.744023  	70.322552 
1200.708448  	69.719284 
1201.672872  	69.171968 
1202.637297  	68.700688 
1203.601721  	68.222543 
1204.566146  	67.744330 
1205.530570  	67.304204 
1206.494994  	66.894021 
1207.459419  	66.479676 
1208.423843  	66.042083 
1209.388268  	65.633599 
1210.352692  	65.247557 
1211.317117  	64.773446 
1212.281541  	64.251336 
1213.245966  	63.787535 
1214.210390  	63.290976 
1215.174815  	62.713428 
1216.139239  	62.129025 
1217.103663  	61.559130 
1218.068088  	60.945850 
1219.032512  	60.279010 
1219.996937  	59.649412 
1220.961361  	59.097588 
1221.925786  	58.576555 
1222.890210  	58.100249 
1223.854635  	57.667882 
1224.819059  	57.246291 
1225.783484  	56.815177 
1226.747908  	56.354790 
1227.712332  	55.817856 
1228.676757  	55.217684 
1229.641181  	54.541701 
1230.605606  	53.798200 
1231.570030  	53.029091 
1232.534455  	52.254926 
1233.498879  	51.421474 
1234.463304  	50.612991 
1235.427728  	49.862268 
1236.392153  	49.248304 
1237.356577  	48.764587 
1238.321002  	48.379564 
1239.285426  	48.144639 
1240.249850  	48.075653 
1241.214275  	48.100702 
1242.178699  	48.239079 
1243.143124  	48.519894 
1244.107548  	48.890303 
1245.071973  	49.369085 
1246.036397  	49.926294 
1247.000822  	50.525884 
1247.965246  	51.159846 
1248.929671  	51.822924 
1249.894095  	52.463801 
1250.858519  	53.123378 
1251.822944  	53.790328 
1252.787368  	54.385708 
1253.751793  	54.952883 
1254.716217  	55.464807 
1255.680642  	55.911303 
1256.645066  	56.316583 
1257.609491  	56.691954 
1258.573915  	57.041833 
1259.538340  	57.358801 
1260.502764  	57.731421 
1261.467188  	58.313045 
1262.431613  	58.900063 
1263.396037  	59.515109 
1264.360462  	60.189560 
1265.324886  	60.900364 
1266.289311  	61.673833 
1267.253735  	62.531518 
1268.218160  	63.394325 
1269.182584  	64.219584 
1270.147009  	65.016802 
1271.111433  	65.859088 
1272.075857  	66.677051 
1273.040282  	67.572809 
1274.004706  	68.337957 
1274.969131  	69.014002 
1275.933555  	69.632641 
1276.897980  	70.210371 
1277.862404  	70.759186 
1278.826829  	71.298819 
1279.791253  	71.768487 
1280.755678  	72.228548 
1281.720102  	72.722234 
1282.684526  	73.217417 
1283.648951  	73.663215 
1284.613375  	74.080160 
1285.577800  	74.526290 
1286.542224  	74.931606 
1287.506649  	75.205277 
1288.471073  	75.642375 
1289.435498  	76.299745 
1290.399922  	76.892970 
1291.364347  	77.486817 
1292.328771  	78.103959 
1293.293195  	78.690002 
1294.257620  	79.321029 
1295.222044  	79.918774 
1296.186469  	80.436844 
1297.150893  	81.048167 
1298.115318  	81.846489 
1299.079742  	82.503028 
1300.044167  	83.118029 
1301.008591  	83.720718 
1301.973016  	84.265106 
1302.937440  	84.700878 
1303.901865  	85.088688 
1304.866289  	85.442000 
1305.830713  	85.781884 
1306.795138  	86.063743 
1307.759562  	86.270285 
1308.723987  	86.584744 
1309.688411  	87.041717 
1310.652836  	87.305997 
1311.617260  	87.391729 
1312.581685  	87.200542 
1313.546109  	87.483248 
1314.510534  	87.838304 
1315.474958  	88.185796 
1316.439382  	88.213179 
1317.403807  	88.179551 
1318.368231  	88.265871 
1319.332656  	88.232024 
1320.297080  	88.651918 
1321.261505  	89.008304 
1322.225929  	89.261755 
1323.190354  	89.254212 
1324.154778  	89.257820 
1325.119203  	89.236168 
1326.083627  	89.071843 
1327.048051  	88.788600 
1328.012476  	88.346067 
1328.976900  	87.686155 
1329.941325  	86.711036 
1330.905749  	85.533355 
1331.870174  	84.060103 
1332.834598  	82.227376 
1333.799023  	80.257159 
1334.763447  	78.372437 
1335.727872  	76.475196 
1336.692296  	74.649564 
1337.656720  	73.721195 
1338.621145  	72.861770 
1339.585569  	72.480635 
1340.549994  	73.725737 
1341.514418  	76.368276 
1342.478843  	78.534553 
1343.443267  	80.298057 
1344.407692  	82.028289 
1345.372116  	83.698076 
1346.336541  	85.184500 
1347.300965  	86.414498 
1348.265389  	87.361833 
1349.229814  	88.022222 
1350.194238  	88.749181 
1351.158663  	89.393354 
1352.123087  	89.819692 
1353.087512  	90.162725 
1354.051936  	90.197427 
1355.016361  	90.052295 
1355.980785  	90.433136 
1356.945210  	90.637933 
1357.909634  	90.528576 
1358.874059  	90.592111 
1359.838483  	90.570005 
1360.802907  	89.740280 
1361.767332  	89.048098 
1362.731756  	87.946857 
1363.696181  	87.883769 
1364.660605  	89.244257 
1365.625030  	89.357360 
1366.589454  	89.103594 
1367.553879  	88.595403 
1368.518303  	87.823371 
1369.482728  	87.782869 
1370.447152  	88.243208 
1371.411576  	88.220698 
1372.376001  	88.001269 
1373.340425  	87.167944 
1374.304850  	86.547451 
1375.269274  	87.134904 
1376.233699  	88.158279 
1377.198123  	88.352349 
1378.162548  	88.037993 
1379.126972  	88.118439 
1380.091397  	88.301220 
1381.055821  	88.483979 
1382.020245  	88.475969 
1382.984670  	88.396213 
1383.949094  	88.356338 
1384.913519  	88.271126 
1385.877943  	87.703298 
1386.842368  	86.469087 
1387.806792  	86.283140 
1388.771217  	87.571383 
1389.735641  	88.067848 
1390.700066  	87.973933 
1391.664490  	87.983216 
1392.628914  	87.963314 
1393.593339  	87.205486 
1394.557763  	85.629338 
1395.522188  	85.316354 
1396.486612  	85.974191 
1397.451037  	85.688806 
1398.415461  	84.614350 
1399.379886  	84.007690 
1400.344310  	84.401500 
1401.308735  	84.318040 
1402.273159  	83.404383 
1403.237583  	82.284983 
1404.202008  	80.607587 
1405.166432  	78.577612 
1406.130857  	77.913331 
1407.095281  	77.450394 
1408.059706  	76.697170 
1409.024130  	76.384986 
1409.988555  	76.485566 
1410.952979  	77.252929 
1411.917404  	78.493288 
1412.881828  	80.566473 
1413.846252  	82.570011 
1414.810677  	84.280871 
1415.775101  	85.347586 
1416.739526  	85.938862 
1417.703950  	86.412806 
1418.668375  	86.487860 
1419.632799  	86.784690 
1420.597224  	89.498551 
1421.561648  	90.546510 
1422.526073  	90.829992 
1423.490497  	89.883015 
1424.454922  	89.656261 
1425.419346  	91.056987 
1426.383770  	91.567055 
1427.348195  	91.477020 
1428.312619  	91.128525 
1429.277044  	90.550764 
1430.241468  	90.091255 
1431.205893  	90.630602 
1432.170317  	90.571290 
1433.134742  	90.178157 
1434.099166  	90.275904 
1435.063591  	89.923273 
1436.028015  	88.248102 
1436.992439  	87.124644 
1437.956864  	88.949989 
1438.921288  	89.718756 
1439.885713  	89.758632 
1440.850137  	89.699369 
1441.814562  	89.665758 
1442.778986  	89.650385 
1443.743411  	89.543580 
1444.707835  	89.387875 
1445.672260  	89.193794 
1446.636684  	88.888971 
1447.601108  	87.861540 
1448.565533  	87.732690 
1449.529957  	88.639751 
1450.494382  	88.744642 
1451.458806  	88.132510 
1452.423231  	87.660990 
1453.387655  	88.140710 
1454.352080  	87.625849 
1455.316504  	86.242435 
1456.280929  	85.153258 
1457.245353  	84.476571 
1458.209777  	84.732020 
1459.174202  	85.851347 
1460.138626  	87.643559 
1461.103051  	88.629160 
1462.067475  	88.831256 
1463.031900  	88.856660 
1463.996324  	88.383623 
1464.960749  	87.430924 
1465.925173  	88.155259 
1466.889598  	88.759701 
1467.854022  	88.703808 
1468.818446  	88.570103 
1469.782871  	88.102419 
1470.747295  	87.131685 
1471.711720  	85.162372 
1472.676144  	84.142000 
1473.640569  	85.237964 
1474.604993  	87.294872 
1475.569418  	87.580049 
1476.533842  	87.271005 
1477.498267  	89.012123 
1478.462691  	90.030369 
1479.427116  	90.307304 
1480.391540  	90.167412 
1481.355964  	89.745201 
1482.320389  	90.515780 
1483.284813  	91.225650 
1484.249238  	91.471200 
1485.213662  	91.349181 
1486.178087  	90.745510 
1487.142511  	90.144314 
1488.106936  	90.344234 
1489.071360  	89.227609 
1490.035785  	87.616861 
1491.000209  	89.323594 
1491.964633  	91.382571 
1492.929058  	92.152200 
1493.893482  	92.154903 
1494.857907  	91.711331 
1495.822331  	90.417801 
1496.786756  	89.677958 
1497.751180  	90.180471 
1498.715605  	89.363952 
1499.680029  	89.195875 
1500.644454  	89.164661 
1501.608878  	87.986649 
1502.573302  	87.057279 
1503.537727  	86.371923 
1504.502151  	84.998341 
1505.466576  	82.747653 
1506.431000  	79.338142 
1507.395425  	79.438053 
1508.359849  	82.600613 
1509.324274  	85.096747 
1510.288698  	87.110643 
1511.253123  	88.885380 
1512.217547  	89.040076 
1513.181971  	90.162903 
1514.146396  	90.742004 
1515.110820  	89.681624 
1516.075245  	88.465396 
1517.039669  	87.064374 
1518.004094  	89.275738 
1518.968518  	90.735015 
1519.932943  	89.555405 
1520.897367  	86.749673 
1521.861792  	87.269833 
1522.826216  	88.876218 
1523.790640  	90.059108 
1524.755065  	89.489731 
1525.719489  	88.913197 
1526.683914  	89.601430 
1527.648338  	89.239194 
1528.612763  	89.801660 
1529.577187  	91.110111 
1530.541612  	91.485234 
1531.506036  	90.516519 
1532.470461  	89.854178 
1533.434885  	88.831571 
1534.399309  	89.400026 
1535.363734  	90.489051 
1536.328158  	91.065571 
1537.292583  	91.150071 
1538.257007  	89.909851 
1539.221432  	87.095809 
1540.185856  	86.966238 
1541.150281  	88.290235 
1542.114705  	88.215051 
1543.079130  	88.258098 
1544.043554  	88.280018 
1545.007979  	87.819761 
1545.972403  	89.234250 
1546.936827  	90.965031 
1547.901252  	91.285831 
1548.865676  	90.563134 
1549.830101  	88.442238 
1550.794525  	89.172228 
1551.758950  	90.888245 
1552.723374  	90.896336 
1553.687799  	89.848717 
1554.652223  	88.820394 
1555.616648  	89.960265 
1556.581072  	90.087085 
1557.545496  	88.538886 
1558.509921  	84.265192 
1559.474345  	83.832698 
1560.438770  	87.258783 
1561.403194  	89.968714 
1562.367619  	90.786761 
1563.332043  	90.976295 
1564.296468  	90.495468 
1565.260892  	90.159468 
1566.225317  	90.820386 
1567.189741  	90.990529 
1568.154165  	90.407376 
1569.118590  	88.759359 
1570.083014  	88.460249 
1571.047439  	89.936767 
1572.011863  	90.234627 
1572.976288  	90.025284 
1573.940712  	89.743359 
1574.905137  	89.112814 
1575.869561  	87.738246 
1576.833986  	87.034687 
1577.798410  	87.947331 
1578.762834  	88.673793 
1579.727259  	89.066739 
1580.691683  	89.434665 
1581.656108  	89.786406 
1582.620532  	90.103583 
1583.584957  	90.387835 
1584.549381  	90.706503 
1585.513806  	90.943858 
1586.478230  	91.135668 
1587.442655  	91.266102 
1588.407079  	91.347034 
1589.371503  	91.233524 
1590.335928  	91.185982 
1591.300352  	91.285056 
1592.264777  	91.347984 
1593.229201  	91.342468 
1594.193626  	91.026040 
1595.158050  	90.950060 
1596.122475  	91.075869 
1597.086899  	91.156999 
1598.051324  	91.279412 
1599.015748  	91.211733 
1599.980173  	91.151877 
1600.944597  	90.865220 
1601.909021  	90.673598 
1602.873446  	90.391060 
1603.837870  	90.371352 
1604.802295  	90.578509 
1605.766719  	90.470858 
1606.731144  	89.987973 
1607.695568  	89.779526 
1608.659993  	89.730879 
1609.624417  	89.331619 
1610.588842  	89.622025 
1611.553266  	89.781582 
1612.517690  	89.677249 
1613.482115  	89.630324 
1614.446539  	89.540432 
1615.410964  	89.101905 
1616.375388  	88.030471 
1617.339813  	88.117114 
1618.304237  	89.254642 
1619.268662  	89.674463 
1620.233086  	89.752538 
1621.197511  	89.751521 
1622.161935  	89.295469 
1623.126359  	88.256308 
1624.090784  	88.571853 
1625.055208  	89.538931 
1626.019633  	89.716887 
1626.984057  	89.367790 
1627.948482  	88.794645 
1628.912906  	89.316562 
1629.877331  	89.679901 
1630.841755  	89.677062 
1631.806180  	89.624928 
1632.770604  	89.592249 
1633.735028  	89.206534 
1634.699453  	88.033147 
1635.663877  	86.180487 
1636.628302  	87.231852 
1637.592726  	87.420395 
1638.557151  	88.299285 
1639.521575  	88.841542 
1640.486000  	88.811572 
1641.450424  	88.792244 
1642.414849  	88.701328 
1643.379273  	88.751519 
1644.343697  	88.634747 
1645.308122  	87.661556 
1646.272546  	86.044806 
1647.236971  	85.352591 
1648.201395  	85.802967 
1649.165820  	87.354613 
1650.130244  	87.899065 
1651.094669  	87.522416 
1652.059093  	86.319210 
1653.023518  	83.119755 
1653.987942  	82.833944 
1654.952366  	85.218361 
1655.916791  	86.697628 
1656.881215  	86.962919 
1657.845640  	87.124464 
1658.810064  	87.244844 
1659.774489  	87.143244 
1660.738913  	86.605834 
1661.703338  	85.832096 
1662.667762  	84.934548 
1663.632187  	85.291958 
1664.596611  	85.649643 
1665.561036  	85.505524 
1666.525460  	85.223128 
1667.489884  	84.492750 
1668.454309  	82.790692 
1669.418733  	81.761762 
1670.383158  	82.549738 
1671.347582  	82.104672 
1672.312007  	82.192929 
1673.276431  	82.544305 
1674.240856  	81.924598 
1675.205280  	80.462475 
1676.169705  	80.652796 
1677.134129  	81.119649 
1678.098553  	80.835209 
1679.062978  	79.985475 
1680.027402  	78.214447 
1680.991827  	77.973975 
1681.956251  	78.328267 
1682.920676  	76.895705 
1683.885100  	73.092191 
1684.849525  	73.339793 
1685.813949  	76.578526 
1686.778374  	76.964026 
1687.742798  	76.062247 
1688.707222  	75.175528 
1689.671647  	74.986508 
1690.636071  	74.650612 
1691.600496  	74.554806 
1692.564920  	73.916666 
1693.529345  	72.857498 
1694.493769  	71.429854 
1695.458194  	69.259853 
1696.422618  	67.394766 
1697.387043  	67.101470 
1698.351467  	66.188708 
1699.315891  	64.465098 
1700.280316  	60.890066 
1701.244740  	60.752706 
1702.209165  	60.657789 
1703.173589  	59.562784 
1704.138014  	57.685833 
1705.102438  	55.926572 
1706.066863  	54.622783 
1707.031287  	53.222739 
1707.995712  	52.541518 
1708.960136  	51.693233 
1709.924560  	50.387937 
1710.888985  	49.523679 
1711.853409  	49.164778 
1712.817834  	48.493445 
1713.782258  	47.690434 
1714.746683  	47.062764 
1715.711107  	47.601498 
1716.675532  	47.985334 
1717.639956  	47.719756 
1718.604381  	49.337840 
1719.568805  	51.920407 
1720.533230  	53.411977 
1721.497654  	54.605911 
1722.462078  	55.725890 
1723.426503  	56.665950 
1724.390927  	58.215224 
1725.355352  	59.739646 
1726.319776  	61.066652 
1727.284201  	62.381688 
1728.248625  	63.668887 
1729.213050  	64.261676 
1730.177474  	64.883437 
1731.141899  	67.175811 
1732.106323  	68.378405 
1733.070747  	68.212041 
1734.035172  	67.785114 
1734.999596  	71.758822 
1735.964021  	74.727272 
1736.928445  	76.150599 
1737.892870  	77.427726 
1738.857294  	78.313334 
1739.821719  	79.113637 
1740.786143  	81.617488 
1741.750568  	83.177626 
1742.714992  	83.352262 
1743.679416  	83.635315 
1744.643841  	85.572422 
1745.608265  	86.995225 
1746.572690  	87.430711 
1747.537114  	87.643664 
1748.501539  	87.895831 
1749.465963  	88.672719 
1750.430388  	89.267907 
1751.394812  	88.793330 
1752.359237  	90.535687 
1753.323661  	91.922271 
1754.288085  	92.572498 
1755.252510  	92.709072 
1756.216934  	92.003738 
1757.181359  	91.423940 
1758.145783  	92.295492 
1759.110208  	92.843340 
1760.074632  	93.097268 
1761.039057  	92.383821 
1762.003481  	91.404809 
1762.967906  	92.673692 
1763.932330  	93.476885 
1764.896754  	93.620033 
1765.861179  	93.665370 
1766.825603  	93.443227 
1767.790028  	92.348226 
1768.754452  	92.139586 
1769.718877  	93.236921 
1770.683301  	92.866794 
1771.647726  	91.667176 
1772.612150  	91.270082 
1773.576575  	92.599683 
1774.540999  	93.235864 
1775.505423  	92.753131 
1776.469848  	93.057398 
1777.434272  	93.815776 
1778.398697  	93.622038 
1779.363121  	93.225103 
1780.327546  	92.706157 
1781.291970  	92.679386 
1782.256395  	93.471508 
1783.220819  	93.818380 
1784.185244  	93.405034 
1785.149668  	92.768981 
1786.114093  	93.418303 
1787.078517  	93.882170 
1788.042941  	93.849793 
1789.007366  	93.733596 
1789.971790  	93.314505 
1790.936215  	92.202127 
1791.900639  	91.707561 
1792.865064  	91.735239 
1793.829488  	92.879343 
1794.793913  	93.266045 
1795.758337  	92.537801 
1796.722762  	92.600989 
1797.687186  	93.462271 
1798.651610  	93.453436 
1799.616035  	92.790590 
1800.580459  	92.759690 
1801.544884  	92.461090 
1802.509308  	92.234695 
1803.473733  	93.130132 
1804.438157  	93.683288 
1805.402582  	93.674391 
1806.367006  	93.583977 
1807.331431  	93.256561 
1808.295855  	93.173449 
1809.260279  	93.494280 
1810.224704  	92.931080 
1811.189128  	92.519260 
1812.153553  	92.881940 
1813.117977  	93.299703 
1814.082402  	93.713043 
1815.046826  	93.750513 
1816.011251  	93.732246 
1816.975675  	93.385261 
1817.940100  	93.162175 
1818.904524  	93.501412 
1819.868948  	93.653428 
1820.833373  	93.591988 
1821.797797  	93.498668 
1822.762222  	93.233884 
1823.726646  	93.181596 
1824.691071  	92.513391 
1825.655495  	91.873652 
1826.619920  	93.054466 
1827.584344  	93.481015 
1828.548769  	92.919716 
1829.513193  	91.613359 
1830.477617  	91.765100 
1831.442042  	93.089964 
1832.406466  	93.448842 
1833.370891  	93.276675 
1834.335315  	93.518391 
1835.299740  	93.770219 
1836.264164  	93.569797 
1837.228589  	93.003960 
1838.193013  	93.246412 
1839.157438  	93.677150 
1840.121862  	93.770804 
1841.086287  	93.719234 
1842.050711  	93.306336 
1843.015135  	92.908497 
1843.979560  	92.148543 
1844.943984  	92.084058 
1845.908409  	92.994221 
1846.872833  	93.225684 
1847.837258  	92.700211 
1848.801682  	93.120524 
1849.766107  	93.852433 
1850.730531  	94.062805 
1851.694956  	94.065273 
1852.659380  	94.063970 
1853.623804  	94.131884 
1854.588229  	94.120708 
1855.552653  	94.120897 
1856.517078  	94.079843 
1857.481502  	94.025848 
1858.445927  	93.822374 
1859.410351  	93.771391 
1860.374776  	93.884904 
1861.339200  	93.786945 
1862.303625  	93.817771 
1863.268049  	94.017853 
1864.232473  	94.066860 
1865.196898  	94.066435 
1866.161322  	93.602194 
1867.125747  	93.105455 
1868.090171  	92.546363 
1869.054596  	92.027480 
1870.019020  	92.548311 
1870.983445  	93.384404 
1871.947869  	93.958465 
1872.912294  	94.298788 
1873.876718  	94.336735 
1874.841142  	94.242960 
1875.805567  	94.140223 
1876.769991  	94.137769 
1877.734416  	94.151512 
1878.698840  	94.080569 
1879.663265  	93.958377 
1880.627689  	94.053358 
1881.592114  	94.121461 
1882.556538  	94.117888 
1883.520963  	94.150345 
1884.485387  	94.013969 
1885.449811  	93.882448 
1886.414236  	94.098870 
1887.378660  	94.188010 
1888.343085  	93.915239 
1889.307509  	92.973491 
1890.271934  	92.942919 
1891.236358  	93.823464 
1892.200783  	94.081460 
1893.165207  	94.035119 
1894.129632  	93.842800 
1895.094056  	93.335575 
1896.058480  	93.555355 
1897.022905  	94.038410 
1897.987329  	94.046280 
1898.951754  	94.017619 
1899.916178  	94.020960 
1900.880603  	94.011531 
1901.845027  	93.888299 
1902.809452  	93.962120 
1903.773876  	94.069526 
1904.738301  	93.988937 
1905.702725  	93.906629 
1906.667150  	93.911433 
1907.631574  	93.560532 
1908.595998  	93.323269 
1909.560423  	93.194256 
1910.524847  	93.215556 
1911.489272  	93.686349 
1912.453696  	93.812544 
1913.418121  	93.856183 
1914.382545  	93.822890 
1915.346970  	93.854664 
1916.311394  	93.866807 
1917.275819  	93.324963 
1918.240243  	92.532270 
1919.204667  	93.218225 
1920.169092  	93.639576 
1921.133516  	93.563630 
1922.097941  	92.960100 
1923.062365  	92.362754 
1924.026790  	93.287796 
1924.991214  	93.815504 
1925.955639  	93.659206 
1926.920063  	93.676677 
1927.884488  	93.732732 
1928.848912  	93.741516 
1929.813336  	93.745032 
1930.777761  	93.766124 
1931.742185  	93.622118 
1932.706610  	93.590466 
1933.671034  	93.704742 
1934.635459  	93.798312 
1935.599883  	93.731639 
1936.564308  	93.735315 
1937.528732  	93.654056 
1938.493157  	93.733792 
1939.457581  	93.849885 
1940.422005  	93.592423 
1941.386430  	92.959847 
1942.350854  	91.967894 
1943.315279  	92.142238 
1944.279703  	93.103205 
1945.244128  	93.216887 
1946.208552  	93.217639 
1947.172977  	93.176272 
1948.137401  	93.205125 
1949.101826  	93.156677 
1950.066250  	93.365661 
1951.030674  	93.589721 
1951.995099  	93.657777 
1952.959523  	93.624182 
1953.923948  	93.391979 
1954.888372  	93.071484 
1955.852797  	93.204890 
1956.817221  	93.471791 
1957.781646  	93.636023 
1958.746070  	93.583774 
1959.710495  	93.477372 
1960.674919  	93.205595 
1961.639344  	93.262308 
1962.603768  	93.155464 
1963.568192  	93.363875 
1964.532617  	93.798642 
1965.497041  	93.836560 
1966.461466  	93.463920 
1967.425890  	93.270806 
1968.390315  	93.730146 
1969.354739  	94.047237 
1970.319164  	93.879715 
1971.283588  	93.957323 
1972.248013  	93.797228 
1973.212437  	93.846411 
1974.176861  	93.857361 
1975.141286  	94.067505 
1976.105710  	94.336796 
1977.070135  	94.715403 
1978.034559  	94.613632 
1978.998984  	93.669585 
1979.963408  	93.107993 
1980.927833  	93.136217 
1981.892257  	93.174896 
1982.856682  	93.428789 
1983.821106  	93.539152 
1984.785530  	93.478329 
1985.749955  	93.522235 
1986.714379  	93.740911 
1987.678804  	93.500931 
1988.643228  	93.268072 
1989.607653  	93.676502 
1990.572077  	93.586060 
1991.536502  	92.955831 
1992.500926  	92.773938 
1993.465351  	93.188242 
1994.429775  	93.569521 
1995.394199  	93.722902 
1996.358624  	93.798681 
1997.323048  	93.646863 
1998.287473  	93.645059 
1999.251897  	93.930402 
2000.216322  	94.162943 
2001.180746  	94.331668 
2002.145171  	94.308550 
2003.109595  	94.316353 
2004.074020  	94.471860 
2005.038444  	94.361174 
2006.002868  	94.237628 
2006.967293  	94.223262 
2007.931717  	94.008131 
2008.896142  	94.092221 
2009.860566  	94.152322 
2010.824991  	94.075910 
2011.789415  	94.110293 
2012.753840  	94.216711 
2013.718264  	94.001559 
2014.682689  	93.933940 
2015.647113  	94.298133 
2016.611537  	94.204597 
2017.575962  	93.881170 
2018.540386  	93.974613 
2019.504811  	94.200577 
2020.469235  	94.504674 
2021.433660  	94.672676 
2022.398084  	94.449223 
2023.362509  	94.358513 
2024.326933  	94.195292 
2025.291358  	94.038187 
2026.255782  	94.093348 
2027.220207  	94.053472 
2028.184631  	94.163867 
2029.149055  	94.371247 
2030.113480  	94.311103 
2031.077904  	94.221758 
2032.042329  	94.157458 
2033.006753  	94.104013 
2033.971178  	94.051697 
2034.935602  	94.343537 
2035.900027  	94.636627 
2036.864451  	94.521216 
2037.828876  	94.349556 
2038.793300  	94.182444 
2039.757724  	93.958479 
2040.722149  	93.847827 
2041.686573  	93.409051 
2042.650998  	93.401036 
2043.615422  	93.582527 
2044.579847  	93.939674 
2045.544271  	94.039880 
2046.508696  	93.973580 
2047.473120  	93.822955 
2048.437545  	93.851282 
2049.401969  	93.926468 
2050.366393  	93.587827 
2051.330818  	93.509847 
2052.295242  	93.803072 
2053.259667  	93.854033 
2054.224091  	93.702628 
2055.188516  	93.515941 
2056.152940  	93.654678 
2057.117365  	93.713900 
2058.081789  	93.636162 
2059.046214  	93.547046 
2060.010638  	93.401401 
2060.975062  	93.376229 
2061.939487  	93.524523 
2062.903911  	93.552030 
2063.868336  	93.389366 
2064.832760  	93.154873 
2065.797185  	93.321844 
2066.761609  	93.447811 
2067.726034  	93.369091 
2068.690458  	93.334498 
2069.654883  	93.414044 
2070.619307  	93.403518 
2071.583731  	93.398685 
2072.548156  	93.426488 
2073.512580  	93.250796 
2074.477005  	93.062065 
2075.441429  	93.271998 
2076.405854  	93.426854 
2077.370278  	93.285051 
2078.334703  	93.197300 
2079.299127  	93.139391 
2080.263552  	93.098101 
2081.227976  	93.117825 
2082.192401  	93.090167 
2083.156825  	92.989154 
2084.121249  	93.036182 
2085.085674  	93.218995 
2086.050098  	93.209947 
2087.014523  	93.052774 
2087.978947  	93.005632 
2088.943372  	93.039841 
2089.907796  	92.908912 
2090.872221  	92.976871 
2091.836645  	93.349734 
2092.801070  	93.350021 
2093.765494  	93.165424 
2094.729918  	93.109766 
2095.694343  	93.071276 
2096.658767  	92.978628 
2097.623192  	93.041709 
2098.587616  	93.080628 
2099.552041  	93.114515 
2100.516465  	93.180653 
2101.480890  	93.082086 
2102.445314  	92.946628 
2103.409739  	93.063160 
2104.374163  	93.111460 
2105.338587  	93.071958 
2106.303012  	93.012320 
2107.267436  	92.912317 
2108.231861  	92.892681 
2109.196285  	92.920308 
2110.160710  	93.059500 
2111.125134  	93.083516 
2112.089559  	92.966815 
2113.053983  	93.017930 
2114.018408  	93.046488 
2114.982832  	92.875707 
2115.947256  	92.835978 
2116.911681  	92.961212 
2117.876105  	93.120443 
2118.840530  	93.193347 
2119.804954  	93.160708 
2120.769379  	93.089403 
2121.733803  	93.026282 
2122.698228  	93.085642 
2123.662652  	93.093867 
2124.627077  	93.078843 
2125.591501  	93.273917 
2126.555925  	93.438286 
2127.520350  	93.475446 
2128.484774  	93.509737 
2129.449199  	93.599063 
2130.413623  	93.607070 
2131.378048  	93.467127 
2132.342472  	93.620984 
2133.306897  	93.825952 
2134.271321  	93.743839 
2135.235746  	93.509534 
2136.200170  	93.299787 
2137.164594  	93.470300 
2138.129019  	93.860067 
2139.093443  	93.887727 
2140.057868  	93.847596 
2141.022292  	93.848727 
2141.986717  	93.732414 
2142.951141  	93.593639 
2143.915566  	93.834448 
2144.879990  	93.813650 
2145.844415  	93.866848 
2146.808839  	93.856729 
2147.773264  	93.979825 
2148.737688  	94.094367 
2149.702112  	94.099854 
2150.666537  	94.086295 
2151.630961  	94.040879 
2152.595386  	94.211556 
2153.559810  	94.419028 
2154.524235  	94.578719 
2155.488659  	94.758827 
2156.453084  	95.046504 
2157.417508  	95.011396 
2158.381933  	94.814194 
2159.346357  	94.033033 
2160.310781  	93.461183 
2161.275206  	93.478363 
2162.239630  	93.845983 
2163.204055  	94.177959 
2164.168479  	94.264104 
2165.132904  	94.056520 
2166.097328  	93.879005 
2167.061753  	93.889498 
2168.026177  	93.684088 
2168.990602  	93.394140 
2169.955026  	93.544733 
2170.919450  	94.020960 
2171.883875  	94.130822 
2172.848299  	93.918729 
2173.812724  	93.966014 
2174.777148  	94.199056 
2175.741573  	93.949199 
2176.705997  	93.756105 
2177.670422  	93.960599 
2178.634846  	94.086683 
2179.599271  	94.045607 
2180.563695  	93.954981 
2181.528119  	94.013613 
2182.492544  	93.705014 
2183.456968  	93.292800 
2184.421393  	93.224278 
2185.385817  	93.943605 
2186.350242  	94.054375 
2187.314666  	93.570836 
2188.279091  	93.799446 
2189.243515  	93.743378 
2190.207940  	93.504609 
2191.172364  	93.662355 
2192.136788  	93.593441 
2193.101213  	93.473113 
2194.065637  	93.452025 
2195.030062  	93.223420 
2195.994486  	93.067690 
2196.958911  	93.281479 
2197.923335  	93.614625 
2198.887760  	93.640347 
2199.852184  	93.548279 
2200.816609  	93.588697 
2201.781033  	93.588453 
2202.745458  	93.544518 
2203.709882  	93.624491 
2204.674306  	93.679426 
2205.638731  	93.605983 
2206.603155  	93.279368 
2207.567580  	93.350710 
2208.532004  	93.528543 
2209.496429  	93.356351 
2210.460853  	93.277579 
2211.425278  	93.340843 
2212.389702  	93.156248 
2213.354127  	93.024086 
2214.318551  	93.092691 
2215.282975  	93.228366 
2216.247400  	93.299400 
2217.211824  	93.332498 
2218.176249  	93.474296 
2219.140673  	93.423069 
2220.105098  	93.134490 
2221.069522  	93.240172 
2222.033947  	93.464251 
2222.998371  	93.333991 
2223.962796  	93.236464 
2224.927220  	93.374207 
2225.891644  	93.202244 
2226.856069  	93.174406 
2227.820493  	93.263596 
2228.784918  	93.252324 
2229.749342  	93.186645 
2230.713767  	93.138430 
2231.678191  	92.971117 
2232.642616  	92.955232 
2233.607040  	93.331178 
2234.571465  	93.331256 
2235.535889  	93.045319 
2236.500313  	93.026557 
2237.464738  	93.094833 
2238.429162  	93.100152 
2239.393587  	93.036334 
2240.358011  	93.044259 
2241.322436  	93.301034 
2242.286860  	93.331752 
2243.251285  	93.171606 
2244.215709  	93.075571 
2245.180134  	92.949571 
2246.144558  	92.854902 
2247.108982  	92.964104 
2248.073407  	93.096704 
2249.037831  	93.104582 
2250.002256  	92.979715 
2250.966680  	93.033115 
2251.931105  	93.113261 
2252.895529  	92.959201 
2253.859954  	92.970312 
2254.824378  	93.005696 
2255.788803  	92.903184 
2256.753227  	92.803181 
2257.717651  	92.846243 
2258.682076  	92.780746 
2259.646500  	92.783988 
2260.610925  	92.708043 
2261.575349  	92.666834 
2262.539774  	92.758247 
2263.504198  	92.884999 
2264.468623  	92.867046 
2265.433047  	92.845371 
2266.397472  	92.850095 
2267.361896  	92.849118 
2268.326321  	92.871935 
2269.290745  	92.826500 
2270.255169  	92.785911 
2271.219594  	92.868929 
2272.184018  	92.871564 
2273.148443  	92.755725 
2274.112867  	92.677082 
2275.077292  	92.702007 
2276.041716  	92.696903 
2277.006141  	92.737205 
2277.970565  	92.693987 
2278.934990  	92.529382 
2279.899414  	92.438111 
2280.863838  	92.519319 
2281.828263  	92.543030 
2282.792687  	92.494454 
2283.757112  	92.495969 
2284.721536  	92.536963 
2285.685961  	92.514007 
2286.650385  	92.524609 
2287.614810  	92.454207 
2288.579234  	92.371951 
2289.543659  	92.326376 
2290.508083  	92.452175 
2291.472507  	92.404449 
2292.436932  	92.461114 
2293.401356  	92.450506 
2294.365781  	92.372615 
2295.330205  	92.373887 
2296.294630  	92.334628 
2297.259054  	92.331533 
2298.223479  	92.241294 
2299.187903  	92.260718 
2300.152328  	92.321014 
2301.116752  	92.373723 
2302.081176  	92.425354 
2303.045601  	92.297277 
2304.010025  	92.356661 
2304.974450  	92.189570 
2305.938874  	92.207171 
2306.903299  	92.078150 
2307.867723  	92.210355 
2308.832148  	92.101359 
2309.796572  	92.145729 
2310.760997  	92.047937 
2311.725421  	92.131345 
2312.689845  	92.196052 
2313.654270  	92.318503 
2314.618694  	92.343281 
2315.583119  	92.435707 
2316.547543  	92.460454 
2317.511968  	92.534256 
2318.476392  	92.499201 
2319.440817  	92.516022 
2320.405241  	92.530792 
2321.369666  	92.688655 
2322.334090  	92.755748 
2323.298515  	92.758337 
2324.262939  	92.752582 
2325.227363  	93.135097 
2326.191788  	93.518086 
2327.156212  	93.660896 
2328.120637  	93.687166 
2329.085061  	93.720678 
2330.049486  	93.816668 
2331.013910  	93.826732 
2331.978335  	93.935011 
2332.942759  	94.152598 
2333.907184  	94.334810 
2334.871608  	94.388702 
2335.836032  	94.523701 
2336.800457  	94.632525 
2337.764881  	94.706475 
2338.729306  	94.671076 
2339.693730  	94.656276 
2340.658155  	94.773381 
2341.622579  	94.777735 
2342.587004  	94.596758 
2343.551428  	94.464697 
2344.515853  	94.192082 
2345.480277  	93.964742 
2346.444701  	93.700332 
2347.409126  	93.455170 
2348.373550  	93.015174 
2349.337975  	92.742597 
2350.302399  	92.992143 
2351.266824  	93.529148 
2352.231248  	94.087799 
2353.195673  	94.296159 
2354.160097  	94.403009 
2355.124522  	94.705680 
2356.088946  	95.037447 
2357.053370  	95.128812 
2358.017795  	95.142381 
2358.982219  	95.174228 
2359.946644  	95.397860 
2360.911068  	95.501202 
2361.875493  	95.323492 
2362.839917  	95.248315 
2363.804342  	95.190878 
2364.768766  	95.031009 
2365.733191  	94.968602 
2366.697615  	94.781650 
2367.662039  	94.496229 
2368.626464  	94.158564 
2369.590888  	93.885620 
2370.555313  	93.627841 
2371.519737  	93.344826 
2372.484162  	93.146982 
2373.448586  	92.949990 
2374.413011  	92.740572 
2375.377435  	92.509509 
2376.341860  	92.346394 
2377.306284  	92.259943 
2378.270708  	92.153123 
2379.235133  	91.993861 
2380.199557  	91.992217 
2381.163982  	92.038452 
2382.128406  	92.126346 
2383.092831  	92.170139 
2384.057255  	92.165244 
2385.021680  	92.214729 
2385.986104  	92.321593 
2386.950529  	92.381034 
2387.914953  	92.426427 
2388.879378  	92.484250 
2389.843802  	92.535484 
2390.808226  	92.508242 
2391.772651  	92.474345 
2392.737075  	92.472628 
2393.701500  	92.519439 
2394.665924  	92.525001 
2395.630349  	92.526137 
2396.594773  	92.502491 
2397.559198  	92.503555 
2398.523622  	92.578161 
2399.488047  	92.642535 
2400.452471  	92.608124 
2401.416895  	92.569927 
2402.381320  	92.559809 
2403.345744  	92.583758 
2404.310169  	92.594468 
2405.274593  	92.559811 
2406.239018  	92.506362 
2407.203442  	92.510149 
2408.167867  	92.525996 
2409.132291  	92.536993 
2410.096716  	92.517180 
2411.061140  	92.498269 
2412.025564  	92.487417 
2412.989989  	92.478142 
2413.954413  	92.483538 
2414.918838  	92.564371 
2415.883262  	92.615928 
2416.847687  	92.581083 
2417.812111  	92.578282 
2418.776536  	92.540866 
2419.740960  	92.529577 
2420.705385  	92.583373 
2421.669809  	92.551014 
2422.634233  	92.590096 
2423.598658  	92.602655 
2424.563082  	92.568162 
2425.527507  	92.597445 
2426.491931  	92.608359 
2427.456356  	92.560837 
2428.420780  	92.602686 
2429.385205  	92.636529 
2430.349629  	92.631152 
2431.314054  	92.552252 
2432.278478  	92.540920 
2433.242902  	92.566205 
2434.207327  	92.569893 
2435.171751  	92.602241 
2436.136176  	92.668301 
2437.100600  	92.642848 
2438.065025  	92.586508 
2439.029449  	92.625322 
2439.993874  	92.644108 
2440.958298  	92.626047 
2441.922723  	92.601900 
2442.887147  	92.561403 
2443.851572  	92.574685 
2444.815996  	92.628550 
2445.780420  	92.626492 
2446.744845  	92.586512 
2447.709269  	92.587404 
2448.673694  	92.603429 
2449.638118  	92.612471 
2450.602543  	92.599565 
2451.566967  	92.568224 
2452.531392  	92.561670 
2453.495816  	92.539970 
2454.460241  	92.513207 
2455.424665  	92.564324 
2456.389089  	92.599807 
2457.353514  	92.629501 
2458.317938  	92.629259 
2459.282363  	92.617424 
2460.246787  	92.623972 
2461.211212  	92.580514 
2462.175636  	92.593861 
2463.140061  	92.626449 
2464.104485  	92.595307 
2465.068910  	92.579839 
2466.033334  	92.562400 
2466.997758  	92.585350 
2467.962183  	92.643472 
2468.926607  	92.580539 
2469.891032  	92.521871 
2470.855456  	92.534376 
2471.819881  	92.566192 
2472.784305  	92.597084 
2473.748730  	92.602815 
2474.713154  	92.598552 
2475.677579  	92.563298 
2476.642003  	92.589799 
2477.606427  	92.579563 
2478.570852  	92.617345 
2479.535276  	92.633898 
2480.499701  	92.571965 
2481.464125  	92.579172 
2482.428550  	92.602374 
2483.392974  	92.594793 
2484.357399  	92.611692 
2485.321823  	92.498857 
2486.286248  	92.434334 
2487.250672  	92.470111 
2488.215096  	92.522525 
2489.179521  	92.459114 
2490.143945  	92.390832 
2491.108370  	92.372491 
2492.072794  	92.432535 
2493.037219  	92.486854 
2494.001643  	92.469977 
2494.966068  	92.484874 
2495.930492  	92.532486 
2496.894917  	92.541172 
2497.859341  	92.499580 
2498.823765  	92.454685 
2499.788190  	92.465281 
2500.752614  	92.453180 
2501.717039  	92.417362 
2502.681463  	92.393619 
2503.645888  	92.444235 
2504.610312  	92.429012 
2505.574737  	92.379132 
2506.539161  	92.412105 
2507.503586  	92.484825 
2508.468010  	92.477521 
2509.432435  	92.420394 
2510.396859  	92.388667 
2511.361283  	92.387968 
2512.325708  	92.407945 
2513.290132  	92.417743 
2514.254557  	92.453172 
2515.218981  	92.393612 
2516.183406  	92.348044 
2517.147830  	92.379243 
2518.112255  	92.333071 
2519.076679  	92.344297 
2520.041104  	92.358366 
2521.005528  	92.326687 
2521.969952  	92.310989 
2522.934377  	92.321883 
2523.898801  	92.361370 
2524.863226  	92.380655 
2525.827650  	92.335783 
2526.792075  	92.285279 
2527.756499  	92.224558 
2528.720924  	92.273367 
2529.685348  	92.270535 
2530.649773  	92.277799 
2531.614197  	92.316180 
2532.578621  	92.341029 
2533.543046  	92.351210 
2534.507470  	92.355351 
2535.471895  	92.329526 
2536.436319  	92.298174 
2537.400744  	92.357525 
2538.365168  	92.345669 
2539.329593  	92.290759 
2540.294017  	92.231989 
2541.258442  	92.218676 
2542.222866  	92.271714 
2543.187290  	92.353417 
2544.151715  	92.398830 
2545.116139  	92.372485 
2546.080564  	92.310799 
2547.044988  	92.223427 
2548.009413  	92.186360 
2548.973837  	92.246396 
2549.938262  	92.260147 
2550.902686  	92.276177 
2551.867111  	92.332953 
2552.831535  	92.303577 
2553.795959  	92.297029 
2554.760384  	92.318455 
2555.724808  	92.290627 
2556.689233  	92.207441 
2557.653657  	92.186914 
2558.618082  	92.202895 
2559.582506  	92.252473 
2560.546931  	92.242703 
2561.511355  	92.209127 
2562.475780  	92.202186 
2563.440204  	92.251195 
2564.404629  	92.283369 
2565.369053  	92.237739 
2566.333477  	92.261406 
2567.297902  	92.285146 
2568.262326  	92.251982 
2569.226751  	92.158909 
2570.191175  	92.096130 
2571.155600  	92.194544 
2572.120024  	92.248703 
2573.084449  	92.250067 
2574.048873  	92.216857 
2575.013298  	92.149206 
2575.977722  	92.174012 
2576.942146  	92.243667 
2577.906571  	92.220283 
2578.870995  	92.211116 
2579.835420  	92.185783 
2580.799844  	92.201577 
2581.764269  	92.199318 
2582.728693  	92.248568 
2583.693118  	92.227823 
2584.657542  	92.164321 
2585.621967  	92.163015 
2586.586391  	92.136703 
2587.550815  	92.166801 
2588.515240  	92.198122 
2589.479664  	92.131469 
2590.444089  	92.087064 
2591.408513  	92.143359 
2592.372938  	92.185437 
2593.337362  	92.129831 
2594.301787  	92.122680 
2595.266211  	92.121800 
2596.230636  	92.123968 
2597.195060  	92.142289 
2598.159484  	92.204866 
2599.123909  	92.235210 
2600.088333  	92.226256 
2601.052758  	92.164813 
2602.017182  	92.123675 
2602.981607  	92.127818 
2603.946031  	92.142607 
2604.910456  	92.151469 
2605.874880  	92.140231 
2606.839305  	92.125518 
2607.803729  	92.140007 
2608.768153  	92.142605 
2609.732578  	92.115542 
2610.697002  	92.116768 
2611.661427  	92.167919 
2612.625851  	92.145616 
2613.590276  	92.154631 
2614.554700  	92.142328 
2615.519125  	92.118554 
2616.483549  	92.130579 
2617.447974  	92.115972 
2618.412398  	92.123355 
2619.376822  	92.107228 
2620.341247  	92.079496 
2621.305671  	92.066756 
2622.270096  	92.069355 
2623.234520  	92.082848 
2624.198945  	92.092944 
2625.163369  	92.094503 
2626.127794  	92.061846 
2627.092218  	92.067440 
2628.056643  	92.084403 
2629.021067  	92.068595 
2629.985492  	92.083455 
2630.949916  	92.113921 
2631.914340  	92.093670 
2632.878765  	92.088434 
2633.843189  	92.097902 
2634.807614  	92.083120 
2635.772038  	92.061493 
2636.736463  	92.029557 
2637.700887  	92.047192 
2638.665312  	92.059413 
2639.629736  	92.041317 
2640.594161  	92.076384 
2641.558585  	92.111831 
2642.523009  	92.079339 
2643.487434  	92.058526 
2644.451858  	92.091111 
2645.416283  	92.102401 
2646.380707  	92.120580 
2647.345132  	92.138795 
2648.309556  	92.143521 
2649.273981  	92.133739 
2650.238405  	92.143595 
2651.202830  	92.145112 
2652.167254  	92.126828 
2653.131678  	92.132092 
2654.096103  	92.120580 
2655.060527  	92.107298 
2656.024952  	92.106540 
2656.989376  	92.090349 
2657.953801  	92.086549 
2658.918225  	92.111742 
2659.882650  	92.129604 
2660.847074  	92.130543 
2661.811499  	92.174265 
2662.775923  	92.160385 
2663.740347  	92.148630 
2664.704772  	92.148587 
2665.669196  	92.165315 
2666.633621  	92.182233 
2667.598045  	92.187906 
2668.562470  	92.176748 
2669.526894  	92.156389 
2670.491319  	92.124368 
2671.455743  	92.159823 
2672.420168  	92.203584 
2673.384592  	92.201126 
2674.349016  	92.186251 
2675.313441  	92.198106 
2676.277865  	92.199314 
2677.242290  	92.200458 
2678.206714  	92.191213 
2679.171139  	92.180764 
2680.135563  	92.157583 
2681.099988  	92.178979 
2682.064412  	92.201574 
2683.028837  	92.185158 
2683.993261  	92.157513 
2684.957686  	92.176554 
2685.922110  	92.195086 
2686.886534  	92.181436 
2687.850959  	92.168463 
2688.815383  	92.185151 
2689.779808  	92.183676 
2690.744232  	92.159353 
2691.708657  	92.154577 
2692.673081  	92.172426 
2693.637506  	92.160884 
2694.601930  	92.149142 
2695.566355  	92.159233 
2696.530779  	92.186352 
2697.495203  	92.195168 
2698.459628  	92.197757 
2699.424052  	92.186443 
2700.388477  	92.140406 
2701.352901  	92.099158 
2702.317326  	92.104857 
2703.281750  	92.143033 
2704.246175  	92.156976 
2705.210599  	92.138713 
2706.175024  	92.131090 
2707.139448  	92.125520 
2708.103872  	92.118626 
2709.068297  	92.129080 
2710.032721  	92.141490 
2710.997146  	92.129595 
2711.961570  	92.128428 
2712.925995  	92.141297 
2713.890419  	92.129982 
2714.854844  	92.119194 
2715.819268  	92.145184 
2716.783693  	92.138547 
2717.748117  	92.118329 
2718.712541  	92.114546 
2719.676966  	92.101956 
2720.641390  	92.083963 
2721.605815  	92.098368 
2722.570239  	92.102081 
2723.534664  	92.098720 
2724.499088  	92.095307 
2725.463513  	92.087300 
2726.427937  	92.078597 
2727.392362  	92.066214 
2728.356786  	92.051034 
2729.321210  	92.064922 
2730.285635  	92.046008 
2731.250059  	92.002758 
2732.214484  	92.023394 
2733.178908  	92.055294 
2734.143333  	92.053720 
2735.107757  	92.038169 
2736.072182  	92.025950 
2737.036606  	91.998759 
2738.001031  	91.968443 
2738.965455  	91.967292 
2739.929879  	91.982232 
2740.894304  	92.004984 
2741.858728  	91.995997 
2742.823153  	91.971205 
2743.787577  	91.971227 
2744.752002  	91.990007 
2745.716426  	91.972034 
2746.680851  	91.962439 
2747.645275  	91.977363 
2748.609700  	91.964654 
2749.574124  	91.965925 
2750.538549  	91.961387 
2751.502973  	91.912619 
2752.467397  	91.946146 
2753.431822  	91.972401 
2754.396246  	91.976291 
2755.360671  	91.956665 
2756.325095  	91.974126 
2757.289520  	91.991882 
2758.253944  	91.984418 
2759.218369  	91.956568 
2760.182793  	91.931393 
2761.147218  	91.923193 
2762.111642  	91.901734 
2763.076066  	91.914247 
2764.040491  	91.956536 
2765.004915  	91.946813 
2765.969340  	91.934407 
2766.933764  	91.937368 
2767.898189  	91.915619 
2768.862613  	91.898668 
2769.827038  	91.909110 
2770.791462  	91.917888 
2771.755887  	91.887537 
2772.720311  	91.875478 
2773.684735  	91.886630 
2774.649160  	91.880419 
2775.613584  	91.866619 
2776.578009  	91.868954 
2777.542433  	91.868238 
2778.506858  	91.864087 
2779.471282  	91.884079 
2780.435707  	91.882166 
2781.400131  	91.880840 
2782.364556  	91.874849 
2783.328980  	91.851067 
2784.293404  	91.832007 
2785.257829  	91.840511 
2786.222253  	91.850268 
2787.186678  	91.839459 
2788.151102  	91.810466 
2789.115527  	91.833969 
2790.079951  	91.827008 
2791.044376  	91.841957 
2792.008800  	91.831994 
2792.973225  	91.769462 
2793.937649  	91.743924 
2794.902073  	91.740100 
2795.866498  	91.734254 
2796.830922  	91.751289 
2797.795347  	91.743359 
2798.759771  	91.723202 
2799.724196  	91.711925 
2800.688620  	91.695132 
2801.653045  	91.663113 
2802.617469  	91.662095 
2803.581894  	91.699406 
2804.546318  	91.716182 
2805.510743  	91.695136 
2806.475167  	91.668708 
2807.439591  	91.649619 
2808.404016  	91.640740 
2809.368440  	91.661365 
2810.332865  	91.695153 
2811.297289  	91.661140 
2812.261714  	91.655207 
2813.226138  	91.678889 
2814.190563  	91.657709 
2815.154987  	91.685052 
2816.119412  	91.698826 
2817.083836  	91.650548 
2818.048260  	91.642830 
2819.012685  	91.655052 
2819.977109  	91.679864 
2820.941534  	91.679994 
2821.905958  	91.675456 
2822.870383  	91.639516 
2823.834807  	91.643941 
2824.799232  	91.627947 
2825.763656  	91.627147 
2826.728081  	91.612958 
2827.692505  	91.595357 
2828.656929  	91.615209 
2829.621354  	91.611111 
2830.585778  	91.592975 
2831.550203  	91.574130 
2832.514627  	91.518294 
2833.479052  	91.494796 
2834.443476  	91.502915 
2835.407901  	91.509565 
2836.372325  	91.475159 
2837.336750  	91.400614 
2838.301174  	91.353242 
2839.265598  	91.324742 
2840.230023  	91.283030 
2841.194447  	91.256573 
2842.158872  	91.205773 
2843.123296  	91.138148 
2844.087721  	91.013676 
2845.052145  	90.862263 
2846.016570  	90.695139 
2846.980994  	90.520965 
2847.945419  	90.350857 
2848.909843  	90.206934 
2849.874267  	90.129441 
2850.838692  	90.192503 
2851.803116  	90.346730 
2852.767541  	90.460194 
2853.731965  	90.542320 
2854.696390  	90.628618 
2855.660814  	90.726014 
2856.625239  	90.831472 
2857.589663  	90.876045 
2858.554088  	90.872130 
2859.518512  	90.894562 
2860.482936  	90.946174 
2861.447361  	90.959900 
2862.411785  	90.969018 
2863.376210  	90.985929 
2864.340634  	90.974843 
2865.305059  	90.965305 
2866.269483  	90.984607 
2867.233908  	91.008966 
2868.198332  	90.989802 
2869.162757  	90.961723 
2870.127181  	90.971902 
2871.091606  	90.959737 
2872.056030  	90.958951 
2873.020454  	90.947772 
2873.984879  	90.928015 
2874.949303  	90.902784 
2875.913728  	90.912007 
2876.878152  	90.892932 
2877.842577  	90.841338 
2878.807001  	90.834872 
2879.771426  	90.848237 
2880.735850  	90.828514 
2881.700275  	90.816680 
2882.664699  	90.801354 
2883.629123  	90.772647 
2884.593548  	90.738476 
2885.557972  	90.696981 
2886.522397  	90.648055 
2887.486821  	90.638989 
2888.451246  	90.637885 
2889.415670  	90.606548 
2890.380095  	90.553655 
2891.344519  	90.565002 
2892.308944  	90.574046 
2893.273368  	90.528712 
2894.237792  	90.484266 
2895.202217  	90.403237 
2896.166641  	90.379583 
2897.131066  	90.367429 
2898.095490  	90.327599 
2899.059915  	90.284725 
2900.024339  	90.224656 
2900.988764  	90.146576 
2901.953188  	90.083072 
2902.917613  	90.013149 
2903.882037  	89.927587 
2904.846461  	89.845299 
2905.810886  	89.772803 
2906.775310  	89.726206 
2907.739735  	89.642471 
2908.704159  	89.562984 
2909.668584  	89.550013 
2910.633008  	89.534140 
2911.597433  	89.513897 
2912.561857  	89.492982 
2913.526282  	89.437632 
2914.490706  	89.348425 
2915.455130  	89.263708 
2916.419555  	89.246967 
2917.383979  	89.265096 
2918.348404  	89.307795 
2919.312828  	89.417377 
2920.277253  	89.509215 
2921.241677  	89.588219 
2922.206102  	89.734495 
2923.170526  	89.842231 
2924.134951  	89.924389 
2925.099375  	90.021415 
2926.063800  	90.099621 
2927.028224  	90.172242 
2927.992648  	90.258006 
2928.957073  	90.350854 
2929.921497  	90.388774 
2930.885922  	90.404445 
2931.850346  	90.444327 
2932.814771  	90.495579 
2933.779195  	90.532671 
2934.743620  	90.585937 
2935.708044  	90.569990 
2936.672469  	90.550515 
2937.636893  	90.605727 
2938.601317  	90.636631 
2939.565742  	90.639061 
2940.530166  	90.618583 
2941.494591  	90.592499 
2942.459015  	90.546406 
2943.423440  	90.508241 
2944.387864  	90.434605 
2945.352289  	90.358587 
2946.316713  	90.316758 
2947.281138  	90.287688 
2948.245562  	90.252153 
2949.209986  	90.153472 
2950.174411  	90.048019 
2951.138835  	90.008880 
2952.103260  	89.953732 
2953.067684  	89.866204 
2954.032109  	89.792333 
2954.996533  	89.745028 
2955.960958  	89.686059 
2956.925382  	89.630541 
2957.889807  	89.577272 
2958.854231  	89.514871 
2959.818655  	89.484360 
2960.783080  	89.467835 
2961.747504  	89.399513 
2962.711929  	89.382415 
2963.676353  	89.347809 
2964.640778  	89.236542 
2965.605202  	89.150395 
2966.569627  	89.120558 
2967.534051  	89.160864 
2968.498476  	89.226964 
2969.462900  	89.177570 
2970.427324  	89.164523 
2971.391749  	89.210586 
2972.356173  	89.268796 
2973.320598  	89.372474 
2974.285022  	89.461340 
2975.249447  	89.499502 
2976.213871  	89.566171 
2977.178296  	89.670579 
2978.142720  	89.786443 
2979.107145  	89.890698 
2980.071569  	90.018866 
2981.035993  	90.052199 
2982.000418  	90.106316 
2982.964842  	90.229883 
2983.929267  	90.315700 
2984.893691  	90.357858 
2985.858116  	90.426280 
2986.822540  	90.516475 
2987.786965  	90.528304 
2988.751389  	90.547021 
2989.715814  	90.619850 
2990.680238  	90.694321 
2991.644663  	90.741292 
2992.609087  	90.742417 
2993.573511  	90.758073 
2994.537936  	90.795607 
2995.502360  	90.861121 
2996.466785  	90.866064 
2997.431209  	90.845494 
2998.395634  	90.888126 
2999.360058  	90.962890 
3000.324483  	90.958613 
3001.288907  	90.940415 
3002.253332  	90.926298 
3003.217756  	90.919658 
3004.182180  	90.897863 
3005.146605  	90.927904 
3006.111029  	91.012851 
3007.075454  	91.067958 
3008.039878  	91.060960 
3009.004303  	91.097280 
3009.968727  	91.093480 
3010.933152  	91.046440 
3011.897576  	90.989246 
3012.862001  	90.916345 
3013.826425  	91.029807 
3014.790849  	91.139546 
3015.755274  	91.116576 
3016.719698  	91.156306 
3017.684123  	91.240666 
3018.648547  	91.263233 
3019.612972  	91.277871 
3020.577396  	91.320415 
3021.541821  	91.375474 
3022.506245  	91.404934 
3023.470670  	91.427081 
3024.435094  	91.498695 
3025.399518  	91.502082 
3026.363943  	91.499626 
3027.328367  	91.571185 
3028.292792  	91.640661 
3029.257216  	91.672329 
3030.221641  	91.592559 
3031.186065  	91.445383 
3032.150490  	91.410195 
3033.114914  	91.547709 
3034.079339  	91.551422 
3035.043763  	91.510388 
3036.008187  	91.549383 
3036.972612  	91.626906 
3037.937036  	91.658126 
3038.901461  	91.653345 
3039.865885  	91.611610 
3040.830310  	91.598665 
3041.794734  	91.594275 
3042.759159  	91.560787 
3043.723583  	91.578926 
3044.688008  	91.559267 
3045.652432  	91.538302 
3046.616857  	91.519042 
3047.581281  	91.490144 
3048.545705  	91.405551 
3049.510130  	91.306899 
3050.474554  	91.296421 
3051.438979  	91.275139 
3052.403403  	91.262643 
3053.367828  	91.234452 
3054.332252  	91.165795 
3055.296677  	91.162581 
3056.261101  	91.078735 
3057.225526  	91.100608 
3058.189950  	91.242046 
3059.154374  	91.263093 
3060.118799  	91.275532 
3061.083223  	91.320804 
3062.047648  	91.356346 
3063.012072  	91.343838 
3063.976497  	91.220260 
3064.940921  	91.173648 
3065.905346  	91.264898 
3066.869770  	91.221863 
3067.834195  	91.189569 
3068.798619  	91.283404 
3069.763043  	91.309557 
3070.727468  	91.301486 
3071.691892  	91.348423 
3072.656317  	91.361289 
3073.620741  	91.348790 
3074.585166  	91.354558 
3075.549590  	91.356061 
3076.514015  	91.354331 
3077.478439  	91.315231 
3078.442864  	91.324011 
3079.407288  	91.286698 
3080.371712  	91.283710 
3081.336137  	91.352922 
3082.300561  	91.341991 
3083.264986  	91.387317 
3084.229410  	91.461516 
3085.193835  	91.462026 
3086.158259  	91.494817 
3087.122684  	91.454757 
3088.087108  	91.438319 
3089.051533  	91.493141 
3090.015957  	91.489255 
3090.980381  	91.480662 
3091.944806  	91.542518 
3092.909230  	91.600551 
3093.873655  	91.542935 
3094.838079  	91.467467 
3095.802504  	91.471482 
3096.766928  	91.547171 
3097.731353  	91.531767 
3098.695777  	91.484723 
3099.660202  	91.454792 
3100.624626  	91.408735 
3101.589050  	91.349666 
3102.553475  	91.369403 
3103.517899  	91.387455 
3104.482324  	91.457395 
3105.446748  	91.469840 
3106.411173  	91.438819 
3107.375597  	91.450612 
3108.340022  	91.510418 
3109.304446  	91.522549 
3110.268871  	91.482274 
3111.233295  	91.487349 
3112.197720  	91.488442 
3113.162144  	91.523865 
3114.126568  	91.575195 
3115.090993  	91.578530 
3116.055417  	91.504111 
3117.019842  	91.559534 
3117.984266  	91.613101 
3118.948691  	91.525411 
3119.913115  	91.579105 
3120.877540  	91.663143 
3121.841964  	91.579171 
3122.806389  	91.478442 
3123.770813  	91.571530 
3124.735237  	91.633066 
3125.699662  	91.613589 
3126.664086  	91.608882 
3127.628511  	91.650190 
3128.592935  	91.669860 
3129.557360  	91.669431 
3130.521784  	91.675914 
3131.486209  	91.679495 
3132.450633  	91.645638 
3133.415058  	91.598077 
3134.379482  	91.670159 
3135.343906  	91.706980 
3136.308331  	91.673338 
3137.272755  	91.649650 
3138.237180  	91.694975 
3139.201604  	91.733423 
3140.166029  	91.731771 
3141.130453  	91.767464 
3142.094878  	91.767638 
3143.059302  	91.717323 
3144.023727  	91.733299 
3144.988151  	91.763935 
3145.952575  	91.752540 
3146.917000  	91.733863 
3147.881424  	91.770298 
3148.845849  	91.835049 
3149.810273  	91.800820 
3150.774698  	91.802827 
3151.739122  	91.813603 
3152.703547  	91.765423 
3153.667971  	91.766446 
3154.632396  	91.790132 
3155.596820  	91.778438 
3156.561244  	91.707845 
3157.525669  	91.727172 
3158.490093  	91.781006 
3159.454518  	91.785800 
3160.418942  	91.762161 
3161.383367  	91.754399 
3162.347791  	91.741977 
3163.312216  	91.715137 
3164.276640  	91.724872 
3165.241065  	91.816236 
3166.205489  	91.855419 
3167.169914  	91.801284 
3168.134338  	91.740107 
3169.098762  	91.744260 
3170.063187  	91.706948 
3171.027611  	91.709226 
3171.992036  	91.763710 
3172.956460  	91.795572 
3173.920885  	91.756784 
3174.885309  	91.729070 
3175.849734  	91.691303 
3176.814158  	91.663761 
3177.778583  	91.634939 
3178.743007  	91.669259 
3179.707431  	91.711518 
3180.671856  	91.721565 
3181.636280  	91.765130 
3182.600705  	91.752634 
3183.565129  	91.717400 
3184.529554  	91.711076 
3185.493978  	91.666531 
3186.458403  	91.648570 
3187.422827  	91.699701 
3188.387252  	91.702117 
3189.351676  	91.723812 
3190.316100  	91.773052 
3191.280525  	91.782920 
3192.244949  	91.785202 
3193.209374  	91.787562 
3194.173798  	91.738507 
3195.138223  	91.704797 
3196.102647  	91.647498 
3197.067072  	91.584156 
3198.031496  	91.571517 
3198.995921  	91.680178 
3199.960345  	91.719310 
3200.924769  	91.743071 
3201.889194  	91.765004 
3202.853618  	91.763017 
3203.818043  	91.803248 
3204.782467  	91.773451 
3205.746892  	91.688542 
3206.711316  	91.641087 
3207.675741  	91.688225 
3208.640165  	91.733580 
3209.604590  	91.758583 
3210.569014  	91.769723 
3211.533438  	91.790925 
3212.497863  	91.738225 
3213.462287  	91.667494 
3214.426712  	91.601302 
3215.391136  	91.610222 
3216.355561  	91.651060 
3217.319985  	91.664292 
3218.284410  	91.659053 
3219.248834  	91.625261 
3220.213259  	91.662784 
3221.177683  	91.744416 
3222.142107  	91.747407 
3223.106532  	91.734431 
3224.070956  	91.700830 
3225.035381  	91.653968 
3225.999805  	91.654593 
3226.964230  	91.683336 
3227.928654  	91.666375 
3228.893079  	91.733157 
3229.857503  	91.762645 
3230.821928  	91.713538 
3231.786352  	91.685603 
3232.750777  	91.685300 
3233.715201  	91.728478 
3234.679625  	91.737768 
3235.644050  	91.741229 
3236.608474  	91.718693 
3237.572899  	91.711987 
3238.537323  	91.748404 
3239.501748  	91.718616 
3240.466172  	91.653323 
3241.430597  	91.667687 
3242.395021  	91.722719 
3243.359446  	91.686755 
3244.323870  	91.634462 
3245.288294  	91.543020 
3246.252719  	91.589115 
3247.217143  	91.689586 
3248.181568  	91.747708 
3249.145992  	91.719937 
3250.110417  	91.709163 
3251.074841  	91.692544 
3252.039266  	91.678035 
3253.003690  	91.695221 
3253.968115  	91.599451 
3254.932539  	91.534779 
3255.896963  	91.611785 
3256.861388  	91.611727 
3257.825812  	91.639328 
3258.790237  	91.649648 
3259.754661  	91.644160 
3260.719086  	91.644770 
3261.683510  	91.692809 
3262.647935  	91.714751 
3263.612359  	91.713307 
3264.576784  	91.706381 
3265.541208  	91.682703 
3266.505632  	91.682963 
3267.470057  	91.706449 
3268.434481  	91.696750 
3269.398906  	91.678179 
3270.363330  	91.652519 
3271.327755  	91.652674 
3272.292179  	91.674689 
3273.256604  	91.627027 
3274.221028  	91.604527 
3275.185453  	91.678169 
3276.149877  	91.614768 
3277.114301  	91.585737 
3278.078726  	91.601289 
3279.043150  	91.558842 
3280.007575  	91.578069 
3280.971999  	91.642204 
3281.936424  	91.644887 
3282.900848  	91.602124 
3283.865273  	91.583753 
3284.829697  	91.610506 
3285.794122  	91.611476 
3286.758546  	91.592800 
3287.722971  	91.557243 
3288.687395  	91.551748 
3289.651819  	91.592643 
3290.616244  	91.584570 
3291.580668  	91.538591 
3292.545093  	91.549601 
3293.509517  	91.569382 
3294.473942  	91.564569 
3295.438366  	91.541702 
3296.402791  	91.534373 
3297.367215  	91.514011 
3298.331640  	91.500242 
3299.296064  	91.551724 
3300.260488  	91.603150 
3301.224913  	91.651986 
3302.189337  	91.670646 
3303.153762  	91.592648 
3304.118186  	91.574018 
3305.082611  	91.575894 
3306.047035  	91.555021 
3307.011460  	91.609171 
3307.975884  	91.600538 
3308.940309  	91.512513 
3309.904733  	91.581353 
3310.869157  	91.577913 
3311.833582  	91.529736 
3312.798006  	91.561909 
3313.762431  	91.544503 
3314.726855  	91.582012 
3315.691280  	91.609254 
3316.655704  	91.578241 
3317.620129  	91.568641 
3318.584553  	91.599726 
3319.548978  	91.585371 
3320.513402  	91.594644 
3321.477826  	91.602326 
3322.442251  	91.574511 
3323.406675  	91.627310 
3324.371100  	91.661831 
3325.335524  	91.550371 
3326.299949  	91.495151 
3327.264373  	91.498037 
3328.228798  	91.475561 
3329.193222  	91.433476 
3330.157647  	91.441974 
3331.122071  	91.504787 
3332.086495  	91.592849 
3333.050920  	91.621900 
3334.015344  	91.545673 
3334.979769  	91.454673 
3335.944193  	91.475036 
3336.908618  	91.379791 
3337.873042  	91.404732 
3338.837467  	91.509700 
3339.801891  	91.561796 
3340.766316  	91.611811 
3341.730740  	91.521408 
3342.695164  	91.457113 
3343.659589  	91.571483 
3344.624013  	91.677107 
3345.588438  	91.650698 
3346.552862  	91.621018 
3347.517287  	91.599009 
3348.481711  	91.610506 
3349.446136  	91.661372 
3350.410560  	91.671628 
3351.374985  	91.680124 
3352.339409  	91.705895 
3353.303834  	91.663503 
3354.268258  	91.616703 
3355.232682  	91.584974 
3356.197107  	91.499884 
3357.161531  	91.559037 
3358.125956  	91.651427 
3359.090380  	91.657970 
3360.054805  	91.552785 
3361.019229  	91.497466 
3361.983654  	91.443922 
3362.948078  	91.525621 
3363.912503  	91.594095 
3364.876927  	91.542113 
3365.841351  	91.527749 
3366.805776  	91.540036 
3367.770200  	91.489977 
3368.734625  	91.484071 
3369.699049  	91.582830 
3370.663474  	91.657184 
3371.627898  	91.621552 
3372.592323  	91.568223 
3373.556747  	91.571922 
3374.521172  	91.625619 
3375.485596  	91.620408 
3376.450020  	91.582369 
3377.414445  	91.596762 
3378.378869  	91.626513 
3379.343294  	91.673804 
3380.307718  	91.653063 
3381.272143  	91.678564 
3382.236567  	91.643631 
3383.200992  	91.542806 
3384.165416  	91.407705 
3385.129841  	91.383363 
3386.094265  	91.498086 
3387.058689  	91.585612 
3388.023114  	91.648967 
3388.987538  	91.678889 
3389.951963  	91.631625 
3390.916387  	91.563032 
3391.880812  	91.461734 
3392.845236  	91.272646 
3393.809661  	91.322121 
3394.774085  	91.516921 
3395.738510  	91.526716 
3396.702934  	91.455417 
3397.667358  	91.319298 
3398.631783  	91.509548 
3399.596207  	91.675600 
3400.560632  	91.547620 
3401.525056  	91.441414 
3402.489481  	91.518982 
3403.453905  	91.475208 
3404.418330  	91.465797 
3405.382754  	91.503619 
3406.347179  	91.482275 
3407.311603  	91.426787 
3408.276028  	91.379964 
3409.240452  	91.246259 
3410.204876  	91.198744 
3411.169301  	91.313988 
3412.133725  	91.425006 
3413.098150  	91.401919 
3414.062574  	91.293069 
3415.026999  	91.204871 
3415.991423  	91.118952 
3416.955848  	91.182430 
3417.920272  	91.215160 
3418.884697  	91.132721 
3419.849121  	90.871930 
3420.813545  	90.619917 
3421.777970  	90.694588 
3422.742394  	90.734467 
3423.706819  	90.800412 
3424.671243  	90.925621 
3425.635668  	90.996228 
3426.600092  	90.969875 
3427.564517  	90.930637 
3428.528941  	90.911252 
3429.493366  	90.919934 
3430.457790  	90.912334 
3431.422214  	90.880999 
3432.386639  	90.873470 
3433.351063  	90.955096 
3434.315488  	91.092723 
3435.279912  	91.075222 
3436.244337  	91.025238 
3437.208761  	91.015747 
3438.173186  	91.045950 
3439.137610  	91.063500 
3440.102035  	91.055006 
3441.066459  	91.036070 
3442.030883  	90.956220 
3442.995308  	90.800647 
3443.959732  	90.981608 
3444.924157  	91.061776 
3445.888581  	90.992348 
3446.853006  	90.535828 
3447.817430  	90.275718 
3448.781855  	90.854201 
3449.746279  	91.142390 
3450.710704  	91.187614 
3451.675128  	91.192596 
3452.639552  	91.278413 
3453.603977  	91.336969 
3454.568401  	91.326709 
3455.532826  	91.227879 
3456.497250  	91.208438 
3457.461675  	91.224045 
3458.426099  	91.261116 
3459.390524  	91.338190 
3460.354948  	91.329830 
3461.319373  	91.166465 
3462.283797  	91.062398 
3463.248221  	91.013005 
3464.212646  	91.190935 
3465.177070  	91.238314 
3466.141495  	91.154023 
3467.105919  	90.989876 
3468.070344  	91.261791 
3469.034768  	91.479454 
3469.999193  	91.411951 
3470.963617  	91.336110 
3471.928042  	91.427880 
3472.892466  	91.482732 
3473.856891  	91.425104 
3474.821315  	91.196746 
3475.785739  	91.201289 
3476.750164  	91.330952 
3477.714588  	91.400367 
3478.679013  	91.439658 
3479.643437  	91.340274 
3480.607862  	90.950073 
3481.572286  	90.776607 
3482.536711  	90.726452 
3483.501135  	91.065447 
3484.465560  	91.313947 
3485.429984  	91.249794 
3486.394408  	91.255289 
3487.358833  	91.291856 
3488.323257  	91.017954 
3489.287682  	91.089521 
3490.252106  	91.337718 
3491.216531  	91.348592 
3492.180955  	91.422462 
3493.145380  	91.523328 
3494.109804  	91.537231 
3495.074229  	91.376469 
3496.038653  	91.084724 
3497.003077  	90.974152 
3497.967502  	91.193507 
3498.931926  	91.348225 
3499.896351  	91.233304 
3500.860775  	91.105696 
3501.825200  	90.709576 
3502.789624  	90.198131 
3503.754049  	90.147512 
3504.718473  	90.594624 
3505.682898  	90.963237 
3506.647322  	91.256600 
3507.611746  	91.362240 
3508.576171  	91.027978 
3509.540595  	90.252042 
3510.505020  	90.502675 
3511.469444  	91.059387 
3512.433869  	91.151637 
3513.398293  	91.210692 
3514.362718  	91.366228 
3515.327142  	91.514735 
3516.291567  	91.425252 
3517.255991  	91.174678 
3518.220415  	91.079038 
3519.184840  	91.118007 
3520.149264  	91.221582 
3521.113689  	91.332319 
3522.078113  	91.038124 
3523.042538  	90.164608 
3524.006962  	89.783796 
3524.971387  	90.237208 
3525.935811  	90.442959 
3526.900236  	90.270936 
3527.864660  	90.100828 
3528.829085  	90.224310 
3529.793509  	90.455634 
3530.757933  	90.707779 
3531.722358  	90.736088 
3532.686782  	91.061039 
3533.651207  	91.282573 
3534.615631  	91.312945 
3535.580056  	90.955630 
3536.544480  	90.226438 
3537.508905  	90.489419 
3538.473329  	91.111840 
3539.437754  	91.130145 
3540.402178  	91.134805 
3541.366602  	91.163811 
3542.331027  	91.139329 
3543.295451  	90.766119 
3544.259876  	90.275083 
3545.224300  	89.293711 
3546.188725  	89.122950 
3547.153149  	89.307868 
3548.117574  	89.866919 
3549.081998  	90.728908 
3550.046423  	91.005974 
3551.010847  	90.919896 
3551.975271  	90.291579 
3552.939696  	90.000144 
3553.904120  	90.335957 
3554.868545  	90.770271 
3555.832969  	91.162037 
3556.797394  	91.113189 
3557.761818  	91.146927 
3558.726243  	91.217824 
3559.690667  	90.649631 
3560.655092  	90.075779 
3561.619516  	90.576205 
3562.583940  	90.663543 
3563.548365  	90.514193 
3564.512789  	90.398751 
3565.477214  	89.409387 
3566.441638  	87.016771 
3567.406063  	86.984013 
3568.370487  	87.564076 
3569.334912  	89.247548 
3570.299336  	90.436272 
3571.263761  	90.646540 
3572.228185  	91.029370 
3573.192609  	91.045791 
3574.157034  	90.947877 
3575.121458  	90.905500 
3576.085883  	90.980781 
3577.050307  	90.834610 
3578.014732  	90.869667 
3578.979156  	90.987508 
3579.943581  	90.603011 
3580.908005  	90.588379 
3581.872430  	90.973670 
3582.836854  	90.934054 
3583.801278  	90.867267 
3584.765703  	90.917087 
3585.730127  	90.354684 
3586.694552  	88.501007 
3587.658976  	87.550829 
3588.623401  	87.940181 
3589.587825  	89.268402 
3590.552250  	90.673251 
3591.516674  	91.019910 
3592.481099  	90.830398 
3593.445523  	90.009396 
3594.409948  	90.125319 
3595.374372  	89.637472 
3596.338796  	89.527037 
3597.303221  	90.486450 
3598.267645  	90.529013 
3599.232070  	90.199794 
3600.196494  	90.245243 
3601.160919  	89.941159 
3602.125343  	90.363570 
3603.089768  	90.688376 
3604.054192  	90.982308 
3605.018617  	91.110270 
3605.983041  	90.873305 
3606.947465  	89.616633 
3607.911890  	89.036347 
3608.876314  	89.293903 
3609.840739  	89.111137 
3610.805163  	90.214444 
3611.769588  	90.109066 
3612.734012  	88.783275 
3613.698437  	88.990554 
3614.662861  	89.172761 
3615.627286  	89.336615 
3616.591710  	90.314404 
3617.556134  	89.576055 
3618.520559  	88.662570 
3619.484983  	88.520315 
3620.449408  	88.699821 
3621.413832  	89.592533 
3622.378257  	90.395020 
3623.342681  	90.857833 
3624.307106  	91.016871 
3625.271530  	90.972181 
3626.235955  	90.452375 
3627.200379  	90.071823 
3628.164803  	88.890444 
3629.129228  	86.024443 
3630.093652  	87.043230 
3631.058077  	89.579919 
3632.022501  	90.500491 
3632.986926  	90.452278 
3633.951350  	89.684680 
3634.915775  	90.252348 
3635.880199  	91.000458 
3636.844624  	91.049651 
3637.809048  	90.795630 
3638.773472  	90.777241 
3639.737897  	91.086444 
3640.702321  	91.054306 
3641.666746  	90.680727 
3642.631170  	90.196563 
3643.595595  	90.510330 
3644.560019  	90.948493 
3645.524444  	90.566828 
3646.488868  	89.273344 
3647.453293  	87.358694 
3648.417717  	87.669849 
3649.382142  	87.329691 
3650.346566  	86.356869 
3651.310990  	86.676130 
3652.275415  	89.242165 
3653.239839  	90.629482 
3654.204264  	90.920323 
3655.168688  	90.701570 
3656.133113  	89.627163 
3657.097537  	89.593909 
3658.061962  	90.839182 
3659.026386  	91.050239 
3659.990811  	90.891576 
3660.955235  	91.071131 
3661.919659  	91.405028 
3662.884084  	91.438144 
3663.848508  	91.431800 
3664.812933  	91.350415 
3665.777357  	91.383707 
3666.741782  	91.420695 
3667.706206  	91.239723 
3668.670631  	90.085201 
3669.635055  	88.857755 
3670.599480  	88.158198 
3671.563904  	89.172722 
3672.528328  	90.770099 
3673.492753  	90.795763 
3674.457177  	89.282141 
3675.421602  	86.184884 
3676.386026  	87.278067 
3677.350451  	89.294655 
3678.314875  	89.979430 
3679.279300  	89.974376 
3680.243724  	90.173850 
3681.208149  	91.114861 
3682.172573  	91.471381 
3683.136997  	91.454689 
3684.101422  	91.237596 
3685.065846  	91.140424 
3686.030271  	91.289267 
3686.994695  	91.068492 
3687.959120  	90.113009 
3688.923544  	89.148015 
3689.887969  	89.752325 
3690.852393  	88.975520 
3691.816818  	88.970287 
3692.781242  	90.716315 
3693.745666  	91.172475 
3694.710091  	91.277318 
3695.674515  	91.325395 
3696.638940  	91.188375 
3697.603364  	91.358627 
3698.567789  	91.657373 
3699.532213  	91.508164 
3700.496638  	91.374219 
3701.461062  	90.469151 
3702.425487  	89.998723 
3703.389911  	91.148039 
3704.354335  	91.507207 
3705.318760  	91.389455 
3706.283184  	91.395963 
3707.247609  	91.453388 
3708.212033  	91.332331 
3709.176458  	90.598889 
3710.140882  	90.060176 
3711.105307  	89.695907 
3712.069731  	88.377846 
3713.034156  	88.881708 
3713.998580  	90.445007 
3714.963005  	90.445102 
3715.927429  	90.748053 
3716.891853  	91.396797 
3717.856278  	91.455023 
3718.820702  	90.699516 
3719.785127  	90.458252 
3720.749551  	91.117230 
3721.713976  	90.547777 
3722.678400  	89.167670 
3723.642825  	90.032333 
3724.607249  	90.348180 
3725.571674  	89.514092 
3726.536098  	89.193585 
3727.500522  	89.637391 
3728.464947  	90.772530 
3729.429371  	91.392488 
3730.393796  	91.219171 
3731.358220  	90.696455 
3732.322645  	89.845953 
3733.287069  	90.143326 
3734.251494  	89.198098 
3735.215918  	85.705171 
3736.180343  	86.255290 
3737.144767  	88.175865 
3738.109191  	89.266890 
3739.073616  	89.688002 
3740.038040  	90.348335 
3741.002465  	89.928740 
3741.966889  	90.071698 
3742.931314  	90.551054 
3743.895738  	89.224334 
3744.860163  	85.678666 
3745.824587  	88.914627 
3746.789012  	89.842092 
3747.753436  	89.683518 
3748.717860  	89.391339 
3749.682285  	88.907986 
3750.646709  	89.010711 
3751.611134  	88.371302 
3752.575558  	87.290836 
3753.539983  	89.295021 
3754.504407  	90.318862 
3755.468832  	90.811134 
3756.433256  	90.421216 
3757.397681  	90.508021 
3758.362105  	90.708383 
3759.326529  	89.519122 
3760.290954  	89.176595 
3761.255378  	90.919793 
3762.219803  	91.290156 
3763.184227  	91.275160 
3764.148652  	91.265065 
3765.113076  	90.729534 
3766.077501  	89.867861 
3767.041925  	90.786197 
3768.006350  	91.310765 
3768.970774  	90.896121 
3769.935199  	89.774870 
3770.899623  	90.193801 
3771.864047  	91.062801 
3772.828472  	91.386533 
3773.792896  	91.446281 
3774.757321  	91.560895 
3775.721745  	91.730852 
3776.686170  	91.829201 
3777.650594  	91.626242 
3778.615019  	91.073857 
3779.579443  	90.168391 
3780.543868  	90.558021 
3781.508292  	91.391628 
3782.472716  	91.422679 
3783.437141  	91.427435 
3784.401565  	91.003516 
3785.365990  	90.547984 
3786.330414  	90.989020 
3787.294839  	91.392409 
3788.259263  	91.577669 
3789.223688  	91.610176 
3790.188112  	91.626260 
3791.152537  	91.674874 
3792.116961  	91.685320 
3793.081385  	91.689323 
3794.045810  	91.647428 
3795.010234  	91.451322 
3795.974659  	90.796821 
3796.939083  	90.020255 
3797.903508  	90.497423 
3798.867932  	90.993939 
3799.832357  	90.995136 
3800.796781  	89.782227 
3801.761206  	88.380103 
3802.725630  	89.212850 
3803.690054  	90.272218 
3804.654479  	91.118293 
3805.618903  	91.128952 
3806.583328  	90.313935 
3807.547752  	89.882433 
3808.512177  	91.093996 
3809.476601  	91.396108 
3810.441026  	91.389803 
3811.405450  	91.472660 
3812.369875  	91.630554 
3813.334299  	91.719886 
3814.298723  	91.509874 
3815.263148  	90.668975 
3816.227572  	89.207132 
3817.191997  	90.202900 
3818.156421  	91.006643 
3819.120846  	90.760553 
3820.085270  	89.798003 
3821.049695  	87.968183 
3822.014119  	88.290550 
3822.978544  	90.220485 
3823.942968  	90.777489 
3824.907392  	90.965983 
3825.871817  	90.841702 
3826.836241  	90.253050 
3827.800666  	90.462984 
3828.765090  	91.152615 
3829.729515  	91.434147 
3830.693939  	91.209006 
3831.658364  	90.394666 
3832.622788  	90.637842 
3833.587213  	91.242179 
3834.551637  	90.691698 
3835.516062  	90.077133 
3836.480486  	90.669350 
3837.444910  	89.967226 
3838.409335  	88.819369 
3839.373759  	89.445189 
3840.338184  	88.860309 
3841.302608  	89.004364 
3842.267033  	90.473924 
3843.231457  	90.473020 
3844.195882  	89.696134 
3845.160306  	90.719244 
3846.124731  	91.312815 
3847.089155  	91.424014 
3848.053579  	91.464244 
3849.018004  	91.224708 
3849.982428  	90.678789 
3850.946853  	90.638144 
3851.911277  	89.575421 
3852.875702  	87.809987 
3853.840126  	86.968490 
3854.804551  	87.945193 
3855.768975  	90.183423 
3856.733400  	90.076558 
3857.697824  	89.588512 
3858.662248  	90.753053 
3859.626673  	91.435320 
3860.591097  	91.375559 
3861.555522  	90.588638 
3862.519946  	89.991350 
3863.484371  	90.338911 
3864.448795  	89.435547 
3865.413220  	88.527281 
3866.377644  	90.304470 
3867.342069  	91.283873 
3868.306493  	90.982621 
3869.270917  	89.376066 
3870.235342  	87.509819 
3871.199766  	89.232143 
3872.164191  	90.427436 
3873.128615  	90.576684 
3874.093040  	89.090938 
3875.057464  	89.398783 
3876.021889  	91.252794 
3876.986313  	91.630743 
3877.950738  	91.607265 
3878.915162  	91.351339 
3879.879586  	90.122517 
3880.844011  	88.272579 
3881.808435  	89.816792 
3882.772860  	90.775448 
3883.737284  	90.382340 
3884.701709  	90.260610 
3885.666133  	89.278435 
3886.630558  	89.188515 
3887.594982  	90.949782 
3888.559407  	91.422215 
3889.523831  	91.369705 
3890.488256  	90.819128 
3891.452680  	89.479328 
3892.417104  	89.613337 
3893.381529  	90.658755 
3894.345953  	90.612081 
3895.310378  	90.968812 
3896.274802  	91.481626 
3897.239227  	91.446385 
3898.203651  	90.634846 
3899.168076  	89.379771 
3900.132500  	89.420665 
3901.096925  	90.190570 
3902.061349  	88.737437 
3903.025773  	88.888616 
3903.990198  	89.240389 
3904.954622  	88.827311 
3905.919047  	89.223850 
3906.883471  	90.154001 
3907.847896  	91.301982 
3908.812320  	91.614538 
3909.776745  	91.641970 
3910.741169  	91.647160 
3911.705594  	91.650838 
3912.670018  	91.601648 
3913.634442  	91.588929 
3914.598867  	91.599961 
3915.563291  	91.422724 
3916.527716  	90.353052 
3917.492140  	89.523208 
3918.456565  	90.604082 
3919.420989  	90.872351 
3920.385414  	90.146704 
3921.349838  	90.821142 
3922.314263  	91.515744 
3923.278687  	91.082692 
3924.243111  	90.061463 
3925.207536  	89.560989 
3926.171960  	90.561228 
3927.136385  	91.447284 
3928.100809  	91.428216 
3929.065234  	91.184336 
3930.029658  	90.841605 
3930.994083  	90.614320 
3931.958507  	90.118254 
3932.922932  	89.725492 
3933.887356  	90.678619 
3934.851780  	91.138936 
3935.816205  	91.443855 
3936.780629  	91.609281 
3937.745054  	91.556046 
3938.709478  	91.349857 
3939.673903  	91.521546 
3940.638327  	91.600880 
3941.602752  	91.369053 
3942.567176  	90.283271 
3943.531601  	89.884003 
3944.496025  	90.898657 
3945.460449  	91.357097 
3946.424874  	91.418145 
3947.389298  	90.714678 
3948.353723  	90.290579 
3949.318147  	90.620068 
3950.282572  	90.339161 
3951.246996  	90.838833 
3952.211421  	91.482264 
3953.175845  	91.392622 
3954.140270  	91.452169 
3955.104694  	91.556477 
3956.069119  	91.467966 
3957.033543  	91.278250 
3957.997967  	91.273513 
3958.962392  	91.393234 
3959.926816  	91.447200 
3960.891241  	91.390636 
3961.855665  	90.892663 
3962.820090  	90.864703 
3963.784514  	91.476888 
3964.748939  	91.554042 
3965.713363  	91.575782 
3966.677788  	91.658145 
3967.642212  	91.702069 
3968.606636  	91.518782 
3969.571061  	91.285003 
3970.535485  	91.413747 
3971.499910  	91.492070 
3972.464334  	91.292733 
3973.428759  	91.425605 
3974.393183  	91.526655 
3975.357608  	91.313559 
3976.322032  	91.130961 
3977.286457  	91.375479 
3978.250881  	91.676375 
3979.215305  	91.669014 
3980.179730  	91.568021 
3981.144154  	91.525609 
3982.108579  	91.472475 
3983.073003  	91.502305 
3984.037428  	91.658017 
3985.001852  	91.669089 
3985.966277  	91.655085 
3986.930701  	91.695502 
3987.895126  	91.698273 
3988.859550  	91.671130 
3989.823974  	91.514699 
3990.788399  	91.241768 
3991.752823  	91.364900 
3992.717248  	91.546908 
3993.681672  	91.523064 
3994.646097  	91.412281 
3995.610521  	91.338877 
3996.574946  	91.556986 
3997.539370  	91.698423 
3998.503795  	91.692256 
3999.468219  	91.655922 
4000.432643  	91.698869 
4001.397068  	91.685719 
4002.361492  	91.673938 
4003.325917  	91.643356 
4004.290341  	91.671630 
4005.254766  	91.687667 
4006.219190  	91.658256 
4007.183615  	91.586173 
4008.148039  	91.475046 
4009.112464  	91.400835 
4010.076888  	91.547402 
4011.041313  	91.595382 
4012.005737  	91.621685 
4012.970161  	91.592119 
4013.934586  	91.590981 
4014.899010  	91.641775 
4015.863435  	91.635195 
4016.827859  	91.597736 
4017.792284  	91.628794 
4018.756708  	91.643813 
4019.721133  	91.570688 
4020.685557  	91.550737 
4021.649982  	91.625134 
4022.614406  	91.656632 
4023.578830  	91.589824 
4024.543255  	91.517063 
4025.507679  	91.481233 
4026.472104  	91.565642 
4027.436528  	91.653436 
4028.400953  	91.670045 
4029.365377  	91.630659 
4030.329802  	91.588591 
4031.294226  	91.652330 
4032.258651  	91.682518 
4033.223075  	91.679932 
4034.187499  	91.666161 
4035.151924  	91.631699 
4036.116348  	91.606240 
4037.080773  	91.648414 
4038.045197  	91.685388 
4039.009622  	91.649270 
4039.974046  	91.621448 
4040.938471  	91.635693 
4041.902895  	91.672159 
4042.867320  	91.638571 
4043.831744  	91.518892 
4044.796168  	91.421668 
4045.760593  	91.461666 
4046.725017  	91.592003 
4047.689442  	91.604920 
4048.653866  	91.601380 
4049.618291  	91.638481 
4050.582715  	91.675350 
4051.547140  	91.615845 
4052.511564  	91.600214 
4053.475989  	91.651348 
4054.440413  	91.647477 
4055.404837  	91.573811 
4056.369262  	91.600916 
4057.333686  	91.656805 
4058.298111  	91.657822 
4059.262535  	91.608778 
4060.226960  	91.580001 
4061.191384  	91.567432 
4062.155809  	91.615302 
4063.120233  	91.615868 
4064.084658  	91.583146 
4065.049082  	91.582121 
4066.013506  	91.629815 
4066.977931  	91.633087 
4067.942355  	91.609840 
4068.906780  	91.568497 
4069.871204  	91.551113 
4070.835629  	91.557088 
4071.800053  	91.603798 
4072.764478  	91.599126 
4073.728902  	91.528546 
4074.693327  	91.546958 
4075.657751  	91.627976 
4076.622176  	91.588666 
4077.586600  	91.553765 
4078.551024  	91.541679 
4079.515449  	91.524512 
4080.479873  	91.543350 
4081.444298  	91.561182 
4082.408722  	91.508537 
4083.373147  	91.472340 
4084.337571  	91.463026 
4085.301996  	91.501643 
4086.266420  	91.500510 
4087.230845  	91.439265 
4088.195269  	91.391271 
4089.159693  	91.455458 
4090.124118  	91.502798 
4091.088542  	91.523779 
4092.052967  	91.552745 
4093.017391  	91.569469 
4093.981816  	91.536084 
4094.946240  	91.514766 
4095.910665  	91.562138 
4096.875089  	91.621367 
4097.839514  	91.553277 
4098.803938  	91.465894 
4099.768362  	91.518260 
4100.732787  	91.572822 
4101.697211  	91.561385 
4102.661636  	91.570589 
4103.626060  	91.598823 
4104.590485  	91.571311 
4105.554909  	91.494384 
4106.519334  	91.455676 
4107.483758  	91.513292 
4108.448183  	91.580286 
4109.412607  	91.575764 
4110.377031  	91.526926 
4111.341456  	91.578953 
4112.305880  	91.622772 
4113.270305  	91.630124 
4114.234729  	91.652024 
4115.199154  	91.628974 
4116.163578  	91.577986 
4117.128003  	91.581824 
4118.092427  	91.605762 
4119.056852  	91.592100 
4120.021276  	91.543315 
4120.985700  	91.552559 
4121.950125  	91.606634 
4122.914549  	91.568765 
4123.878974  	91.549535 
4124.843398  	91.537662 
4125.807823  	91.581170 
4126.772247  	91.574219 
4127.736672  	91.562037 
4128.701096  	91.564571 
4129.665521  	91.552707 
4130.629945  	91.543208 
4131.594370  	91.552005 
4132.558794  	91.587073 
4133.523218  	91.551805 
4134.487643  	91.535297 
4135.452067  	91.588597 
4136.416492  	91.619232 
4137.380916  	91.623503 
4138.345341  	91.602520 
4139.309765  	91.547343 
4140.274190  	91.562333 
4141.238614  	91.548097 
4142.203039  	91.549041 
4143.167463  	91.670692 
4144.131887  	91.644075 
4145.096312  	91.590287 
4146.060736  	91.603661 
4147.025161  	91.616858 
4147.989585  	91.606429 
4148.954010  	91.569782 
4149.918434  	91.556860 
4150.882859  	91.576380 
4151.847283  	91.576044 
4152.811708  	91.561458 
4153.776132  	91.592077 
4154.740556  	91.622528 
4155.704981  	91.594415 
4156.669405  	91.574698 
4157.633830  	91.594488 
4158.598254  	91.577272 
4159.562679  	91.529214 
4160.527103  	91.515162 
4161.491528  	91.566103 
4162.455952  	91.610838 
4163.420377  	91.666731 
4164.384801  	91.682896 
4165.349225  	91.617469 
4166.313650  	91.583768 
4167.278074  	91.575586 
4168.242499  	91.606982 
4169.206923  	91.655442 
4170.171348  	91.680264 
4171.135772  	91.618008 
4172.100197  	91.568574 
4173.064621  	91.580811 
4174.029046  	91.630093 
4174.993470  	91.609667 
4175.957894  	91.591627 
4176.922319  	91.634535 
4177.886743  	91.656063 
4178.851168  	91.588507 
4179.815592  	91.512147 
4180.780017  	91.513494 
4181.744441  	91.593505 
4182.708866  	91.626076 
4183.673290  	91.633205 
4184.637715  	91.631122 
4185.602139  	91.608514 
4186.566563  	91.565331 
4187.530988  	91.581473 
4188.495412  	91.616540 
4189.459837  	91.658085 
4190.424261  	91.597959 
4191.388686  	91.586440 
4192.353110  	91.621524 
4193.317535  	91.581457 
4194.281959  	91.532488 
4195.246384  	91.551614 
4196.210808  	91.541706 
4197.175233  	91.539225 
4198.139657  	91.584976 
4199.104081  	91.611625 
4200.068506  	91.590412 
4201.032930  	91.552342 
4201.997355  	91.627219 
4202.961779  	91.691893 
4203.926204  	91.623053 
4204.890628  	91.590001 
4205.855053  	91.614761 
4206.819477  	91.579960 
4207.783902  	91.600740 
4208.748326  	91.626716 
4209.712750  	91.632543 
4210.677175  	91.654114 
4211.641599  	91.636467 
4212.606024  	91.624060 
4213.570448  	91.639559 
4214.534873  	91.664324 
4215.499297  	91.627567 
4216.463722  	91.643900 
4217.428146  	91.579932 
4218.392571  	91.545240 
4219.356995  	91.602229 
4220.321419  	91.645524 
4221.285844  	91.677558 
4222.250268  	91.664748 
4223.214693  	91.544910 
4224.179117  	91.513597 
4225.143542  	91.590290 
4226.107966  	91.654090 
4227.072391  	91.652343 
4228.036815  	91.587514 
4229.001240  	91.561505 
4229.965664  	91.567470 
4230.930088  	91.596641 
4231.894513  	91.634157 
4232.858937  	91.664409 
4233.823362  	91.645775 
4234.787786  	91.586270 
4235.752211  	91.563855 
4236.716635  	91.583564 
4237.681060  	91.631146 
4238.645484  	91.637210 
4239.609909  	91.607196 
4240.574333  	91.572842 
4241.538757  	91.605655 
4242.503182  	91.659594 
4243.467606  	91.618165 
4244.432031  	91.530991 
4245.396455  	91.554709 
4246.360880  	91.573685 
4247.325304  	91.601045 
4248.289729  	91.642268 
4249.254153  	91.642419 
4250.218578  	91.668398 
4251.183002  	91.711373 
4252.147427  	91.683714 
4253.111851  	91.630473 
4254.076275  	91.591591 
4255.040700  	91.607920 
4256.005124  	91.603753 
4256.969549  	91.617497 
4257.933973  	91.648918 
4258.898398  	91.644742 
4259.862822  	91.593956 
4260.827247  	91.576087 
4261.791671  	91.604812 
4262.756096  	91.633487 
4263.720520  	91.589058 
4264.684944  	91.558860 
4265.649369  	91.598147 
4266.613793  	91.627769 
4267.578218  	91.581165 
4268.542642  	91.595791 
4269.507067  	91.619271 
4270.471491  	91.605652 
4271.435916  	91.595069 
4272.400340  	91.578802 
4273.364765  	91.576276 
4274.329189  	91.590930 
4275.293613  	91.577057 
4276.258038  	91.567689 
4277.222462  	91.555561 
4278.186887  	91.534612 
4279.151311  	91.478825 
4280.115736  	91.511521 
4281.080160  	91.610402 
4282.044585  	91.595570 
4283.009009  	91.521867 
4283.973434  	91.518411 
4284.937858  	91.487623 
4285.902282  	91.461209 
4286.866707  	91.507034 
4287.831131  	91.558591 
4288.795556  	91.567845 
4289.759980  	91.514077 
4290.724405  	91.454353 
4291.688829  	91.493337 
4292.653254  	91.532237 
4293.617678  	91.587247 
4294.582103  	91.608441 
4295.546527  	91.607435 
4296.510951  	91.590983 
4297.475376  	91.580660 
4298.439800  	91.549052 
4299.404225  	91.535783 
4300.368649  	91.574734 
4301.333074  	91.550494 
4302.297498  	91.452460 
4303.261923  	91.434886 
4304.226347  	91.543606 
4305.190772  	91.670221 
4306.155196  	91.599759 
4307.119620  	91.552847 
4308.084045  	91.572638 
4309.048469  	91.590720 
4310.012894  	91.625277 
4310.977318  	91.670309 
4311.941743  	91.627418 
4312.906167  	91.614141 
4313.870592  	91.590067 
4314.835016  	91.599349 
4315.799441  	91.626676 
4316.763865  	91.604366 
4317.728290  	91.592042 
4318.692714  	91.676366 
4319.657138  	91.686375 
4320.621563  	91.624421 
4321.585987  	91.571210 
4322.550412  	91.569506 
4323.514836  	91.594871 
4324.479261  	91.594565 
4325.443685  	91.572467 
4326.408110  	91.629041 
4327.372534  	91.637347 
4328.336959  	91.583103 
4329.301383  	91.562614 
4330.265807  	91.579022 
4331.230232  	91.613171 
4332.194656  	91.596210 
4333.159081  	91.601399 
4334.123505  	91.602145 
4335.087930  	91.559592 
4336.052354  	91.566850 
4337.016779  	91.606710 
4337.981203  	91.644708 
4338.945628  	91.636685 
4339.910052  	91.564350 
4340.874476  	91.513915 
4341.838901  	91.590839 
4342.803325  	91.629907 
4343.767750  	91.641822 
4344.732174  	91.649949 
4345.696599  	91.581209 
4346.661023  	91.544083 
4347.625448  	91.578800 
4348.589872  	91.587707 
4349.554297  	91.601194 
4350.518721  	91.639050 
4351.483145  	91.663902 
4352.447570  	91.609321 
4353.411994  	91.586596 
4354.376419  	91.545477 
4355.340843  	91.577623 
4356.305268  	91.637784 
4357.269692  	91.626856 
4358.234117  	91.654341 
4359.198541  	91.617084 
4360.162966  	91.578679 
4361.127390  	91.574678 
4362.091814  	91.543472 
4363.056239  	91.536483 
4364.020663  	91.625028 
4364.985088  	91.621634 
4365.949512  	91.573812 
4366.913937  	91.560526 
4367.878361  	91.519742 
4368.842786  	91.545644 
4369.807210  	91.623147 
4370.771635  	91.638918 
4371.736059  	91.600166 
4372.700484  	91.600227 
4373.664908  	91.631048 
4374.629332  	91.655766 
4375.593757  	91.651378 
4376.558181  	91.631952 
4377.522606  	91.632518 
4378.487030  	91.591535 
4379.451455  	91.526478 
4380.415879  	91.552322 
4381.380304  	91.569297 
4382.344728  	91.606629 
4383.309153  	91.627053 
4384.273577  	91.611128 
4385.238001  	91.576986 
4386.202426  	91.534017 
4387.166850  	91.574924 
4388.131275  	91.573236 
4389.095699  	91.556871 
4390.060124  	91.575957 
4391.024548  	91.586459 
4391.988973  	91.656627 
4392.953397  	91.711868 
4393.917822  	91.671814 
4394.882246  	91.577979 
4395.846670  	91.529590 
4396.811095  	91.485677 
4397.775519  	91.527356 
4398.739944  	91.636793 
4399.704368  	91.681503 
4400.668793  	91.686275 
4401.633217  	91.571827 
4402.597642  	91.533200 
4403.562066  	91.644284 
4404.526491  	91.652539 
4405.490915  	91.664769 
4406.455339  	91.570136 
4407.419764  	91.505572 
4408.384188  	91.601745 
4409.348613  	91.677813 
4410.313037  	91.633201 
4411.277462  	91.526795 
4412.241886  	91.521310 
4413.206311  	91.588344 
4414.170735  	91.627158 
4415.135160  	91.605885 
4416.099584  	91.537027 
4417.064008  	91.491930 
4418.028433  	91.456093 
4418.992857  	91.510617 
4419.957282  	91.538516 
4420.921706  	91.495224 
4421.886131  	91.499975 
4422.850555  	91.511996 
4423.814980  	91.502852 
4424.779404  	91.521163 
4425.743829  	91.498983 
4426.708253  	91.494274 
4427.672677  	91.470606 
4428.637102  	91.439087 
4429.601526  	91.515382 
4430.565951  	91.585691 
4431.530375  	91.520209 
4432.494800  	91.397321 
4433.459224  	91.392407 
4434.423649  	91.484225 
4435.388073  	91.531393 
4436.352498  	91.577845 
4437.316922  	91.604621 
4438.281347  	91.585578 
4439.245771  	91.511330 
4440.210195  	91.537228 
4441.174620  	91.559202 
4442.139044  	91.537626 
4443.103469  	91.532086 
4444.067893  	91.523015 
4445.032318  	91.585983 
4445.996742  	91.624224 
4446.961167  	91.557062 
4447.925591  	91.537448 
4448.890016  	91.496382 
4449.854440  	91.448140 
4450.818864  	91.510917 
4451.783289  	91.526312 
4452.747713  	91.512871 
4453.712138  	91.548885 
4454.676562  	91.495215 
4455.640987  	91.481340 
4456.605411  	91.559307 
4457.569836  	91.549765 
4458.534260  	91.527848 
4459.498685  	91.584401 
4460.463109  	91.563637 
4461.427533  	91.468684 
4462.391958  	91.406644 
4463.356382  	91.428478 
4464.320807  	91.501517 
4465.285231  	91.563339 
4466.249656  	91.561685 
4467.214080  	91.560502 
4468.178505  	91.521092 
4469.142929  	91.474753 
4470.107354  	91.482957 
4471.071778  	91.524463 
4472.036202  	91.598547 
4473.000627  	91.622585 
4473.965051  	91.552890 
4474.929476  	91.490108 
4475.893900  	91.527564 
4476.858325  	91.574609 
4477.822749  	91.566314 
4478.787174  	91.608915 
4479.751598  	91.570146 
4480.716023  	91.502316 
4481.680447  	91.478172 
4482.644871  	91.517769 
4483.609296  	91.532651 
4484.573720  	91.555050 
4485.538145  	91.555105 
4486.502569  	91.579102 
4487.466994  	91.558642 
4488.431418  	91.564942 
4489.395843  	91.501092 
4490.360267  	91.479458 
4491.324692  	91.527718 
4492.289116  	91.568162 
4493.253541  	91.523525 
4494.217965  	91.546942 
4495.182389  	91.603934 
4496.146814  	91.596861 
4497.111238  	91.575459 
4498.075663  	91.618596 
4499.040087  	91.674119 
4500.004512  	91.695273 
4500.968936  	91.640050 
4501.933361  	91.621358 
4502.897785  	91.690849 
4503.862210  	91.676489 
4504.826634  	91.625152 
4505.791058  	91.595888 
4506.755483  	91.601203 
4507.719907  	91.601348 
4508.684332  	91.636516 
4509.648756  	91.623104 
4510.613181  	91.600447 
4511.577605  	91.656552 
4512.542030  	91.638392 
4513.506454  	91.622447 
4514.470879  	91.596199 
4515.435303  	91.572390 
4516.399727  	91.561406 
4517.364152  	91.526745 
4518.328576  	91.546699 
4519.293001  	91.629306 
4520.257425  	91.662429 
4521.221850  	91.580556 
4522.186274  	91.601631 
4523.150699  	91.600161 
4524.115123  	91.480032 
4525.079548  	91.511859 
4526.043972  	91.580265 
4527.008396  	91.618180 
4527.972821  	91.597258 
4528.937245  	91.597319 
4529.901670  	91.593271 
4530.866094  	91.596751 
4531.830519  	91.581482 
4532.794943  	91.584913 
4533.759368  	91.607646 
4534.723792  	91.578554 
4535.688217  	91.533839 
4536.652641  	91.603054 
4537.617065  	91.622558 
4538.581490  	91.648934 
4539.545914  	91.636839 
4540.510339  	91.546491 
4541.474763  	91.458995 
4542.439188  	91.505195 
4543.403612  	91.572795 
4544.368037  	91.566853 
4545.332461  	91.545010 
4546.296886  	91.568807 
4547.261310  	91.537287 
4548.225734  	91.531325 
4549.190159  	91.598322 
4550.154583  	91.624199 
4551.119008  	91.509816 
4552.083432  	91.471279 
4553.047857  	91.495090 
4554.012281  	91.512233 
4554.976706  	91.455450 
4555.941130  	91.465374 
4556.905555  	91.529950 
4557.869979  	91.589877 
4558.834404  	91.668752 
4559.798828  	91.605881 
4560.763252  	91.457030 
4561.727677  	91.449519 
4562.692101  	91.501264 
4563.656526  	91.573525 
4564.620950  	91.569230 
4565.585375  	91.543282 
4566.549799  	91.586255 
4567.514224  	91.625065 
4568.478648  	91.540798 
4569.443073  	91.515501 
4570.407497  	91.527573 
4571.371921  	91.537392 
4572.336346  	91.579392 
4573.300770  	91.599542 
4574.265195  	91.515756 
4575.229619  	91.479202 
4576.194044  	91.493034 
4577.158468  	91.488691 
4578.122893  	91.537602 
4579.087317  	91.594410 
4580.051742  	91.570520 
4581.016166  	91.587192 
4581.980590  	91.563160 
4582.945015  	91.549809 
4583.909439  	91.518285 
4584.873864  	91.448246 
4585.838288  	91.458328 
4586.802713  	91.533782 
4587.767137  	91.504093 
4588.731562  	91.485879 
4589.695986  	91.480013 
4590.660411  	91.458096 
4591.624835  	91.458064 
4592.589259  	91.502785 
4593.553684  	91.516497 
4594.518108  	91.456997 
4595.482533  	91.476731 
4596.446957  	91.549280 
4597.411382  	91.491149 
4598.375806  	91.424407 
4599.340231  	91.526155 
4600.304655  	91.558414 
4601.269080  	91.518236 
4602.233504  	91.519118 
4603.197928  	91.523987 
4604.162353  	91.575898 
4605.126777  	91.584488 
4606.091202  	91.535578 
4607.055626  	91.539407 
4608.020051  	91.549536 
4608.984475  	91.599294 
4609.948900  	91.593686 
4610.913324  	91.513941 
4611.877749  	91.486580 
4612.842173  	91.538958 
4613.806598  	91.562549 
4614.771022  	91.543006 
4615.735446  	91.572962 
4616.699871  	91.546323 
4617.664295  	91.520904 
4618.628720  	91.512209 
4619.593144  	91.481906 
4620.557569  	91.534341 
4621.521993  	91.523400 
4622.486418  	91.490961 
4623.450842  	91.487074 
4624.415267  	91.446436 
4625.379691  	91.472398 
4626.344115  	91.470907 
4627.308540  	91.452742 
4628.272964  	91.433545 
4629.237389  	91.455431 
4630.201813  	91.474449 
4631.166238  	91.510891 
4632.130662  	91.503213 
4633.095087  	91.441574 
4634.059511  	91.432407 
4635.023936  	91.544618 
4635.988360  	91.568774 
4636.952784  	91.485792 
4637.917209  	91.466188 
4638.881633  	91.482488 
4639.846058  	91.488438 
4640.810482  	91.531205 
4641.774907  	91.555635 
4642.739331  	91.463601 
4643.703756  	91.381429 
4644.668180  	91.453353 
4645.632605  	91.403938 
4646.597029  	91.340901 
4647.561453  	91.335421 
4648.525878  	91.381268 
4649.490302  	91.461956 
4650.454727  	91.543555 
4651.419151  	91.508625 
4652.383576  	91.464088 
4653.348000  	91.494544 
4654.312425  	91.520949 
4655.276849  	91.562702 
4656.241274  	91.501099 
4657.205698  	91.481846 
4658.170122  	91.499812 
4659.134547  	91.512154 
4660.098971  	91.508590 
4661.063396  	91.509512 
4662.027820  	91.550154 
4662.992245  	91.516387 
4663.956669  	91.461272 
4664.921094  	91.412786 
4665.885518  	91.432865 
4666.849943  	91.439947 
4667.814367  	91.378449 
4668.778791  	91.395095 
4669.743216  	91.483746 
4670.707640  	91.498473 
4671.672065  	91.531299 
4672.636489  	91.468184 
4673.600914  	91.405684 
4674.565338  	91.484856 
4675.529763  	91.554493 
4676.494187  	91.582998 
4677.458612  	91.569603 
4678.423036  	91.595228 
4679.387461  	91.584296 
4680.351885  	91.518582 
4681.316309  	91.448108 
4682.280734  	91.465759 
4683.245158  	91.437256 
4684.209583  	91.407899 
4685.174007  	91.459417 
4686.138432  	91.463435 
4687.102856  	91.447402 
4688.067281  	91.488109 
4689.031705  	91.404288 
4689.996130  	91.423981 
4690.960554  	91.479396 
4691.924978  	91.479526 
4692.889403  	91.442794 
4693.853827  	91.419295 
4694.818252  	91.424579 
4695.782676  	91.415650 
4696.747101  	91.354400 
4697.711525  	91.407255 
4698.675950  	91.468829 
4699.640374  	91.407617 