##TITLE=No Description
##DATA TYPE=INFRARED SPECTRUM
##XUNITS=1/CM
##YUNITS=%T
400.236149  	109.168035 
401.200574  	92.081416 
402.164998  	73.150515 
403.129423  	81.143190 
404.093847  	98.963233 
405.058272  	103.479647 
406.022696  	87.562271 
406.987120  	85.330968 
407.951545  	91.189727 
408.915969  	79.706880 
409.880394  	77.878035 
410.844818  	84.933133 
411.809243  	95.783059 
412.773667  	94.648464 
413.738092  	83.993165 
414.702516  	76.431460 
415.666941  	76.874702 
416.631365  	81.946976 
417.595789  	87.112249 
418.560214  	88.013841 
419.524638  	85.959791 
420.489063  	81.785527 
421.453487  	79.822065 
422.417912  	80.657660 
423.382336  	80.288043 
424.346761  	77.699110 
425.311185  	73.329257 
426.275610  	73.718815 
427.240034  	77.196539 
428.204458  	77.840628 
429.168883  	77.345055 
430.133307  	76.543077 
431.097732  	74.360833 
432.062156  	71.647044 
433.026581  	71.087436 
433.991005  	72.619439 
434.955430  	73.525616 
435.919854  	74.091765 
436.884279  	73.860381 
437.848703  	75.123266 
438.813127  	76.147701 
439.777552  	76.177959 
440.741976  	76.206216 
441.706401  	76.800138 
442.670825  	78.418751 
443.635250  	79.099075 
444.599674  	80.829566 
445.564099  	81.313921 
446.528523  	80.417096 
447.492948  	80.516228 
448.457372  	82.507840 
449.421796  	81.293830 
450.386221  	80.397603 
451.350645  	81.276428 
452.315070  	81.387634 
453.279494  	81.292829 
454.243919  	81.304174 
455.208343  	81.079932 
456.172768  	80.646734 
457.137192  	80.088038 
458.101617  	80.259971 
459.066041  	80.917662 
460.030466  	81.293740 
460.994890  	81.479734 
461.959314  	81.714693 
462.923739  	81.274201 
463.888163  	80.914922 
464.852588  	81.301879 
465.817012  	82.408904 
466.781437  	82.561706 
467.745861  	81.714856 
468.710286  	80.960347 
469.674710  	79.896958 
470.639135  	79.564572 
471.603559  	80.007002 
472.567983  	80.363709 
473.532408  	81.210789 
474.496832  	81.078108 
475.461257  	81.341276 
476.425681  	80.875853 
477.390106  	80.477806 
478.354530  	80.679920 
479.318955  	80.351867 
480.283379  	80.442506 
481.247804  	80.960130 
482.212228  	80.463224 
483.176652  	80.773222 
484.141077  	80.940413 
485.105501  	80.083031 
486.069926  	79.258224 
487.034350  	79.467950 
487.998775  	79.802316 
488.963199  	79.847718 
489.927624  	80.280807 
490.892048  	79.876703 
491.856473  	78.422879 
492.820897  	78.726315 
493.785321  	78.915894 
494.749746  	77.990784 
495.714170  	77.614438 
496.678595  	77.345429 
497.643019  	77.046799 
498.607444  	76.840138 
499.571868  	75.810628 
500.536293  	75.516605 
501.500717  	75.504376 
502.465142  	74.861490 
503.429566  	75.047269 
504.393990  	74.979600 
505.358415  	74.786583 
506.322839  	74.708188 
507.287264  	75.338888 
508.251688  	76.773025 
509.216113  	78.432958 
510.180537  	79.419352 
511.144962  	80.220551 
512.109386  	80.688011 
513.073811  	80.852765 
514.038235  	81.401571 
515.002660  	81.509765 
515.967084  	80.940849 
516.931508  	80.536118 
517.895933  	80.910378 
518.860357  	81.134033 
519.824782  	80.813865 
520.789206  	81.190815 
521.753631  	81.467380 
522.718055  	81.237503 
523.682480  	80.983057 
524.646904  	81.041540 
525.611329  	80.922423 
526.575753  	81.242806 
527.540177  	81.690028 
528.504602  	81.786822 
529.469026  	81.836692 
530.433451  	82.189301 
531.397875  	82.412162 
532.362300  	82.652181 
533.326724  	82.885291 
534.291149  	82.696131 
535.255573  	82.761561 
536.219998  	83.070611 
537.184422  	83.679123 
538.148846  	83.638470 
539.113271  	83.349052 
540.077695  	83.143805 
541.042120  	83.328984 
542.006544  	83.578160 
542.970969  	83.817111 
543.935393  	83.992263 
544.899818  	83.768736 
545.864242  	83.798953 
546.828667  	83.997457 
547.793091  	83.725645 
548.757515  	83.547187 
549.721940  	83.899572 
550.686364  	84.113173 
551.650789  	84.582721 
552.615213  	84.271079 
553.579638  	84.046158 
554.544062  	84.105201 
555.508487  	84.265945 
556.472911  	84.309348 
557.437336  	84.065850 
558.401760  	83.828405 
559.366184  	83.999010 
560.330609  	83.970703 
561.295033  	83.817586 
562.259458  	83.987489 
563.223882  	83.961632 
564.188307  	83.709614 
565.152731  	83.808314 
566.117156  	83.820071 
567.081580  	83.672910 
568.046005  	83.584338 
569.010429  	83.321617 
569.974853  	83.472150 
570.939278  	83.571257 
571.903702  	83.435140 
572.868127  	83.313971 
573.832551  	83.254600 
574.796976  	83.380047 
575.761400  	82.904332 
576.725825  	83.008321 
577.690249  	83.383919 
578.654674  	83.650903 
579.619098  	83.529157 
580.583523  	83.268891 
581.547947  	83.472133 
582.512371  	83.684178 
583.476796  	83.443591 
584.441220  	83.342028 
585.405645  	83.388323 
586.370069  	83.602541 
587.334494  	83.588468 
588.298918  	83.500308 
589.263343  	83.554799 
590.227767  	83.717424 
591.192192  	83.317977 
592.156616  	83.042351 
593.121040  	83.340783 
594.085465  	83.563593 
595.049889  	83.504341 
596.014314  	83.415146 
596.978738  	83.346587 
597.943163  	83.462944 
598.907587  	83.287821 
599.872012  	82.857825 
600.836436  	82.849506 
601.800861  	83.029520 
602.765285  	83.124905 
603.729709  	83.068003 
604.694134  	82.940573 
605.658558  	82.896201 
606.622983  	82.940412 
607.587407  	82.823714 
608.551832  	82.801462 
609.516256  	82.955516 
610.480681  	82.774626 
611.445105  	82.682294 
612.409530  	82.943724 
613.373954  	83.095591 
614.338378  	82.734820 
615.302803  	82.391460 
616.267227  	82.295293 
617.231652  	82.419234 
618.196076  	82.392357 
619.160501  	82.436189 
620.124925  	82.155031 
621.089350  	81.958939 
622.053774  	81.774497 
623.018199  	82.000714 
623.982623  	81.886087 
624.947047  	81.697583 
625.911472  	81.475234 
626.875896  	81.428941 
627.840321  	81.358876 
628.804745  	81.327633 
629.769170  	80.799519 
630.733594  	79.984435 
631.698019  	79.740808 
632.662443  	80.117333 
633.626868  	80.667499 
634.591292  	81.205386 
635.555717  	81.328147 
636.520141  	81.523067 
637.484565  	81.542892 
638.448990  	81.588811 
639.413414  	81.485731 
640.377839  	81.430542 
641.342263  	81.309653 
642.306688  	81.120018 
643.271112  	81.118783 
644.235537  	81.107438 
645.199961  	80.926219 
646.164386  	80.985104 
647.128810  	80.990817 
648.093234  	80.784892 
649.057659  	80.587552 
650.022083  	80.557005 
650.986508  	80.571428 
651.950932  	80.352698 
652.915357  	80.115103 
653.879781  	80.048143 
654.844206  	80.065063 
655.808630  	79.934113 
656.773055  	79.822061 
657.737479  	79.928325 
658.701903  	79.672148 
659.666328  	79.394767 
660.630752  	79.351877 
661.595177  	79.333015 
662.559601  	79.234980 
663.524026  	79.155261 
664.488450  	79.097253 
665.452875  	78.953625 
666.417299  	78.755006 
667.381724  	78.540463 
668.346148  	77.973399 
669.310572  	77.881457 
670.274997  	77.919801 
671.239421  	77.905425 
672.203846  	77.801464 
673.168270  	77.522763 
674.132695  	77.079632 
675.097119  	76.712301 
676.061544  	76.333510 
677.025968  	76.104817 
677.990393  	75.799578 
678.954817  	75.382096 
679.919241  	75.203897 
680.883666  	75.179535 
681.848090  	75.083844 
682.812515  	75.097432 
683.776939  	74.952630 
684.741364  	74.819143 
685.705788  	74.554483 
686.670213  	74.443951 
687.634637  	74.185905 
688.599062  	73.736387 
689.563486  	73.345378 
690.527910  	73.124123 
691.492335  	72.768290 
692.456759  	72.312196 
693.421184  	71.764247 
694.385608  	71.248656 
695.350033  	70.632243 
696.314457  	69.884497 
697.278882  	68.960232 
698.243306  	68.004162 
699.207731  	67.042860 
700.172155  	66.078813 
701.136580  	65.025453 
702.101004  	64.290736 
703.065428  	63.702136 
704.029853  	62.969974 
704.994277  	62.179858 
705.958702  	61.451773 
706.923126  	60.568797 
707.887551  	59.673540 
708.851975  	58.778149 
709.816400  	57.829698 
710.780824  	56.679606 
711.745249  	55.475752 
712.709673  	54.347670 
713.674097  	53.098544 
714.638522  	51.668397 
715.602946  	50.245854 
716.567371  	48.786472 
717.531795  	47.283163 
718.496220  	45.685271 
719.460644  	44.207327 
720.425069  	42.846308 
721.389493  	41.874648 
722.353918  	41.198181 
723.318342  	40.981897 
724.282766  	41.452820 
725.247191  	42.751334 
726.211615  	44.704054 
727.176040  	47.140495 
728.140464  	49.743363 
729.104889  	52.433337 
730.069313  	55.173035 
731.033738  	58.023847 
731.998162  	60.826965 
732.962587  	63.815386 
733.927011  	66.883234 
734.891435  	69.845509 
735.855860  	72.696388 
736.820284  	75.532148 
737.784709  	78.178540 
738.749133  	80.437548 
739.713558  	82.372709 
740.677982  	84.020005 
741.642407  	85.295272 
742.606831  	86.278102 
743.571256  	86.935240 
744.535680  	87.320647 
745.500104  	87.609165 
746.464529  	87.779404 
747.428953  	87.730912 
748.393378  	87.730197 
749.357802  	87.649326 
750.322227  	87.483831 
751.286651  	87.319315 
752.251076  	87.243873 
753.215500  	87.198909 
754.179925  	86.981403 
755.144349  	86.716280 
756.108774  	86.634373 
757.073198  	86.586648 
758.037622  	86.378139 
759.002047  	86.119415 
759.966471  	85.998755 
760.930896  	85.794793 
761.895320  	85.638248 
762.859745  	85.542623 
763.824169  	85.452941 
764.788594  	85.254806 
765.753018  	84.970872 
766.717443  	84.703455 
767.681867  	84.519576 
768.646291  	84.272202 
769.610716  	84.100022 
770.575140  	83.887567 
771.539565  	83.740556 
772.503989  	83.428283 
773.468414  	83.209334 
774.432838  	83.115943 
775.397263  	83.022047 
776.361687  	82.814025 
777.326112  	82.563114 
778.290536  	82.309791 
779.254960  	82.164205 
780.219385  	81.925289 
781.183809  	81.794340 
782.148234  	81.476634 
783.112658  	81.309268 
784.077083  	80.897265 
785.041507  	80.419240 
786.005932  	80.119823 
786.970356  	79.627330 
787.934781  	79.113207 
788.899205  	78.735427 
789.863629  	78.381048 
790.828054  	77.947062 
791.792478  	77.546594 
792.756903  	77.462693 
793.721327  	77.835171 
794.685752  	78.461044 
795.650176  	79.294921 
796.614601  	80.125839 
797.579025  	80.803352 
798.543450  	81.001978 
799.507874  	80.982226 
800.472298  	81.059580 
801.436723  	81.074869 
802.401147  	80.905001 
803.365572  	80.738883 
804.329996  	80.731757 
805.294421  	80.759762 
806.258845  	80.661399 
807.223270  	80.588547 
808.187694  	80.499120 
809.152119  	80.407761 
810.116543  	80.321924 
811.080967  	80.161187 
812.045392  	80.028016 
813.009816  	79.992062 
813.974241  	79.952626 
814.938665  	79.946585 
815.903090  	79.982836 
816.867514  	79.937896 
817.831939  	79.786707 
818.796363  	79.706017 
819.760788  	79.700211 
820.725212  	79.589265 
821.689637  	79.395470 
822.654061  	79.241812 
823.618485  	79.049138 
824.582910  	78.792096 
825.547334  	78.471604 
826.511759  	78.238427 
827.476183  	78.043037 
828.440608  	77.841689 
829.405032  	77.528467 
830.369457  	77.235783 
831.333881  	77.073959 
832.298306  	76.788457 
833.262730  	76.412314 
834.227154  	76.054050 
835.191579  	75.704352 
836.156003  	75.334877 
837.120428  	74.917103 
838.084852  	74.593210 
839.049277  	74.315749 
840.013701  	73.880994 
840.978126  	73.346521 
841.942550  	72.956506 
842.906975  	72.567222 
843.871399  	72.082307 
844.835823  	71.634640 
845.800248  	71.316167 
846.764672  	71.275125 
847.729097  	71.496649 
848.693521  	71.868940 
849.657946  	72.422331 
850.622370  	73.033672 
851.586795  	73.598015 
852.551219  	73.980314 
853.515644  	74.333205 
854.480068  	74.614590 
855.444492  	74.790446 
856.408917  	74.995022 
857.373341  	75.229583 
858.337766  	75.444645 
859.302190  	75.569341 
860.266615  	75.539873 
861.231039  	75.448592 
862.195464  	75.307560 
863.159888  	75.029787 
864.124313  	74.607137 
865.088737  	74.024674 
866.053161  	73.254196 
867.017586  	72.163587 
867.982010  	70.806996 
868.946435  	69.053168 
869.910859  	66.851078 
870.875284  	64.619406 
871.839708  	63.406632 
872.804133  	64.160539 
873.768557  	66.546136 
874.732982  	68.996799 
875.697406  	70.893824 
876.661831  	72.364116 
877.626255  	73.506619 
878.590679  	74.464932 
879.555104  	75.337683 
880.519528  	76.127535 
881.483953  	76.791099 
882.448377  	77.349761 
883.412802  	77.831810 
884.377226  	78.311642 
885.341651  	78.679293 
886.306075  	78.875085 
887.270500  	78.996919 
888.234924  	79.104037 
889.199348  	79.123555 
890.163773  	79.078723 
891.128197  	79.046655 
892.092622  	78.986293 
893.057046  	78.838828 
894.021471  	78.760660 
894.985895  	78.725725 
895.950320  	78.617830 
896.914744  	78.490688 
897.879169  	78.453276 
898.843593  	78.498735 
899.808017  	78.582798 
900.772442  	78.612734 
901.736866  	78.636355 
902.701291  	78.792356 
903.665715  	78.987675 
904.630140  	79.126195 
905.594564  	79.240397 
906.558989  	79.365593 
907.523413  	79.536888 
908.487838  	79.674118 
909.452262  	79.811802 
910.416686  	79.924469 
911.381111  	80.034668 
912.345535  	80.074687 
913.309960  	80.060085 
914.274384  	80.070431 
915.238809  	80.035196 
916.203233  	79.945227 
917.167658  	79.925145 
918.132082  	79.920883 
919.096507  	79.904265 
920.060931  	79.854949 
921.025355  	79.739619 
921.989780  	79.607417 
922.954204  	79.486586 
923.918629  	79.380649 
924.883053  	79.273537 
925.847478  	79.213211 
926.811902  	79.127954 
927.776327  	78.989646 
928.740751  	78.836031 
929.705176  	78.758573 
930.669600  	78.664022 
931.634024  	78.526191 
932.598449  	78.412015 
933.562873  	78.287952 
934.527298  	78.188897 
935.491722  	78.040938 
936.456147  	77.886526 
937.420571  	77.774040 
938.384996  	77.606313 
939.349420  	77.391807 
940.313845  	77.233799 
941.278269  	77.120465 
942.242694  	76.964896 
943.207118  	76.754885 
944.171542  	76.601445 
945.135967  	76.458237 
946.100391  	76.245112 
947.064816  	76.017536 
948.029240  	75.842933 
948.993665  	75.653125 
949.958089  	75.426649 
950.922514  	75.196529 
951.886938  	75.028952 
952.851363  	74.794265 
953.815787  	74.462424 
954.780211  	74.216739 
955.744636  	74.021122 
956.709060  	73.733394 
957.673485  	73.412103 
958.637909  	73.114511 
959.602334  	72.824886 
960.566758  	72.486407 
961.531183  	72.116415 
962.495607  	71.772164 
963.460032  	71.488757 
964.424456  	71.187396 
965.388880  	70.823535 
966.353305  	70.553545 
967.317729  	70.388578 
968.282154  	70.216841 
969.246578  	70.099872 
970.211003  	70.137514 
971.175427  	70.308209 
972.139852  	70.598027 
973.104276  	70.992357 
974.068701  	71.492612 
975.033125  	72.013232 
975.997549  	72.494833 
976.961974  	72.948977 
977.926398  	73.350619 
978.890823  	73.651698 
979.855247  	73.867981 
980.819672  	74.028762 
981.784096  	74.156003 
982.748521  	74.199288 
983.712945  	74.134248 
984.677370  	73.972204 
985.641794  	73.800208 
986.606218  	73.623857 
987.570643  	73.463977 
988.535067  	73.303817 
989.499492  	73.227575 
990.463916  	73.142697 
991.428341  	73.038371 
992.392765  	72.922397 
993.357190  	72.747834 
994.321614  	72.557596 
995.286039  	72.397441 
996.250463  	72.163340 
997.214888  	71.842797 
998.179312  	71.540601 
999.143736  	71.261473 
1000.108161  	70.933376 
1001.072585  	70.579443 
1002.037010  	70.257322 
1003.001434  	69.877990 
1003.965859  	69.438364 
1004.930283  	68.995619 
1005.894708  	68.478196 
1006.859132  	67.876285 
1007.823557  	67.191793 
1008.787981  	66.476332 
1009.752405  	65.718533 
1010.716830  	64.785003 
1011.681254  	63.675149 
1012.645679  	62.434456 
1013.610103  	61.056107 
1014.574528  	59.617092 
1015.538952  	58.395363 
1016.503377  	57.772769 
1017.467801  	57.866202 
1018.432226  	58.628463 
1019.396650  	59.927177 
1020.361074  	61.519452 
1021.325499  	63.225496 
1022.289923  	64.917356 
1023.254348  	66.752271 
1024.218772  	68.938790 
1025.183197  	71.319766 
1026.147621  	73.469942 
1027.112046  	75.011982 
1028.076470  	75.824834 
1029.040895  	76.032895 
1030.005319  	75.830846 
1030.969743  	75.354306 
1031.934168  	74.778452 
1032.898592  	74.229745 
1033.863017  	73.608502 
1034.827441  	72.983529 
1035.791866  	72.442548 
1036.756290  	71.932260 
1037.720715  	71.468002 
1038.685139  	71.061513 
1039.649564  	70.709187 
1040.613988  	70.352209 
1041.578412  	69.991021 
1042.542837  	69.740093 
1043.507261  	69.626176 
1044.471686  	69.485100 
1045.436110  	69.293830 
1046.400535  	69.204513 
1047.364959  	69.158667 
1048.329384  	69.077411 
1049.293808  	68.997006 
1050.258233  	68.978217 
1051.222657  	68.967319 
1052.187081  	68.882025 
1053.151506  	68.752442 
1054.115930  	68.652235 
1055.080355  	68.523065 
1056.044779  	68.277426 
1057.009204  	68.021957 
1057.973628  	67.773456 
1058.938053  	67.507413 
1059.902477  	67.148268 
1060.866902  	66.760024 
1061.831326  	66.437885 
1062.795751  	66.064962 
1063.760175  	65.594044 
1064.724599  	65.096157 
1065.689024  	64.677713 
1066.653448  	64.219339 
1067.617873  	63.682556 
1068.582297  	63.163517 
1069.546722  	62.660647 
1070.511146  	62.083627 
1071.475571  	61.472055 
1072.439995  	60.836007 
1073.404420  	60.179427 
1074.368844  	59.447049 
1075.333268  	58.663353 
1076.297693  	57.857749 
1077.262117  	57.023319 
1078.226542  	56.245942 
1079.190966  	55.446126 
1080.155391  	54.631139 
1081.119815  	53.877760 
1082.084240  	53.217998 
1083.048664  	52.688003 
1084.013089  	52.249770 
1084.977513  	51.821357 
1085.941937  	51.359342 
1086.906362  	50.999678 
1087.870786  	50.744878 
1088.835211  	50.468026 
1089.799635  	50.189960 
1090.764060  	49.991130 
1091.728484  	49.838115 
1092.692909  	49.714314 
1093.657333  	49.604264 
1094.621758  	49.537531 
1095.586182  	49.593259 
1096.550606  	49.725920 
1097.515031  	49.918913 
1098.479455  	50.225751 
1099.443880  	50.609356 
1100.408304  	51.024776 
1101.372729  	51.494793 
1102.337153  	52.088689 
1103.301578  	52.709377 
1104.266002  	53.337220 
1105.230427  	54.015988 
1106.194851  	54.749072 
1107.159275  	55.454233 
1108.123700  	56.103026 
1109.088124  	56.675289 
1110.052549  	57.147121 
1111.016973  	57.506863 
1111.981398  	57.820925 
1112.945822  	58.107827 
1113.910247  	58.284263 
1114.874671  	58.304912 
1115.839096  	58.232095 
1116.803520  	58.198394 
1117.767945  	58.206894 
1118.732369  	58.311041 
1119.696793  	58.591311 
1120.661218  	58.989233 
1121.625642  	59.453457 
1122.590067  	60.051806 
1123.554491  	60.752212 
1124.518916  	61.531405 
1125.483340  	62.420187 
1126.447765  	63.398490 
1127.412189  	64.450463 
1128.376614  	65.593787 
1129.341038  	66.811393 
1130.305462  	68.072160 
1131.269887  	69.393980 
1132.234311  	70.683201 
1133.198736  	71.929947 
1134.163160  	73.176486 
1135.127585  	74.385384 
1136.092009  	75.491459 
1137.056434  	76.541728 
1138.020858  	77.567033 
1138.985283  	78.537512 
1139.949707  	79.379065 
1140.914131  	80.130805 
1141.878556  	80.849918 
1142.842980  	81.501631 
1143.807405  	82.091614 
1144.771829  	82.680181 
1145.736254  	83.229307 
1146.700678  	83.710533 
1147.665103  	84.077155 
1148.629527  	84.431322 
1149.593952  	84.837548 
1150.558376  	85.183133 
1151.522800  	85.426643 
1152.487225  	85.618142 
1153.451649  	85.807410 
1154.416074  	85.976281 
1155.380498  	86.100683 
1156.344923  	86.209100 
1157.309347  	86.287136 
1158.273772  	86.330221 
1159.238196  	86.303194 
1160.202621  	86.320318 
1161.167045  	86.310814 
1162.131469  	86.184997 
1163.095894  	86.025911 
1164.060318  	85.885622 
1165.024743  	85.672539 
1165.989167  	85.383539 
1166.953592  	85.022575 
1167.918016  	84.591650 
1168.882441  	84.090934 
1169.846865  	83.544843 
1170.811290  	83.010526 
1171.775714  	82.572117 
1172.740138  	82.238463 
1173.704563  	81.920332 
1174.668987  	81.640258 
1175.633412  	81.532431 
1176.597836  	81.492445 
1177.562261  	81.456967 
1178.526685  	81.424543 
1179.491110  	81.416815 
1180.455534  	81.378568 
1181.419959  	81.332447 
1182.384383  	81.244206 
1183.348808  	81.107690 
1184.313232  	80.939742 
1185.277656  	80.674893 
1186.242081  	80.350155 
1187.206505  	80.013837 
1188.170930  	79.628151 
1189.135354  	79.152591 
1190.099779  	78.655290 
1191.064203  	78.171182 
1192.028628  	77.647620 
1192.993052  	77.030395 
1193.957477  	76.410087 
1194.921901  	75.812238 
1195.886325  	75.192531 
1196.850750  	74.544351 
1197.815174  	73.918270 
1198.779599  	73.337090 
1199.744023  	72.758692 
1200.708448  	72.151371 
1201.672872  	71.559784 
1202.637297  	71.032607 
1203.601721  	70.506166 
1204.566146  	69.947238 
1205.530570  	69.440630 
1206.494994  	68.975174 
1207.459419  	68.500854 
1208.423843  	68.054279 
1209.388268  	67.611428 
1210.352692  	67.109091 
1211.317117  	66.544645 
1212.281541  	65.994549 
1213.245966  	65.498814 
1214.210390  	64.959657 
1215.174815  	64.335679 
1216.139239  	63.707194 
1217.103663  	63.051339 
1218.068088  	62.361605 
1219.032512  	61.688521 
1219.996937  	61.045777 
1220.961361  	60.417910 
1221.925786  	59.831088 
1222.890210  	59.304090 
1223.854635  	58.822598 
1224.819059  	58.346651 
1225.783484  	57.883942 
1226.747908  	57.385184 
1227.712332  	56.788721 
1228.676757  	56.126840 
1229.641181  	55.415595 
1230.605606  	54.657215 
1231.570030  	53.841082 
1232.534455  	52.992909 
1233.498879  	52.158006 
1234.463304  	51.359226 
1235.427728  	50.608279 
1236.392153  	49.953456 
1237.356577  	49.440458 
1238.321002  	49.072123 
1239.285426  	48.817613 
1240.249850  	48.697320 
1241.214275  	48.721939 
1242.178699  	48.870785 
1243.143124  	49.099493 
1244.107548  	49.435871 
1245.071973  	49.919379 
1246.036397  	50.431047 
1247.000822  	50.927911 
1247.965246  	51.510547 
1248.929671  	52.144362 
1249.894095  	52.767644 
1250.858519  	53.391377 
1251.822944  	54.018539 
1252.787368  	54.612131 
1253.751793  	55.145635 
1254.716217  	55.576597 
1255.680642  	56.010140 
1256.645066  	56.450460 
1257.609491  	56.830617 
1258.573915  	57.174316 
1259.538340  	57.523085 
1260.502764  	57.914140 
1261.467188  	58.447868 
1262.431613  	58.988432 
1263.396037  	59.588694 
1264.360462  	60.261314 
1265.324886  	60.974736 
1266.289311  	61.728173 
1267.253735  	62.567283 
1268.218160  	63.420327 
1269.182584  	64.259311 
1270.147009  	65.084508 
1271.111433  	65.945837 
1272.075857  	66.727348 
1273.040282  	67.548495 
1274.004706  	68.303427 
1274.969131  	68.997452 
1275.933555  	69.644296 
1276.897980  	70.244610 
1277.862404  	70.844896 
1278.826829  	71.411760 
1279.791253  	71.885512 
1280.755678  	72.358599 
1281.720102  	72.862690 
1282.684526  	73.368535 
1283.648951  	73.827491 
1284.613375  	74.268378 
1285.577800  	74.739757 
1286.542224  	75.196282 
1287.506649  	75.533703 
1288.471073  	76.005833 
1289.435498  	76.638083 
1290.399922  	77.214791 
1291.364347  	77.782877 
1292.328771  	78.413209 
1293.293195  	79.045285 
1294.257620  	79.676828 
1295.222044  	80.269847 
1296.186469  	80.820956 
1297.150893  	81.469100 
1298.115318  	82.244767 
1299.079742  	82.881031 
1300.044167  	83.483526 
1301.008591  	84.076363 
1301.973016  	84.622720 
1302.937440  	85.088523 
1303.901865  	85.487039 
1304.866289  	85.828507 
1305.830713  	86.139855 
1306.795138  	86.426571 
1307.759562  	86.679267 
1308.723987  	86.987707 
1309.688411  	87.413710 
1310.652836  	87.697578 
1311.617260  	87.847759 
1312.581685  	87.771768 
1313.546109  	88.009986 
1314.510534  	88.330048 
1315.474958  	88.656026 
1316.439382  	88.745737 
1317.403807  	88.763213 
1318.368231  	88.862090 
1319.332656  	88.869795 
1320.297080  	89.212257 
1321.261505  	89.488226 
1322.225929  	89.692755 
1323.190354  	89.735503 
1324.154778  	89.749075 
1325.119203  	89.729086 
1326.083627  	89.591755 
1327.048051  	89.361109 
1328.012476  	89.001924 
1328.976900  	88.423959 
1329.941325  	87.577801 
1330.905749  	86.550802 
1331.870174  	85.235972 
1332.834598  	83.553587 
1333.799023  	81.671441 
1334.763447  	79.782959 
1335.727872  	77.886659 
1336.692296  	76.073356 
1337.656720  	75.008213 
1338.621145  	74.113722 
1339.585569  	73.669196 
1340.549994  	74.625179 
1341.514418  	76.796398 
1342.478843  	78.778790 
1343.443267  	80.540037 
1344.407692  	82.313761 
1345.372116  	84.004512 
1346.336541  	85.490225 
1347.300965  	86.738034 
1348.265389  	87.735771 
1349.229814  	88.436903 
1350.194238  	89.130120 
1351.158663  	89.747285 
1352.123087  	90.150875 
1353.087512  	90.472732 
1354.051936  	90.577796 
1355.016361  	90.523423 
1355.980785  	90.841555 
1356.945210  	91.020591 
1357.909634  	90.930860 
1358.874059  	90.942190 
1359.838483  	90.898343 
1360.802907  	90.277074 
1361.767332  	89.724410 
1362.731756  	88.865127 
1363.696181  	88.711988 
1364.660605  	89.656048 
1365.625030  	89.680760 
1366.589454  	89.424434 
1367.553879  	88.987187 
1368.518303  	88.352418 
1369.482728  	88.285607 
1370.447152  	88.617749 
1371.411576  	88.596882 
1372.376001  	88.457330 
1373.340425  	87.841713 
1374.304850  	87.356773 
1375.269274  	87.772717 
1376.233699  	88.569247 
1377.198123  	88.756819 
1378.162548  	88.569057 
1379.126972  	88.651538 
1380.091397  	88.777569 
1381.055821  	88.884889 
1382.020245  	88.854150 
1382.984670  	88.764092 
1383.949094  	88.714977 
1384.913519  	88.664140 
1385.877943  	88.278633 
1386.842368  	87.345936 
1387.806792  	87.129060 
1388.771217  	88.103559 
1389.735641  	88.537831 
1390.700066  	88.480199 
1391.664490  	88.490219 
1392.628914  	88.450621 
1393.593339  	87.860426 
1394.557763  	86.577448 
1395.522188  	86.209995 
1396.486612  	86.654847 
1397.451037  	86.401981 
1398.415461  	85.494400 
1399.379886  	84.831905 
1400.344310  	84.966847 
1401.308735  	84.784671 
1402.273159  	83.896918 
1403.237583  	82.804856 
1404.202008  	81.254310 
1405.166432  	79.341672 
1406.130857  	78.513864 
1407.095281  	77.993268 
1408.059706  	77.248386 
1409.024130  	76.959277 
1409.988555  	77.109724 
1410.952979  	77.952470 
1411.917404  	79.230409 
1412.881828  	81.185418 
1413.846252  	83.140343 
1414.810677  	84.894722 
1415.775101  	86.082512 
1416.739526  	86.833976 
1417.703950  	87.414372 
1418.668375  	87.642437 
1419.632799  	87.908643 
1420.597224  	90.049211 
1421.561648  	90.961764 
1422.526073  	91.216991 
1423.490497  	90.528586 
1424.454922  	90.379680 
1425.419346  	91.494498 
1426.383770  	91.907419 
1427.348195  	91.873553 
1428.312619  	91.609613 
1429.277044  	91.113678 
1430.241468  	90.671046 
1431.205893  	91.034860 
1432.170317  	90.981831 
1433.134742  	90.673609 
1434.099166  	90.725181 
1435.063591  	90.417863 
1436.028015  	89.124729 
1436.992439  	88.127304 
1437.956864  	89.457006 
1438.921288  	90.080973 
1439.885713  	90.123636 
1440.850137  	90.059649 
1441.814562  	90.007668 
1442.778986  	89.990573 
1443.743411  	89.891689 
1444.707835  	89.760404 
1445.672260  	89.614364 
1446.636684  	89.373370 
1447.601108  	88.568114 
1448.565533  	88.378798 
1449.529957  	89.053971 
1450.494382  	89.162412 
1451.458806  	88.724043 
1452.423231  	88.347842 
1453.387655  	88.687653 
1454.352080  	88.323126 
1455.316504  	87.278855 
1456.280929  	86.420098 
1457.245353  	85.727482 
1458.209777  	85.948095 
1459.174202  	86.911295 
1460.138626  	88.396841 
1461.103051  	89.244637 
1462.067475  	89.445748 
1463.031900  	89.474870 
1463.996324  	89.060789 
1464.960749  	88.193179 
1465.925173  	88.697490 
1466.889598  	89.203560 
1467.854022  	89.101267 
1468.818446  	88.886363 
1469.782871  	88.424526 
1470.747295  	87.642651 
1471.711720  	86.117855 
1472.676144  	85.324133 
1473.640569  	86.258428 
1474.604993  	87.959443 
1475.569418  	88.295310 
1476.533842  	88.118501 
1477.498267  	89.499223 
1478.462691  	90.337887 
1479.427116  	90.619747 
1480.391540  	90.596523 
1481.355964  	90.302016 
1482.320389  	90.920074 
1483.284813  	91.505247 
1484.249238  	91.769939 
1485.213662  	91.744859 
1486.178087  	91.334181 
1487.142511  	90.837486 
1488.106936  	91.005393 
1489.071360  	90.276484 
1490.035785  	89.022453 
1491.000209  	90.186100 
1491.964633  	91.816780 
1492.929058  	92.447033 
1493.893482  	92.469999 
1494.857907  	92.136050 
1495.822331  	91.114669 
1496.786756  	90.405553 
1497.751180  	90.788653 
1498.715605  	90.045518 
1499.680029  	89.760734 
1500.644454  	89.734205 
1501.608878  	88.720582 
1502.573302  	87.782386 
1503.537727  	87.029151 
1504.502151  	85.815133 
1505.466576  	83.965695 
1506.431000  	81.259198 
1507.395425  	81.687300 
1508.359849  	84.366337 
1509.324274  	86.512512 
1510.288698  	88.274409 
1511.253123  	89.773760 
1512.217547  	89.950345 
1513.181971  	90.799070 
1514.146396  	91.317861 
1515.110820  	90.539997 
1516.075245  	89.592942 
1517.039669  	88.442615 
1518.004094  	90.070331 
1518.968518  	91.263361 
1519.932943  	90.385211 
1520.897367  	88.122723 
1521.861792  	88.392818 
1522.826216  	89.679982 
1523.790640  	90.694551 
1524.755065  	90.359381 
1525.719489  	89.892754 
1526.683914  	90.424452 
1527.648338  	90.128211 
1528.612763  	90.526831 
1529.577187  	91.566449 
1530.541612  	91.898460 
1531.506036  	91.182703 
1532.470461  	90.672715 
1533.434885  	89.806996 
1534.399309  	90.149863 
1535.363734  	91.104459 
1536.328158  	91.560298 
1537.292583  	91.623677 
1538.257007  	90.647759 
1539.221432  	88.209276 
1540.185856  	87.916994 
1541.150281  	89.108787 
1542.114705  	89.115998 
1543.079130  	89.158950 
1544.043554  	89.286995 
1545.007979  	88.988216 
1545.972403  	90.022527 
1546.936827  	91.361176 
1547.901252  	91.601139 
1548.865676  	91.068085 
1549.830101  	89.458683 
1550.794525  	89.913088 
1551.758950  	91.246702 
1552.723374  	91.291830 
1553.687799  	90.468719 
1554.652223  	89.582212 
1555.616648  	90.539674 
1556.581072  	90.737138 
1557.545496  	89.558644 
1558.509921  	85.830280 
1559.474345  	85.351550 
1560.438770  	88.149190 
1561.403194  	90.378944 
1562.367619  	91.141082 
1563.332043  	91.325620 
1564.296468  	90.952238 
1565.260892  	90.641614 
1566.225317  	91.152971 
1567.189741  	91.316890 
1568.154165  	90.883407 
1569.118590  	89.524441 
1570.083014  	89.077998 
1571.047439  	90.302418 
1572.011863  	90.591193 
1572.976288  	90.387294 
1573.940712  	90.105757 
1574.905137  	89.567209 
1575.869561  	88.404089 
1576.833986  	87.637484 
1577.798410  	88.474103 
1578.762834  	89.140896 
1579.727259  	89.493353 
1580.691683  	89.825014 
1581.656108  	90.148482 
1582.620532  	90.472699 
1583.584957  	90.760926 
1584.549381  	91.049092 
1585.513806  	91.269372 
1586.478230  	91.433442 
1587.442655  	91.538002 
1588.407079  	91.607846 
1589.371503  	91.536897 
1590.335928  	91.507401 
1591.300352  	91.583037 
1592.264777  	91.619240 
1593.229201  	91.636044 
1594.193626  	91.388181 
1595.158050  	91.271206 
1596.122475  	91.371330 
1597.086899  	91.443861 
1598.051324  	91.513477 
1599.015748  	91.442924 
1599.980173  	91.375994 
1600.944597  	91.153148 
1601.909021  	91.000853 
1602.873446  	90.764538 
1603.837870  	90.735946 
1604.802295  	90.885337 
1605.766719  	90.772893 
1606.731144  	90.370316 
1607.695568  	90.153927 
1608.659993  	90.084978 
1609.624417  	89.739103 
1610.588842  	89.939625 
1611.553266  	90.056478 
1612.517690  	89.970017 
1613.482115  	89.944553 
1614.446539  	89.855305 
1615.410964  	89.475498 
1616.375388  	88.566499 
1617.339813  	88.576164 
1618.304237  	89.603576 
1619.268662  	90.032000 
1620.233086  	90.100266 
1621.197511  	90.090097 
1622.161935  	89.741670 
1623.126359  	88.878645 
1624.090784  	89.012302 
1625.055208  	89.822849 
1626.019633  	89.971990 
1626.984057  	89.729763 
1627.948482  	89.248935 
1628.912906  	89.622041 
1629.877331  	89.926760 
1630.841755  	89.914607 
1631.806180  	89.861077 
1632.770604  	89.815108 
1633.735028  	89.504615 
1634.699453  	88.621756 
1635.663877  	87.006933 
1636.628302  	87.771988 
1637.592726  	87.997290 
1638.557151  	88.667038 
1639.521575  	89.089488 
1640.486000  	89.084387 
1641.450424  	89.073244 
1642.414849  	88.999788 
1643.379273  	89.007097 
1644.343697  	88.870036 
1645.308122  	88.082433 
1646.272546  	86.680983 
1647.236971  	86.078459 
1648.201395  	86.453974 
1649.165820  	87.677696 
1650.130244  	88.113922 
1651.094669  	87.806414 
1652.059093  	86.875583 
1653.023518  	84.069234 
1653.987942  	83.633710 
1654.952366  	85.668085 
1655.916791  	86.928994 
1656.881215  	87.189673 
1657.845640  	87.316727 
1658.810064  	87.362576 
1659.774489  	87.223842 
1660.738913  	86.755047 
1661.703338  	86.116942 
1662.667762  	85.297937 
1663.632187  	85.388392 
1664.596611  	85.651242 
1665.561036  	85.507644 
1666.525460  	85.216620 
1667.489884  	84.578810 
1668.454309  	83.222507 
1669.418733  	82.279919 
1670.383158  	82.771313 
1671.347582  	82.391392 
1672.312007  	82.355187 
1673.276431  	82.575121 
1674.240856  	82.038428 
1675.205280  	80.779375 
1676.169705  	80.670387 
1677.134129  	81.058565 
1678.098553  	80.786582 
1679.062978  	80.024624 
1680.027402  	78.569024 
1680.991827  	78.279660 
1681.956251  	78.465130 
1682.920676  	77.281428 
1683.885100  	74.126929 
1684.849525  	73.902874 
1685.813949  	76.487126 
1686.778374  	76.940083 
1687.742798  	76.276903 
1688.707222  	75.453726 
1689.671647  	75.067188 
1690.636071  	74.607427 
1691.600496  	74.355454 
1692.564920  	73.676261 
1693.529345  	72.655835 
1694.493769  	71.421427 
1695.458194  	69.553540 
1696.422618  	67.423168 
1697.387043  	67.070822 
1698.351467  	66.313824 
1699.315891  	64.931650 
1700.280316  	61.753889 
1701.244740  	60.550629 
1702.209165  	60.603263 
1703.173589  	59.655163 
1704.138014  	57.941770 
1705.102438  	56.232958 
1706.066863  	55.019431 
1707.031287  	53.532664 
1707.995712  	52.882494 
1708.960136  	52.168724 
1709.924560  	51.026237 
1710.888985  	50.159412 
1711.853409  	49.849528 
1712.817834  	49.413736 
1713.782258  	48.861124 
1714.746683  	48.421260 
1715.711107  	48.998191 
1716.675532  	49.612504 
1717.639956  	49.490109 
1718.604381  	50.814494 
1719.568805  	53.327829 
1720.533230  	54.948963 
1721.497654  	56.215061 
1722.462078  	57.370300 
1723.426503  	58.381560 
1724.390927  	59.852660 
1725.355352  	61.295827 
1726.319776  	62.574026 
1727.284201  	63.900395 
1728.248625  	65.214549 
1729.213050  	65.979810 
1730.177474  	66.691839 
1731.141899  	68.745086 
1732.106323  	70.039540 
1733.070747  	70.171426 
1734.035172  	69.985139 
1734.999596  	73.395116 
1735.964021  	76.064092 
1736.928445  	77.482633 
1737.892870  	78.785741 
1738.857294  	79.698055 
1739.821719  	80.498621 
1740.786143  	82.708855 
1741.750568  	84.261245 
1742.714992  	84.686690 
1743.679416  	85.131679 
1744.643841  	86.838824 
1745.608265  	88.140508 
1746.572690  	88.661620 
1747.537114  	88.925370 
1748.501539  	89.178409 
1749.465963  	89.858612 
1750.430388  	90.426213 
1751.394812  	90.048665 
1752.359237  	91.442666 
1753.323661  	92.671337 
1754.288085  	93.211650 
1755.252510  	93.334207 
1756.216934  	92.832599 
1757.181359  	92.385673 
1758.145783  	93.047333 
1759.110208  	93.507138 
1760.074632  	93.697613 
1761.039057  	93.180752 
1762.003481  	92.372817 
1762.967906  	93.354538 
1763.932330  	94.047812 
1764.896754  	94.166708 
1765.861179  	94.168323 
1766.825603  	94.028149 
1767.790028  	93.212591 
1768.754452  	92.993927 
1769.718877  	93.857859 
1770.683301  	93.545164 
1771.647726  	92.468065 
1772.612150  	92.054672 
1773.576575  	93.125324 
1774.540999  	93.798139 
1775.505423  	93.499469 
1776.469848  	93.708766 
1777.434272  	94.283086 
1778.398697  	94.147511 
1779.363121  	93.864041 
1780.327546  	93.462391 
1781.291970  	93.397563 
1782.256395  	94.083740 
1783.220819  	94.397856 
1784.185244  	94.074452 
1785.149668  	93.558820 
1786.114093  	94.038180 
1787.078517  	94.393542 
1788.042941  	94.368229 
1789.007366  	94.280667 
1789.971790  	93.993137 
1790.936215  	93.136210 
1791.900639  	92.696700 
1792.865064  	92.577893 
1793.829488  	93.443367 
1794.793913  	93.876812 
1795.758337  	93.345915 
1796.722762  	93.407486 
1797.687186  	94.085210 
1798.651610  	94.036201 
1799.616035  	93.474927 
1800.580459  	93.489573 
1801.544884  	93.320852 
1802.509308  	93.072984 
1803.473733  	93.753436 
1804.438157  	94.197951 
1805.402582  	94.178015 
1806.367006  	94.130263 
1807.331431  	93.884874 
1808.295855  	93.823021 
1809.260279  	94.103452 
1810.224704  	93.645213 
1811.189128  	93.261988 
1812.153553  	93.582986 
1813.117977  	93.917982 
1814.082402  	94.219559 
1815.046826  	94.262637 
1816.011251  	94.230375 
1816.975675  	93.961066 
1817.940100  	93.843335 
1818.904524  	94.155004 
1819.868948  	94.239477 
1820.833373  	94.154299 
1821.797797  	94.055594 
1822.762222  	93.862165 
1823.726646  	93.838147 
1824.691071  	93.318504 
1825.655495  	92.734810 
1826.619920  	93.667144 
1827.584344  	94.038530 
1828.548769  	93.624723 
1829.513193  	92.601167 
1830.477617  	92.645975 
1831.442042  	93.701242 
1832.406466  	94.019402 
1833.370891  	93.912029 
1834.335315  	94.129201 
1835.299740  	94.283285 
1836.264164  	94.134721 
1837.228589  	93.738075 
1838.193013  	93.955135 
1839.157438  	94.249512 
1840.121862  	94.307670 
1841.086287  	94.322847 
1842.050711  	94.005559 
1843.015135  	93.679369 
1843.979560  	93.070917 
1844.943984  	93.002791 
1845.908409  	93.810899 
1846.872833  	94.045262 
1847.837258  	93.635307 
1848.801682  	93.908311 
1849.766107  	94.446714 
1850.730531  	94.588183 
1851.694956  	94.599685 
1852.659380  	94.614390 
1853.623804  	94.657651 
1854.588229  	94.606397 
1855.552653  	94.615838 
1856.517078  	94.632491 
1857.481502  	94.615136 
1858.445927  	94.446844 
1859.410351  	94.440833 
1860.374776  	94.539541 
1861.339200  	94.430724 
1862.303625  	94.434335 
1863.268049  	94.595803 
1864.232473  	94.660903 
1865.196898  	94.634739 
1866.161322  	94.338841 
1867.125747  	93.996686 
1868.090171  	93.537381 
1869.054596  	93.122986 
1870.019020  	93.504603 
1870.983445  	94.190235 
1871.947869  	94.624934 
1872.912294  	94.825180 
1873.876718  	94.862641 
1874.841142  	94.834986 
1875.805567  	94.778375 
1876.769991  	94.767459 
1877.734416  	94.752400 
1878.698840  	94.687291 
1879.663265  	94.573527 
1880.627689  	94.634552 
1881.592114  	94.620170 
1882.556538  	94.612755 
1883.520963  	94.676955 
1884.485387  	94.601560 
1885.449811  	94.531280 
1886.414236  	94.727695 
1887.378660  	94.698626 
1888.343085  	94.475221 
1889.307509  	93.804695 
1890.271934  	93.728973 
1891.236358  	94.282885 
1892.200783  	94.447034 
1893.165207  	94.526559 
1894.129632  	94.497063 
1895.094056  	94.128414 
1896.058480  	94.243423 
1897.022905  	94.579086 
1897.987329  	94.534038 
1898.951754  	94.456065 
1899.916178  	94.513370 
1900.880603  	94.594283 
1901.845027  	94.577751 
1902.809452  	94.617624 
1903.773876  	94.574314 
1904.738301  	94.500908 
1905.702725  	94.452985 
1906.667150  	94.509868 
1907.631574  	94.399023 
1908.595998  	94.228814 
1909.560423  	94.072391 
1910.524847  	94.130870 
1911.489272  	94.474295 
1912.453696  	94.489127 
1913.418121  	94.465330 
1914.382545  	94.449696 
1915.346970  	94.446800 
1916.311394  	94.416808 
1917.275819  	94.127698 
1918.240243  	93.486358 
1919.204667  	94.024501 
1920.169092  	94.438276 
1921.133516  	94.312686 
1922.097941  	93.783548 
1923.062365  	93.301766 
1924.026790  	93.930422 
1924.991214  	94.421895 
1925.955639  	94.381961 
1926.920063  	94.406068 
1927.884488  	94.408385 
1928.848912  	94.429449 
1929.813336  	94.453890 
1930.777761  	94.532055 
1931.742185  	94.402075 
1932.706610  	94.399675 
1933.671034  	94.555598 
1934.635459  	94.557404 
1935.599883  	94.496541 
1936.564308  	94.512845 
1937.528732  	94.237075 
1938.493157  	94.258426 
1939.457581  	94.495221 
1940.422005  	94.377094 
1941.386430  	93.953299 
1942.350854  	93.118351 
1943.315279  	93.229756 
1944.279703  	93.984144 
1945.244128  	93.856425 
1946.208552  	93.705897 
1947.172977  	93.825931 
1948.137401  	93.951601 
1949.101826  	93.895912 
1950.066250  	94.101105 
1951.030674  	94.180119 
1951.995099  	94.005885 
1952.959523  	93.888896 
1953.923948  	93.758190 
1954.888372  	93.672461 
1955.852797  	93.948589 
1956.817221  	94.309892 
1957.781646  	94.370469 
1958.746070  	94.132134 
1959.710495  	94.123174 
1960.674919  	94.111632 
1961.639344  	94.154351 
1962.603768  	93.894366 
1963.568192  	93.937265 
1964.532617  	94.408115 
1965.497041  	94.598649 
1966.461466  	94.296783 
1967.425890  	93.890115 
1968.390315  	94.194981 
1969.354739  	94.574844 
1970.319164  	94.534146 
1971.283588  	94.403095 
1972.248013  	94.314197 
1973.212437  	94.521029 
1974.176861  	94.655657 
1975.141286  	94.538834 
1976.105710  	94.575000 
1977.070135  	94.887185 
1978.034559  	94.730631 
1978.998984  	94.182074 
1979.963408  	94.055128 
1980.927833  	94.163128 
1981.892257  	94.295424 
1982.856682  	94.572733 
1983.821106  	94.721968 
1984.785530  	94.744904 
1985.749955  	94.585166 
1986.714379  	94.431934 
1987.678804  	94.212887 
1988.643228  	94.182386 
1989.607653  	94.693539 
1990.572077  	94.503819 
1991.536502  	93.768381 
1992.500926  	93.703894 
1993.465351  	94.175125 
1994.429775  	94.468520 
1995.394199  	94.427127 
1996.358624  	94.536714 
1997.323048  	94.470914 
1998.287473  	94.410367 
1999.251897  	94.571275 
2000.216322  	94.721958 
2001.180746  	94.843562 
2002.145171  	94.992838 
2003.109595  	95.273722 
2004.074020  	95.452732 
2005.038444  	95.396711 
2006.002868  	95.270483 
2006.967293  	95.183615 
2007.931717  	95.053352 
2008.896142  	94.989856 
2009.860566  	95.098553 
2010.824991  	95.139891 
2011.789415  	94.960936 
2012.753840  	94.907881 
2013.718264  	94.793825 
2014.682689  	94.696408 
2015.647113  	94.951292 
2016.611537  	94.765743 
2017.575962  	94.530947 
2018.540386  	94.562761 
2019.504811  	94.785187 
2020.469235  	94.888774 
2021.433660  	95.144895 
2022.398084  	95.076282 
2023.362509  	95.109514 
2024.326933  	95.171746 
2025.291358  	95.137264 
2026.255782  	95.117216 
2027.220207  	95.054006 
2028.184631  	94.839648 
2029.149055  	95.086480 
2030.113480  	95.253876 
2031.077904  	95.260149 
2032.042329  	94.930039 
2033.006753  	94.905983 
2033.971178  	94.992609 
2034.935602  	94.870863 
2035.900027  	94.843155 
2036.864451  	94.830168 
2037.828876  	94.812266 
2038.793300  	94.860536 
2039.757724  	94.710504 
2040.722149  	94.568398 
2041.686573  	94.326703 
2042.650998  	94.413741 
2043.615422  	94.432013 
2044.579847  	94.579285 
2045.544271  	94.841073 
2046.508696  	94.767642 
2047.473120  	94.620060 
2048.437545  	94.719490 
2049.401969  	94.728573 
2050.366393  	94.493785 
2051.330818  	94.398192 
2052.295242  	94.560439 
2053.259667  	94.661803 
2054.224091  	94.403767 
2055.188516  	94.167885 
2056.152940  	94.210804 
2057.117365  	94.112885 
2058.081789  	94.203354 
2059.046214  	94.339039 
2060.010638  	94.305694 
2060.975062  	94.132006 
2061.939487  	94.237844 
2062.903911  	94.294221 
2063.868336  	94.163488 
2064.832760  	93.862600 
2065.797185  	93.971082 
2066.761609  	94.111048 
2067.726034  	94.231527 
2068.690458  	94.326108 
2069.654883  	94.189426 
2070.619307  	94.094228 
2071.583731  	94.181731 
2072.548156  	94.113349 
2073.512580  	94.016860 
2074.477005  	93.927202 
2075.441429  	94.115664 
2076.405854  	94.076756 
2077.370278  	93.877518 
2078.334703  	93.898284 
2079.299127  	93.916247 
2080.263552  	93.939658 
2081.227976  	94.008014 
2082.192401  	93.963527 
2083.156825  	93.837443 
2084.121249  	93.845980 
2085.085674  	94.033172 
2086.050098  	94.029733 
2087.014523  	93.885057 
2087.978947  	93.891629 
2088.943372  	93.956631 
2089.907796  	93.877335 
2090.872221  	93.896813 
2091.836645  	94.073975 
2092.801070  	94.069098 
2093.765494  	94.067822 
2094.729918  	94.108001 
2095.694343  	93.940971 
2096.658767  	93.821567 
2097.623192  	93.744366 
2098.587616  	93.767330 
2099.552041  	93.843859 
2100.516465  	93.850987 
2101.480890  	93.899505 
2102.445314  	93.797372 
2103.409739  	93.690272 
2104.374163  	93.757310 
2105.338587  	93.714791 
2106.303012  	93.722263 
2107.267436  	93.838259 
2108.231861  	93.893208 
2109.196285  	93.831744 
2110.160710  	93.882941 
2111.125134  	93.966672 
2112.089559  	93.888408 
2113.053983  	93.860232 
2114.018408  	93.858050 
2114.982832  	93.790426 
2115.947256  	93.806993 
2116.911681  	93.865594 
2117.876105  	93.932544 
2118.840530  	93.955838 
2119.804954  	93.957396 
2120.769379  	94.004868 
2121.733803  	94.010969 
2122.698228  	94.041204 
2123.662652  	94.049272 
2124.627077  	94.017769 
2125.591501  	94.114777 
2126.555925  	94.341252 
2127.520350  	94.365687 
2128.484774  	94.321847 
2129.449199  	94.466660 
2130.413623  	94.557529 
2131.378048  	94.463212 
2132.342472  	94.523584 
2133.306897  	94.566567 
2134.271321  	94.441856 
2135.235746  	94.273865 
2136.200170  	94.184056 
2137.164594  	94.520395 
2138.129019  	94.694738 
2139.093443  	94.707728 
2140.057868  	94.806254 
2141.022292  	94.615687 
2141.986717  	94.435602 
2142.951141  	94.457724 
2143.915566  	94.668037 
2144.879990  	94.770421 
2145.844415  	94.622436 
2146.808839  	94.759576 
2147.773264  	94.949987 
2148.737688  	94.978231 
2149.702112  	94.947277 
2150.666537  	94.771243 
2151.630961  	94.704477 
2152.595386  	94.993111 
2153.559810  	95.108356 
2154.524235  	95.229336 
2155.488659  	95.593420 
2156.453084  	95.995073 
2157.417508  	95.919983 
2158.381933  	95.803668 
2159.346357  	95.164663 
2160.310781  	94.288312 
2161.275206  	94.006289 
2162.239630  	94.295345 
2163.204055  	94.679577 
2164.168479  	94.756928 
2165.132904  	94.626497 
2166.097328  	94.594716 
2167.061753  	94.610236 
2168.026177  	94.528066 
2168.990602  	94.448108 
2169.955026  	94.556758 
2170.919450  	94.907301 
2171.883875  	94.868833 
2172.848299  	94.845684 
2173.812724  	94.797185 
2174.777148  	94.753639 
2175.741573  	94.689044 
2176.705997  	94.446443 
2177.670422  	94.563760 
2178.634846  	94.727028 
2179.599271  	94.592266 
2180.563695  	94.531909 
2181.528119  	94.868598 
2182.492544  	94.825372 
2183.456968  	94.229357 
2184.421393  	94.025588 
2185.385817  	94.468275 
2186.350242  	94.646544 
2187.314666  	94.312720 
2188.279091  	94.315732 
2189.243515  	94.326541 
2190.207940  	94.371801 
2191.172364  	94.628739 
2192.136788  	94.794699 
2193.101213  	94.792592 
2194.065637  	94.577813 
2195.030062  	94.282735 
2195.994486  	94.107381 
2196.958911  	94.326791 
2197.923335  	94.597096 
2198.887760  	94.576168 
2199.852184  	94.507314 
2200.816609  	94.397738 
2201.781033  	94.376088 
2202.745458  	94.526359 
2203.709882  	94.556387 
2204.674306  	94.294334 
2205.638731  	94.177078 
2206.603155  	94.271917 
2207.567580  	94.244551 
2208.532004  	94.165596 
2209.496429  	94.222731 
2210.460853  	94.226231 
2211.425278  	94.238358 
2212.389702  	94.180210 
2213.354127  	94.070793 
2214.318551  	94.029172 
2215.282975  	93.981053 
2216.247400  	94.027376 
2217.211824  	94.227772 
2218.176249  	94.414973 
2219.140673  	94.391915 
2220.105098  	94.106264 
2221.069522  	94.168162 
2222.033947  	94.384395 
2222.998371  	94.330917 
2223.962796  	94.196417 
2224.927220  	94.215102 
2225.891644  	94.089787 
2226.856069  	94.100550 
2227.820493  	94.162942 
2228.784918  	94.133800 
2229.749342  	94.041869 
2230.713767  	93.931785 
2231.678191  	93.850755 
2232.642616  	93.857018 
2233.607040  	94.065710 
2234.571465  	94.267172 
2235.535889  	94.205392 
2236.500313  	94.108978 
2237.464738  	94.077961 
2238.429162  	94.108204 
2239.393587  	94.111942 
2240.358011  	94.076698 
2241.322436  	94.081654 
2242.286860  	93.952234 
2243.251285  	93.943570 
2244.215709  	94.016272 
2245.180134  	93.885247 
2246.144558  	93.794634 
2247.108982  	93.799495 
2248.073407  	93.780603 
2249.037831  	93.757474 
2250.002256  	93.774155 
2250.966680  	93.832744 
2251.931105  	93.885736 
2252.895529  	93.950507 
2253.859954  	93.882193 
2254.824378  	93.678008 
2255.788803  	93.709537 
2256.753227  	93.752074 
2257.717651  	93.810423 
2258.682076  	93.701175 
2259.646500  	93.626664 
2260.610925  	93.514512 
2261.575349  	93.406451 
2262.539774  	93.554507 
2263.504198  	93.717554 
2264.468623  	93.752596 
2265.433047  	93.820326 
2266.397472  	93.833102 
2267.361896  	93.770203 
2268.326321  	93.748230 
2269.290745  	93.684300 
2270.255169  	93.732711 
2271.219594  	93.766540 
2272.184018  	93.660105 
2273.148443  	93.568764 
2274.112867  	93.552051 
2275.077292  	93.537704 
2276.041716  	93.471430 
2277.006141  	93.445976 
2277.970565  	93.469670 
2278.934990  	93.429477 
2279.899414  	93.416018 
2280.863838  	93.445802 
2281.828263  	93.474439 
2282.792687  	93.412324 
2283.757112  	93.358472 
2284.721536  	93.338454 
2285.685961  	93.292278 
2286.650385  	93.296893 
2287.614810  	93.329591 
2288.579234  	93.324854 
2289.543659  	93.277523 
2290.508083  	93.340071 
2291.472507  	93.352469 
2292.436932  	93.358867 
2293.401356  	93.322217 
2294.365781  	93.252966 
2295.330205  	93.247135 
2296.294630  	93.153321 
2297.259054  	93.173670 
2298.223479  	93.130606 
2299.187903  	93.150615 
2300.152328  	93.188870 
2301.116752  	93.202673 
2302.081176  	93.206508 
2303.045601  	93.049399 
2304.010025  	93.141555 
2304.974450  	92.967069 
2305.938874  	92.953392 
2306.903299  	92.827114 
2307.867723  	92.911610 
2308.832148  	92.876423 
2309.796572  	92.924949 
2310.760997  	92.843942 
2311.725421  	92.784366 
2312.689845  	92.904202 
2313.654270  	92.878392 
2314.618694  	92.852911 
2315.583119  	92.867920 
2316.547543  	92.930387 
2317.511968  	92.895296 
2318.476392  	92.922994 
2319.440817  	92.818940 
2320.405241  	92.740881 
2321.369666  	92.740340 
2322.334090  	92.827944 
2323.298515  	92.759826 
2324.262939  	92.715998 
2325.227363  	92.975186 
2326.191788  	93.295568 
2327.156212  	93.400777 
2328.120637  	93.447236 
2329.085061  	93.418433 
2330.049486  	93.407172 
2331.013910  	93.398126 
2331.978335  	93.533221 
2332.942759  	93.662739 
2333.907184  	93.748212 
2334.871608  	93.813589 
2335.836032  	93.906429 
2336.800457  	93.935909 
2337.764881  	93.993179 
2338.729306  	94.004385 
2339.693730  	93.786650 
2340.658155  	93.750095 
2341.622579  	93.948846 
2342.587004  	93.936230 
2343.551428  	93.750988 
2344.515853  	93.484252 
2345.480277  	93.317566 
2346.444701  	93.294139 
2347.409126  	93.253192 
2348.373550  	93.109973 
2349.337975  	93.060077 
2350.302399  	93.157453 
2351.266824  	93.381350 
2352.231248  	93.629192 
2353.195673  	93.699229 
2354.160097  	93.645844 
2355.124522  	93.666419 
2356.088946  	93.750866 
2357.053370  	93.851802 
2358.017795  	93.944278 
2358.982219  	93.944118 
2359.946644  	93.981063 
2360.911068  	93.994234 
2361.875493  	93.936051 
2362.839917  	93.887759 
2363.804342  	93.825477 
2364.768766  	93.755948 
2365.733191  	93.788186 
2366.697615  	93.781977 
2367.662039  	93.710278 
2368.626464  	93.572039 
2369.590888  	93.360404 
2370.555313  	93.234281 
2371.519737  	93.128354 
2372.484162  	93.050407 
2373.448586  	93.049036 
2374.413011  	93.023260 
2375.377435  	92.945652 
2376.341860  	92.849187 
2377.306284  	92.811544 
2378.270708  	92.814680 
2379.235133  	92.735200 
2380.199557  	92.787408 
2381.163982  	92.939049 
2382.128406  	93.035390 
2383.092831  	93.070620 
2384.057255  	93.106047 
2385.021680  	93.192134 
2385.986104  	93.298350 
2386.950529  	93.387562 
2387.914953  	93.457420 
2388.879378  	93.428611 
2389.843802  	93.444100 
2390.808226  	93.455430 
2391.772651  	93.433141 
2392.737075  	93.449591 
2393.701500  	93.511295 
2394.665924  	93.511111 
2395.630349  	93.500997 
2396.594773  	93.477806 
2397.559198  	93.481504 
2398.523622  	93.544389 
2399.488047  	93.582855 
2400.452471  	93.547704 
2401.416895  	93.474139 
2402.381320  	93.449848 
2403.345744  	93.537950 
2404.310169  	93.567441 
2405.274593  	93.523402 
2406.239018  	93.490425 
2407.203442  	93.535570 
2408.167867  	93.540058 
2409.132291  	93.535676 
2410.096716  	93.534050 
2411.061140  	93.505135 
2412.025564  	93.473337 
2412.989989  	93.493175 
2413.954413  	93.512653 
2414.918838  	93.522885 
2415.883262  	93.541171 
2416.847687  	93.539130 
2417.812111  	93.568338 
2418.776536  	93.555199 
2419.740960  	93.540630 
2420.705385  	93.524798 
2421.669809  	93.488724 
2422.634233  	93.509074 
2423.598658  	93.487514 
2424.563082  	93.500314 
2425.527507  	93.555401 
2426.491931  	93.555974 
2427.456356  	93.538529 
2428.420780  	93.578675 
2429.385205  	93.596117 
2430.349629  	93.595533 
2431.314054  	93.563329 
2432.278478  	93.573258 
2433.242902  	93.593021 
2434.207327  	93.594912 
2435.171751  	93.636417 
2436.136176  	93.689760 
2437.100600  	93.680410 
2438.065025  	93.588557 
2439.029449  	93.576927 
2439.993874  	93.589902 
2440.958298  	93.601506 
2441.922723  	93.576030 
2442.887147  	93.554406 
2443.851572  	93.605193 
2444.815996  	93.620420 
2445.780420  	93.586995 
2446.744845  	93.567397 
2447.709269  	93.546887 
2448.673694  	93.519249 
2449.638118  	93.519767 
2450.602543  	93.536333 
2451.566967  	93.513887 
2452.531392  	93.482692 
2453.495816  	93.503694 
2454.460241  	93.523529 
2455.424665  	93.541175 
2456.389089  	93.542910 
2457.353514  	93.559152 
2458.317938  	93.621662 
2459.282363  	93.628897 
2460.246787  	93.639900 
2461.211212  	93.592133 
2462.175636  	93.564684 
2463.140061  	93.529463 
2464.104485  	93.505603 
2465.068910  	93.517871 
2466.033334  	93.518196 
2466.997758  	93.530541 
2467.962183  	93.581173 
2468.926607  	93.600140 
2469.891032  	93.566835 
2470.855456  	93.520849 
2471.819881  	93.519880 
2472.784305  	93.527080 
2473.748730  	93.558798 
2474.713154  	93.640003 
2475.677579  	93.602415 
2476.642003  	93.512571 
2477.606427  	93.548695 
2478.570852  	93.572471 
2479.535276  	93.552659 
2480.499701  	93.520066 
2481.464125  	93.524121 
2482.428550  	93.551003 
2483.392974  	93.538295 
2484.357399  	93.570493 
2485.321823  	93.515449 
2486.286248  	93.442595 
2487.250672  	93.455407 
2488.215096  	93.482567 
2489.179521  	93.458631 
2490.143945  	93.431665 
2491.108370  	93.388816 
2492.072794  	93.405461 
2493.037219  	93.460250 
2494.001643  	93.462194 
2494.966068  	93.477908 
2495.930492  	93.580060 
2496.894917  	93.578580 
2497.859341  	93.503269 
2498.823765  	93.411306 
2499.788190  	93.440275 
2500.752614  	93.476484 
2501.717039  	93.411911 
2502.681463  	93.349267 
2503.645888  	93.356493 
2504.610312  	93.337844 
2505.574737  	93.362896 
2506.539161  	93.433673 
2507.503586  	93.459297 
2508.468010  	93.417804 
2509.432435  	93.398470 
2510.396859  	93.407080 
2511.361283  	93.416141 
2512.325708  	93.402863 
2513.290132  	93.426688 
2514.254557  	93.450236 
2515.218981  	93.378305 
2516.183406  	93.344918 
2517.147830  	93.446653 
2518.112255  	93.401761 
2519.076679  	93.335463 
2520.041104  	93.386255 
2521.005528  	93.382899 
2521.969952  	93.314795 
2522.934377  	93.303528 
2523.898801  	93.370985 
2524.863226  	93.435275 
2525.827650  	93.353717 
2526.792075  	93.305694 
2527.756499  	93.375161 
2528.720924  	93.434975 
2529.685348  	93.328934 
2530.649773  	93.313983 
2531.614197  	93.372094 
2532.578621  	93.381929 
2533.543046  	93.360788 
2534.507470  	93.335557 
2535.471895  	93.328504 
2536.436319  	93.328582 
2537.400744  	93.376477 
2538.365168  	93.341360 
2539.329593  	93.343504 
2540.294017  	93.339745 
2541.258442  	93.346100 
2542.222866  	93.369900 
2543.187290  	93.354010 
2544.151715  	93.355724 
2545.116139  	93.338307 
2546.080564  	93.313131 
2547.044988  	93.266830 
2548.009413  	93.206651 
2548.973837  	93.224162 
2549.938262  	93.250472 
2550.902686  	93.281343 
2551.867111  	93.324805 
2552.831535  	93.298370 
2553.795959  	93.259535 
2554.760384  	93.264625 
2555.724808  	93.260684 
2556.689233  	93.234269 
2557.653657  	93.202119 
2558.618082  	93.202815 
2559.582506  	93.283340 
2560.546931  	93.314644 
2561.511355  	93.256910 
2562.475780  	93.217661 
2563.440204  	93.203717 
2564.404629  	93.272159 
2565.369053  	93.306773 
2566.333477  	93.299874 
2567.297902  	93.317850 
2568.262326  	93.338124 
2569.226751  	93.245903 
2570.191175  	93.198633 
2571.155600  	93.268100 
2572.120024  	93.300742 
2573.084449  	93.343385 
2574.048873  	93.300401 
2575.013298  	93.183978 
2575.977722  	93.173064 
2576.942146  	93.240160 
2577.906571  	93.268918 
2578.870995  	93.287125 
2579.835420  	93.270491 
2580.799844  	93.233123 
2581.764269  	93.152328 
2582.728693  	93.212528 
2583.693118  	93.231534 
2584.657542  	93.179548 
2585.621967  	93.220499 
2586.586391  	93.233209 
2587.550815  	93.252463 
2588.515240  	93.260134 
2589.479664  	93.204527 
2590.444089  	93.134171 
2591.408513  	93.157890 
2592.372938  	93.180822 
2593.337362  	93.172454 
2594.301787  	93.172886 
2595.266211  	93.168455 
2596.230636  	93.181956 
2597.195060  	93.232785 
2598.159484  	93.273440 
2599.123909  	93.267418 
2600.088333  	93.264123 
2601.052758  	93.230005 
2602.017182  	93.206490 
2602.981607  	93.208428 
2603.946031  	93.219963 
2604.910456  	93.209890 
2605.874880  	93.210297 
2606.839305  	93.195304 
2607.803729  	93.205419 
2608.768153  	93.200695 
2609.732578  	93.194895 
2610.697002  	93.179654 
2611.661427  	93.195423 
2612.625851  	93.228692 
2613.590276  	93.222286 
2614.554700  	93.186388 
2615.519125  	93.184996 
2616.483549  	93.197343 
2617.447974  	93.151697 
2618.412398  	93.175365 
2619.376822  	93.185483 
2620.341247  	93.151894 
2621.305671  	93.131672 
2622.270096  	93.127896 
2623.234520  	93.122919 
2624.198945  	93.108677 
2625.163369  	93.141552 
2626.127794  	93.121355 
2627.092218  	93.094753 
2628.056643  	93.114574 
2629.021067  	93.096812 
2629.985492  	93.095814 
2630.949916  	93.164798 
2631.914340  	93.135850 
2632.878765  	93.099894 
2633.843189  	93.131818 
2634.807614  	93.135944 
2635.772038  	93.110666 
2636.736463  	93.075102 
2637.700887  	93.084485 
2638.665312  	93.106553 
2639.629736  	93.111332 
2640.594161  	93.155473 
2641.558585  	93.178765 
2642.523009  	93.145769 
2643.487434  	93.134937 
2644.451858  	93.172069 
2645.416283  	93.184305 
2646.380707  	93.185078 
2647.345132  	93.160958 
2648.309556  	93.161695 
2649.273981  	93.170023 
2650.238405  	93.195215 
2651.202830  	93.198690 
2652.167254  	93.157632 
2653.131678  	93.150472 
2654.096103  	93.174320 
2655.060527  	93.174380 
2656.024952  	93.182352 
2656.989376  	93.174336 
2657.953801  	93.171495 
2658.918225  	93.201185 
2659.882650  	93.209611 
2660.847074  	93.199429 
2661.811499  	93.223536 
2662.775923  	93.232815 
2663.740347  	93.237711 
2664.704772  	93.247807 
2665.669196  	93.271861 
2666.633621  	93.269280 
2667.598045  	93.248714 
2668.562470  	93.226287 
2669.526894  	93.221970 
2670.491319  	93.228043 
2671.455743  	93.258781 
2672.420168  	93.282440 
2673.384592  	93.289122 
2674.349016  	93.276375 
2675.313441  	93.271419 
2676.277865  	93.285969 
2677.242290  	93.284001 
2678.206714  	93.261199 
2679.171139  	93.250335 
2680.135563  	93.246914 
2681.099988  	93.258039 
2682.064412  	93.245024 
2683.028837  	93.229411 
2683.993261  	93.235250 
2684.957686  	93.243299 
2685.922110  	93.238005 
2686.886534  	93.205179 
2687.850959  	93.203489 
2688.815383  	93.225542 
2689.779808  	93.222616 
2690.744232  	93.221069 
2691.708657  	93.241176 
2692.673081  	93.241951 
2693.637506  	93.225392 
2694.601930  	93.235084 
2695.566355  	93.247908 
2696.530779  	93.240826 
2697.495203  	93.221044 
2698.459628  	93.242240 
2699.424052  	93.246182 
2700.388477  	93.225400 
2701.352901  	93.211622 
2702.317326  	93.194133 
2703.281750  	93.213361 
2704.246175  	93.216035 
2705.210599  	93.198479 
2706.175024  	93.187382 
2707.139448  	93.189759 
2708.103872  	93.174520 
2709.068297  	93.182809 
2710.032721  	93.203354 
2710.997146  	93.184531 
2711.961570  	93.192170 
2712.925995  	93.238227 
2713.890419  	93.216960 
2714.854844  	93.201936 
2715.819268  	93.233397 
2716.783693  	93.215973 
2717.748117  	93.213721 
2718.712541  	93.217998 
2719.676966  	93.205512 
2720.641390  	93.185922 
2721.605815  	93.206514 
2722.570239  	93.225033 
2723.534664  	93.211421 
2724.499088  	93.186727 
2725.463513  	93.176216 
2726.427937  	93.167950 
2727.392362  	93.147353 
2728.356786  	93.128046 
2729.321210  	93.134269 
2730.285635  	93.156863 
2731.250059  	93.127334 
2732.214484  	93.094780 
2733.178908  	93.111469 
2734.143333  	93.138427 
2735.107757  	93.131338 
2736.072182  	93.128820 
2737.036606  	93.141879 
2738.001031  	93.113174 
2738.965455  	93.106849 
2739.929879  	93.114322 
2740.894304  	93.105862 
2741.858728  	93.090310 
2742.823153  	93.100539 
2743.787577  	93.099952 
2744.752002  	93.100336 
2745.716426  	93.083436 
2746.680851  	93.058337 
2747.645275  	93.060639 
2748.609700  	93.054670 
2749.574124  	93.037929 
2750.538549  	93.058919 
2751.502973  	93.019021 
2752.467397  	93.025062 
2753.431822  	93.054844 
2754.396246  	93.078005 
2755.360671  	93.106291 
2756.325095  	93.130905 
2757.289520  	93.100452 
2758.253944  	93.092943 
2759.218369  	93.088011 
2760.182793  	93.045925 
2761.147218  	93.030876 
2762.111642  	93.046477 
2763.076066  	93.062566 
2764.040491  	93.102130 
2765.004915  	93.080562 
2765.969340  	93.051197 
2766.933764  	93.062847 
2767.898189  	93.058170 
2768.862613  	93.041265 
2769.827038  	93.036201 
2770.791462  	93.039097 
2771.755887  	93.016281 
2772.720311  	93.001940 
2773.684735  	93.018553 
2774.649160  	93.001694 
2775.613584  	93.003047 
2776.578009  	93.012659 
2777.542433  	93.001148 
2778.506858  	93.000056 
2779.471282  	93.023859 
2780.435707  	93.010475 
2781.400131  	92.968660 
2782.364556  	92.972346 
2783.328980  	92.997253 
2784.293404  	92.986529 
2785.257829  	92.987845 
2786.222253  	93.013625 
2787.186678  	93.005206 
2788.151102  	92.953825 
2789.115527  	92.985552 
2790.079951  	92.979687 
2791.044376  	92.946616 
2792.008800  	92.926884 
2792.973225  	92.888165 
2793.937649  	92.894396 
2794.902073  	92.901510 
2795.866498  	92.912006 
2796.830922  	92.920687 
2797.795347  	92.899615 
2798.759771  	92.893039 
2799.724196  	92.855813 
2800.688620  	92.853182 
2801.653045  	92.873429 
2802.617469  	92.847429 
2803.581894  	92.868045 
2804.546318  	92.890090 
2805.510743  	92.880183 
2806.475167  	92.838285 
2807.439591  	92.817151 
2808.404016  	92.832965 
2809.368440  	92.856915 
2810.332865  	92.897732 
2811.297289  	92.872828 
2812.261714  	92.858165 
2813.226138  	92.860576 
2814.190563  	92.841414 
2815.154987  	92.861882 
2816.119412  	92.877481 
2817.083836  	92.868158 
2818.048260  	92.867581 
2819.012685  	92.882161 
2819.977109  	92.912288 
2820.941534  	92.904863 
2821.905958  	92.876903 
2822.870383  	92.842577 
2823.834807  	92.855670 
2824.799232  	92.852362 
2825.763656  	92.861717 
2826.728081  	92.849785 
2827.692505  	92.839531 
2828.656929  	92.862580 
2829.621354  	92.873098 
2830.585778  	92.853205 
2831.550203  	92.810394 
2832.514627  	92.764463 
2833.479052  	92.752342 
2834.443476  	92.779185 
2835.407901  	92.797410 
2836.372325  	92.757271 
2837.336750  	92.729554 
2838.301174  	92.711201 
2839.265598  	92.690523 
2840.230023  	92.700024 
2841.194447  	92.687922 
2842.158872  	92.622207 
2843.123296  	92.603163 
2844.087721  	92.568432 
2845.052145  	92.502565 
2846.016570  	92.430612 
2846.980994  	92.390142 
2847.945419  	92.349089 
2848.909843  	92.279982 
2849.874267  	92.212572 
2850.838692  	92.190877 
2851.803116  	92.199514 
2852.767541  	92.225621 
2853.731965  	92.262126 
2854.696390  	92.306612 
2855.660814  	92.310669 
2856.625239  	92.317346 
2857.589663  	92.339976 
2858.554088  	92.346028 
2859.518512  	92.361579 
2860.482936  	92.377650 
2861.447361  	92.370393 
2862.411785  	92.386679 
2863.376210  	92.407765 
2864.340634  	92.391853 
2865.305059  	92.346956 
2866.269483  	92.333828 
2867.233908  	92.315070 
2868.198332  	92.300959 
2869.162757  	92.318329 
2870.127181  	92.341930 
2871.091606  	92.321996 
2872.056030  	92.309862 
2873.020454  	92.333169 
2873.984879  	92.317453 
2874.949303  	92.260152 
2875.913728  	92.272152 
2876.878152  	92.276972 
2877.842577  	92.260042 
2878.807001  	92.244898 
2879.771426  	92.254819 
2880.735850  	92.238787 
2881.700275  	92.217807 
2882.664699  	92.200571 
2883.629123  	92.154395 
2884.593548  	92.147637 
2885.557972  	92.163350 
2886.522397  	92.142344 
2887.486821  	92.111451 
2888.451246  	92.077448 
2889.415670  	92.067341 
2890.380095  	92.067453 
2891.344519  	92.095453 
2892.308944  	92.091798 
2893.273368  	92.035487 
2894.237792  	92.023322 
2895.202217  	92.012422 
2896.166641  	91.991813 
2897.131066  	91.939790 
2898.095490  	91.909365 
2899.059915  	91.883826 
2900.024339  	91.805286 
2900.988764  	91.776857 
2901.953188  	91.760253 
2902.917613  	91.654251 
2903.882037  	91.559590 
2904.846461  	91.542768 
2905.810886  	91.469196 
2906.775310  	91.397916 
2907.739735  	91.359425 
2908.704159  	91.356184 
2909.668584  	91.395412 
2910.633008  	91.397608 
2911.597433  	91.428607 
2912.561857  	91.507774 
2913.526282  	91.534306 
2914.490706  	91.525627 
2915.455130  	91.508171 
2916.419555  	91.524463 
2917.383979  	91.571123 
2918.348404  	91.623410 
2919.312828  	91.645773 
2920.277253  	91.650399 
2921.241677  	91.699586 
2922.206102  	91.786003 
2923.170526  	91.831662 
2924.134951  	91.886415 
2925.099375  	91.923561 
2926.063800  	91.943758 
2927.028224  	91.946258 
2927.992648  	91.949947 
2928.957073  	92.004373 
2929.921497  	92.017267 
2930.885922  	92.014664 
2931.850346  	92.046726 
2932.814771  	92.096118 
2933.779195  	92.084909 
2934.743620  	92.050413 
2935.708044  	92.034105 
2936.672469  	92.035735 
2937.636893  	92.033148 
2938.601317  	91.996242 
2939.565742  	92.003437 
2940.530166  	92.002656 
2941.494591  	91.924963 
2942.459015  	91.889530 
2943.423440  	91.875731 
2944.387864  	91.791089 
2945.352289  	91.692121 
2946.316713  	91.649313 
2947.281138  	91.652674 
2948.245562  	91.634606 
2949.209986  	91.544022 
2950.174411  	91.427864 
2951.138835  	91.427865 
2952.103260  	91.402091 
2953.067684  	91.296213 
2954.032109  	91.191852 
2954.996533  	91.147635 
2955.960958  	91.108996 
2956.925382  	91.032103 
2957.889807  	90.953114 
2958.854231  	90.902280 
2959.818655  	90.878276 
2960.783080  	90.845321 
2961.747504  	90.780926 
2962.711929  	90.733765 
2963.676353  	90.676713 
2964.640778  	90.581578 
2965.605202  	90.535724 
2966.569627  	90.485513 
2967.534051  	90.503122 
2968.498476  	90.565545 
2969.462900  	90.563814 
2970.427324  	90.509876 
2971.391749  	90.512196 
2972.356173  	90.592445 
2973.320598  	90.664616 
2974.285022  	90.717063 
2975.249447  	90.761039 
2976.213871  	90.845859 
2977.178296  	90.948566 
2978.142720  	91.025717 
2979.107145  	91.128750 
2980.071569  	91.242567 
2981.035993  	91.280662 
2982.000418  	91.362430 
2982.964842  	91.462867 
2983.929267  	91.524495 
2984.893691  	91.591451 
2985.858116  	91.638907 
2986.822540  	91.692894 
2987.786965  	91.747519 
2988.751389  	91.763614 
2989.715814  	91.804025 
2990.680238  	91.898951 
2991.644663  	91.927626 
2992.609087  	91.928078 
2993.573511  	91.961612 
2994.537936  	91.967717 
2995.502360  	91.984977 
2996.466785  	92.000683 
2997.431209  	92.009570 
2998.395634  	92.034752 
2999.360058  	92.055672 
3000.324483  	92.085806 
3001.288907  	92.098261 
3002.253332  	92.098621 
3003.217756  	92.117005 
3004.182180  	92.088081 
3005.146605  	92.075934 
3006.111029  	92.136115 
3007.075454  	92.179562 
3008.039878  	92.171985 
3009.004303  	92.233987 
3009.968727  	92.231539 
3010.933152  	92.184885 
3011.897576  	92.155540 
3012.862001  	92.133074 
3013.826425  	92.248258 
3014.790849  	92.316105 
3015.755274  	92.268302 
3016.719698  	92.295980 
3017.684123  	92.374008 
3018.648547  	92.428596 
3019.612972  	92.448237 
3020.577396  	92.497860 
3021.541821  	92.561328 
3022.506245  	92.592817 
3023.470670  	92.616327 
3024.435094  	92.645768 
3025.399518  	92.654662 
3026.363943  	92.693492 
3027.328367  	92.762695 
3028.292792  	92.794925 
3029.257216  	92.828260 
3030.221641  	92.756695 
3031.186065  	92.611119 
3032.150490  	92.581943 
3033.114914  	92.693485 
3034.079339  	92.722358 
3035.043763  	92.729825 
3036.008187  	92.757656 
3036.972612  	92.744862 
3037.937036  	92.714031 
3038.901461  	92.728170 
3039.865885  	92.763812 
3040.830310  	92.776990 
3041.794734  	92.760818 
3042.759159  	92.733326 
3043.723583  	92.758760 
3044.688008  	92.771877 
3045.652432  	92.740155 
3046.616857  	92.684267 
3047.581281  	92.614133 
3048.545705  	92.509891 
3049.510130  	92.467860 
3050.474554  	92.469695 
3051.438979  	92.437511 
3052.403403  	92.419289 
3053.367828  	92.397159 
3054.332252  	92.337593 
3055.296677  	92.329285 
3056.261101  	92.293911 
3057.225526  	92.296180 
3058.189950  	92.420107 
3059.154374  	92.476124 
3060.118799  	92.479130 
3061.083223  	92.518191 
3062.047648  	92.537869 
3063.012072  	92.494945 
3063.976497  	92.413625 
3064.940921  	92.344480 
3065.905346  	92.408286 
3066.869770  	92.397718 
3067.834195  	92.403877 
3068.798619  	92.458870 
3069.763043  	92.481571 
3070.727468  	92.538922 
3071.691892  	92.568364 
3072.656317  	92.510399 
3073.620741  	92.453905 
3074.585166  	92.487741 
3075.549590  	92.544467 
3076.514015  	92.538776 
3077.478439  	92.495249 
3078.442864  	92.467658 
3079.407288  	92.444955 
3080.371712  	92.461803 
3081.336137  	92.508961 
3082.300561  	92.492700 
3083.264986  	92.561619 
3084.229410  	92.632270 
3085.193835  	92.614340 
3086.158259  	92.627306 
3087.122684  	92.625403 
3088.087108  	92.616356 
3089.051533  	92.658672 
3090.015957  	92.660181 
3090.980381  	92.660610 
3091.944806  	92.690125 
3092.909230  	92.718210 
3093.873655  	92.675800 
3094.838079  	92.608044 
3095.802504  	92.628823 
3096.766928  	92.709881 
3097.731353  	92.716541 
3098.695777  	92.670581 
3099.660202  	92.627112 
3100.624626  	92.551429 
3101.589050  	92.497804 
3102.553475  	92.492243 
3103.517899  	92.513910 
3104.482324  	92.583674 
3105.446748  	92.603526 
3106.411173  	92.613737 
3107.375597  	92.614003 
3108.340022  	92.632032 
3109.304446  	92.666676 
3110.268871  	92.648018 
3111.233295  	92.641673 
3112.197720  	92.644357 
3113.162144  	92.691969 
3114.126568  	92.698648 
3115.090993  	92.656783 
3116.055417  	92.673470 
3117.019842  	92.762847 
3117.984266  	92.749384 
3118.948691  	92.672689 
3119.913115  	92.766426 
3120.877540  	92.828747 
3121.841964  	92.718961 
3122.806389  	92.655361 
3123.770813  	92.735559 
3124.735237  	92.776258 
3125.699662  	92.750235 
3126.664086  	92.713506 
3127.628511  	92.736930 
3128.592935  	92.769744 
3129.557360  	92.751732 
3130.521784  	92.765216 
3131.486209  	92.795077 
3132.450633  	92.760694 
3133.415058  	92.725646 
3134.379482  	92.828358 
3135.343906  	92.840459 
3136.308331  	92.824579 
3137.272755  	92.829089 
3138.237180  	92.861051 
3139.201604  	92.901864 
3140.166029  	92.861102 
3141.130453  	92.848290 
3142.094878  	92.826822 
3143.059302  	92.796571 
3144.023727  	92.889473 
3144.988151  	92.945613 
3145.952575  	92.886758 
3146.917000  	92.830106 
3147.881424  	92.854064 
3148.845849  	92.944793 
3149.810273  	92.931852 
3150.774698  	92.901389 
3151.739122  	92.868285 
3152.703547  	92.862440 
3153.667971  	92.914230 
3154.632396  	92.929845 
3155.596820  	92.902745 
3156.561244  	92.864969 
3157.525669  	92.901223 
3158.490093  	92.915002 
3159.454518  	92.908540 
3160.418942  	92.870736 
3161.383367  	92.815109 
3162.347791  	92.809800 
3163.312216  	92.849611 
3164.276640  	92.892081 
3165.241065  	92.931378 
3166.205489  	92.902196 
3167.169914  	92.865589 
3168.134338  	92.873577 
3169.098762  	92.870109 
3170.063187  	92.804560 
3171.027611  	92.778427 
3171.992036  	92.877446 
3172.956460  	92.908690 
3173.920885  	92.848230 
3174.885309  	92.838191 
3175.849734  	92.858490 
3176.814158  	92.865828 
3177.778583  	92.800706 
3178.743007  	92.749433 
3179.707431  	92.759639 
3180.671856  	92.787949 
3181.636280  	92.873328 
3182.600705  	92.902595 
3183.565129  	92.824719 
3184.529554  	92.788978 
3185.493978  	92.828587 
3186.458403  	92.842636 
3187.422827  	92.808432 
3188.387252  	92.769783 
3189.351676  	92.817425 
3190.316100  	92.855826 
3191.280525  	92.849927 
3192.244949  	92.874069 
3193.209374  	92.933559 
3194.173798  	92.910551 
3195.138223  	92.895963 
3196.102647  	92.823743 
3197.067072  	92.741472 
3198.031496  	92.749964 
3198.995921  	92.857320 
3199.960345  	92.874137 
3200.924769  	92.911697 
3201.889194  	92.969499 
3202.853618  	92.909338 
3203.818043  	92.828250 
3204.782467  	92.807342 
3205.746892  	92.805477 
3206.711316  	92.808732 
3207.675741  	92.789145 
3208.640165  	92.764466 
3209.604590  	92.731601 
3210.569014  	92.740731 
3211.533438  	92.844029 
3212.497863  	92.834428 
3213.462287  	92.774973 
3214.426712  	92.719368 
3215.391136  	92.753865 
3216.355561  	92.807790 
3217.319985  	92.798244 
3218.284410  	92.774138 
3219.248834  	92.755124 
3220.213259  	92.763604 
3221.177683  	92.818495 
3222.142107  	92.840824 
3223.106532  	92.857213 
3224.070956  	92.835402 
3225.035381  	92.792495 
3225.999805  	92.805882 
3226.964230  	92.802341 
3227.928654  	92.762303 
3228.893079  	92.797966 
3229.857503  	92.816059 
3230.821928  	92.818605 
3231.786352  	92.852382 
3232.750777  	92.837637 
3233.715201  	92.810181 
3234.679625  	92.772642 
3235.644050  	92.768881 
3236.608474  	92.768633 
3237.572899  	92.781934 
3238.537323  	92.802345 
3239.501748  	92.766897 
3240.466172  	92.760267 
3241.430597  	92.839866 
3242.395021  	92.846970 
3243.359446  	92.806124 
3244.323870  	92.774382 
3245.288294  	92.684376 
3246.252719  	92.693402 
3247.217143  	92.774263 
3248.181568  	92.825446 
3249.145992  	92.806253 
3250.110417  	92.847600 
3251.074841  	92.850539 
3252.039266  	92.807953 
3253.003690  	92.815565 
3253.968115  	92.768494 
3254.932539  	92.723429 
3255.896963  	92.761939 
3256.861388  	92.771955 
3257.825812  	92.802373 
3258.790237  	92.816512 
3259.754661  	92.842380 
3260.719086  	92.838123 
3261.683510  	92.812057 
3262.647935  	92.803226 
3263.612359  	92.798657 
3264.576784  	92.796551 
3265.541208  	92.780471 
3266.505632  	92.801630 
3267.470057  	92.822407 
3268.434481  	92.788159 
3269.398906  	92.753170 
3270.363330  	92.753285 
3271.327755  	92.769327 
3272.292179  	92.766412 
3273.256604  	92.721269 
3274.221028  	92.672652 
3275.185453  	92.707371 
3276.149877  	92.740889 
3277.114301  	92.726595 
3278.078726  	92.722771 
3279.043150  	92.670809 
3280.007575  	92.651576 
3280.971999  	92.661276 
3281.936424  	92.731262 
3282.900848  	92.757746 
3283.865273  	92.708566 
3284.829697  	92.735765 
3285.794122  	92.721495 
3286.758546  	92.691620 
3287.722971  	92.676849 
3288.687395  	92.682421 
3289.651819  	92.722554 
3290.616244  	92.679712 
3291.580668  	92.635562 
3292.545093  	92.669924 
3293.509517  	92.714064 
3294.473942  	92.732682 
3295.438366  	92.710734 
3296.402791  	92.720865 
3297.367215  	92.720388 
3298.331640  	92.664991 
3299.296064  	92.666067 
3300.260488  	92.718626 
3301.224913  	92.745528 
3302.189337  	92.790740 
3303.153762  	92.757255 
3304.118186  	92.711455 
3305.082611  	92.730526 
3306.047035  	92.786080 
3307.011460  	92.813339 
3307.975884  	92.750223 
3308.940309  	92.678638 
3309.904733  	92.723650 
3310.869157  	92.720233 
3311.833582  	92.697311 
3312.798006  	92.692707 
3313.762431  	92.687872 
3314.726855  	92.731640 
3315.691280  	92.734710 
3316.655704  	92.699174 
3317.620129  	92.683697 
3318.584553  	92.697601 
3319.548978  	92.710444 
3320.513402  	92.729511 
3321.477826  	92.727004 
3322.442251  	92.693474 
3323.406675  	92.718448 
3324.371100  	92.756459 
3325.335524  	92.745576 
3326.299949  	92.685734 
3327.264373  	92.600064 
3328.228798  	92.602526 
3329.193222  	92.590635 
3330.157647  	92.580792 
3331.122071  	92.646377 
3332.086495  	92.750546 
3333.050920  	92.735368 
3334.015344  	92.649898 
3334.979769  	92.564028 
3335.944193  	92.598574 
3336.908618  	92.555142 
3337.873042  	92.573421 
3338.837467  	92.687876 
3339.801891  	92.718837 
3340.766316  	92.697505 
3341.730740  	92.663474 
3342.695164  	92.640584 
3343.659589  	92.695024 
3344.624013  	92.815103 
3345.588438  	92.826323 
3346.552862  	92.776062 
3347.517287  	92.745282 
3348.481711  	92.721858 
3349.446136  	92.719067 
3350.410560  	92.772621 
3351.374985  	92.823001 
3352.339409  	92.819302 
3353.303834  	92.718053 
3354.268258  	92.736156 
3355.232682  	92.769418 
3356.197107  	92.668100 
3357.161531  	92.710253 
3358.125956  	92.830259 
3359.090380  	92.845348 
3360.054805  	92.730101 
3361.019229  	92.619116 
3361.983654  	92.573294 
3362.948078  	92.672598 
3363.912503  	92.723056 
3364.876927  	92.643697 
3365.841351  	92.657018 
3366.805776  	92.712220 
3367.770200  	92.665644 
3368.734625  	92.674219 
3369.699049  	92.754414 
3370.663474  	92.835293 
3371.627898  	92.852213 
3372.592323  	92.800490 
3373.556747  	92.771268 
3374.521172  	92.796228 
3375.485596  	92.769245 
3376.450020  	92.711812 
3377.414445  	92.718523 
3378.378869  	92.760848 
3379.343294  	92.810770 
3380.307718  	92.809714 
3381.272143  	92.854662 
3382.236567  	92.779434 
3383.200992  	92.686554 
3384.165416  	92.641477 
3385.129841  	92.607693 
3386.094265  	92.653370 
3387.058689  	92.691890 
3388.023114  	92.700025 
3388.987538  	92.718369 
3389.951963  	92.698387 
3390.916387  	92.657791 
3391.880812  	92.559341 
3392.845236  	92.366960 
3393.809661  	92.425594 
3394.774085  	92.668765 
3395.738510  	92.685550 
3396.702934  	92.599328 
3397.667358  	92.509372 
3398.631783  	92.715028 
3399.596207  	92.859626 
3400.560632  	92.726730 
3401.525056  	92.637638 
3402.489481  	92.698729 
3403.453905  	92.632464 
3404.418330  	92.538348 
3405.382754  	92.558119 
3406.347179  	92.613805 
3407.311603  	92.596622 
3408.276028  	92.575340 
3409.240452  	92.513405 
3410.204876  	92.477489 
3411.169301  	92.520334 
3412.133725  	92.547857 
3413.098150  	92.545379 
3414.062574  	92.518989 
3415.026999  	92.420660 
3415.991423  	92.369083 
3416.955848  	92.386175 
3417.920272  	92.356977 
3418.884697  	92.299021 
3419.849121  	92.099237 
3420.813545  	91.859768 
3421.777970  	91.863741 
3422.742394  	91.931143 
3423.706819  	92.045381 
3424.671243  	92.188560 
3425.635668  	92.212016 
3426.600092  	92.181826 
3427.564517  	92.160793 
3428.528941  	92.114353 
3429.493366  	92.157968 
3430.457790  	92.126245 
3431.422214  	92.021239 
3432.386639  	92.041823 
3433.351063  	92.211436 
3434.315488  	92.353864 
3435.279912  	92.297774 
3436.244337  	92.199809 
3437.208761  	92.247800 
3438.173186  	92.277613 
3439.137610  	92.232165 
3440.102035  	92.206553 
3441.066459  	92.236006 
3442.030883  	92.184311 
3442.995308  	92.064239 
3443.959732  	92.237051 
3444.924157  	92.301235 
3445.888581  	92.221748 
3446.853006  	91.809817 
3447.817430  	91.520056 
3448.781855  	92.057787 
3449.746279  	92.412752 
3450.710704  	92.487313 
3451.675128  	92.490022 
3452.639552  	92.499615 
3453.603977  	92.472163 
3454.568401  	92.425564 
3455.532826  	92.423064 
3456.497250  	92.446450 
3457.461675  	92.442352 
3458.426099  	92.444514 
3459.390524  	92.492897 
3460.354948  	92.534299 
3461.319373  	92.407450 
3462.283797  	92.357890 
3463.248221  	92.317202 
3464.212646  	92.491658 
3465.177070  	92.598293 
3466.141495  	92.493355 
3467.105919  	92.357222 
3468.070344  	92.552908 
3469.034768  	92.678929 
3469.999193  	92.590594 
3470.963617  	92.548718 
3471.928042  	92.580040 
3472.892466  	92.587417 
3473.856891  	92.567880 
3474.821315  	92.484788 
3475.785739  	92.558347 
3476.750164  	92.618773 
3477.714588  	92.642517 
3478.679013  	92.662596 
3479.643437  	92.604613 
3480.607862  	92.336270 
3481.572286  	92.198499 
3482.536711  	92.138176 
3483.501135  	92.394349 
3484.465560  	92.573254 
3485.429984  	92.511418 
3486.394408  	92.560936 
3487.358833  	92.621163 
3488.323257  	92.386336 
3489.287682  	92.354770 
3490.252106  	92.531927 
3491.216531  	92.578789 
3492.180955  	92.643548 
3493.145380  	92.674990 
3494.109804  	92.693748 
3495.074229  	92.575652 
3496.038653  	92.311464 
3497.003077  	92.263158 
3497.967502  	92.488333 
3498.931926  	92.559390 
3499.896351  	92.472890 
3500.860775  	92.419537 
3501.825200  	92.158783 
3502.789624  	91.762002 
3503.754049  	91.676630 
3504.718473  	92.024244 
3505.682898  	92.301369 
3506.647322  	92.518011 
3507.611746  	92.620579 
3508.576171  	92.336233 
3509.540595  	91.765865 
3510.505020  	91.972776 
3511.469444  	92.418538 
3512.433869  	92.455595 
3513.398293  	92.421439 
3514.362718  	92.552426 
3515.327142  	92.702026 
3516.291567  	92.656530 
3517.255991  	92.513785 
3518.220415  	92.442625 
3519.184840  	92.405926 
3520.149264  	92.449297 
3521.113689  	92.556038 
3522.078113  	92.360381 
3523.042538  	91.653407 
3524.006962  	91.404979 
3524.971387  	91.797795 
3525.935811  	92.008189 
3526.900236  	91.904441 
3527.864660  	91.701471 
3528.829085  	91.687933 
3529.793509  	91.879782 
3530.757933  	92.121178 
3531.722358  	92.121037 
3532.686782  	92.394025 
3533.651207  	92.609107 
3534.615631  	92.584228 
3535.580056  	92.317752 
3536.544480  	91.811561 
3537.508905  	91.995134 
3538.473329  	92.436737 
3539.437754  	92.459589 
3540.402178  	92.471172 
3541.366602  	92.451385 
3542.331027  	92.426679 
3543.295451  	92.215417 
3544.259876  	91.895072 
3545.224300  	91.160404 
3546.188725  	90.895311 
3547.153149  	90.963595 
3548.117574  	91.351411 
3549.081998  	92.048577 
3550.046423  	92.276579 
3551.010847  	92.170281 
3551.975271  	91.654603 
3552.939696  	91.472905 
3553.904120  	91.842168 
3554.868545  	92.183665 
3555.832969  	92.467475 
3556.797394  	92.381621 
3557.761818  	92.392579 
3558.726243  	92.491798 
3559.690667  	92.129887 
3560.655092  	91.716755 
3561.619516  	92.086429 
3562.583940  	92.100224 
3563.548365  	91.965137 
3564.512789  	91.893959 
3565.477214  	91.191662 
3566.441638  	89.270120 
3567.406063  	89.160982 
3568.370487  	89.592568 
3569.334912  	90.876257 
3570.299336  	91.880399 
3571.263761  	92.061427 
3572.228185  	92.317369 
3573.192609  	92.367127 
3574.157034  	92.313050 
3575.121458  	92.284688 
3576.085883  	92.357698 
3577.050307  	92.261798 
3578.014732  	92.299780 
3578.979156  	92.387155 
3579.943581  	92.065182 
3580.908005  	92.019453 
3581.872430  	92.330226 
3582.836854  	92.377549 
3583.801278  	92.286752 
3584.765703  	92.306872 
3585.730127  	91.948920 
3586.694552  	90.505331 
3587.658976  	89.660782 
3588.623401  	89.996966 
3589.587825  	90.905193 
3590.552250  	92.052428 
3591.516674  	92.360781 
3592.481099  	92.214852 
3593.445523  	91.587825 
3594.409948  	91.661438 
3595.374372  	91.319136 
3596.338796  	91.175548 
3597.303221  	91.914377 
3598.267645  	91.959685 
3599.232070  	91.649224 
3600.196494  	91.683102 
3601.160919  	91.464441 
3602.125343  	91.726310 
3603.089768  	91.977534 
3604.054192  	92.303393 
3605.018617  	92.455763 
3605.983041  	92.274691 
3606.947465  	91.288777 
3607.911890  	90.820453 
3608.876314  	91.059360 
3609.840739  	90.800685 
3610.805163  	91.632903 
3611.769588  	91.636164 
3612.734012  	90.520782 
3613.698437  	90.621608 
3614.662861  	90.918301 
3615.627286  	91.035286 
3616.591710  	91.828320 
3617.556134  	91.294870 
3618.520559  	90.467079 
3619.484983  	90.411644 
3620.449408  	90.496439 
3621.413832  	91.142141 
3622.378257  	91.791651 
3623.342681  	92.155148 
3624.307106  	92.329653 
3625.271530  	92.336978 
3626.235955  	91.868896 
3627.200379  	91.556635 
3628.164803  	90.750558 
3629.129228  	88.308858 
3630.093652  	88.882792 
3631.058077  	91.051009 
3632.022501  	91.805563 
3632.986926  	91.818691 
3633.951350  	91.295016 
3634.915775  	91.666198 
3635.880199  	92.266007 
3636.844624  	92.377049 
3637.809048  	92.175094 
3638.773472  	92.143260 
3639.737897  	92.414876 
3640.702321  	92.402026 
3641.666746  	92.143254 
3642.631170  	91.810024 
3643.595595  	92.039326 
3644.560019  	92.357613 
3645.524444  	92.099643 
3646.488868  	91.098277 
3647.453293  	89.571563 
3648.417717  	89.728018 
3649.382142  	89.476166 
3650.346566  	88.634229 
3651.310990  	88.884942 
3652.275415  	90.814172 
3653.239839  	92.015816 
3654.204264  	92.348906 
3655.168688  	92.228351 
3656.133113  	91.424098 
3657.097537  	91.251030 
3658.061962  	92.204818 
3659.026386  	92.449515 
3659.990811  	92.401021 
3660.955235  	92.543866 
3661.919659  	92.757311 
3662.884084  	92.753987 
3663.848508  	92.740584 
3664.812933  	92.656616 
3665.777357  	92.697459 
3666.741782  	92.729260 
3667.706206  	92.584984 
3668.670631  	91.727047 
3669.635055  	90.716337 
3670.599480  	90.227810 
3671.563904  	90.732181 
3672.528328  	92.049149 
3673.492753  	92.252503 
3674.457177  	91.115633 
3675.421602  	88.503029 
3676.386026  	89.069152 
3677.350451  	90.885739 
3678.314875  	91.546476 
3679.279300  	91.501953 
3680.243724  	91.591190 
3681.208149  	92.395109 
3682.172573  	92.766076 
3683.136997  	92.741888 
3684.101422  	92.615379 
3685.065846  	92.504063 
3686.030271  	92.593494 
3686.994695  	92.470971 
3687.959120  	91.725724 
3688.923544  	90.805996 
3689.887969  	91.289341 
3690.852393  	90.822407 
3691.816818  	90.631282 
3692.781242  	91.988643 
3693.745666  	92.474553 
3694.710091  	92.598384 
3695.674515  	92.671697 
3696.638940  	92.554309 
3697.603364  	92.648948 
3698.567789  	92.844033 
3699.532213  	92.818778 
3700.496638  	92.787697 
3701.461062  	92.062598 
3702.425487  	91.504035 
3703.389911  	92.416561 
3704.354335  	92.790209 
3705.318760  	92.650272 
3706.283184  	92.632644 
3707.247609  	92.780207 
3708.212033  	92.761082 
3709.176458  	92.106712 
3710.140882  	91.403960 
3711.105307  	91.238480 
3712.069731  	90.304837 
3713.034156  	90.437190 
3713.998580  	91.828415 
3714.963005  	91.942313 
3715.927429  	92.214703 
3716.891853  	92.776220 
3717.856278  	92.813192 
3718.820702  	92.249622 
3719.785127  	92.031643 
3720.749551  	92.552560 
3721.713976  	92.132169 
3722.678400  	90.936680 
3723.642825  	91.536492 
3724.607249  	91.871124 
3725.571674  	91.213548 
3726.536098  	90.922745 
3727.500522  	91.207099 
3728.464947  	92.179008 
3729.429371  	92.692792 
3730.393796  	92.492093 
3731.358220  	92.066510 
3732.322645  	91.404859 
3733.287069  	91.595638 
3734.251494  	91.038212 
3735.215918  	88.327425 
3736.180343  	88.565928 
3737.144767  	90.061987 
3738.109191  	90.938839 
3739.073616  	91.345035 
3740.038040  	91.866184 
3741.002465  	91.617416 
3741.966889  	91.757219 
3742.931314  	92.116869 
3743.895738  	91.126775 
3744.860163  	87.961721 
3745.824587  	90.208725 
3746.789012  	91.355962 
3747.753436  	91.417319 
3748.717860  	91.182420 
3749.682285  	90.559451 
3750.646709  	90.509069 
3751.611134  	90.259859 
3752.575558  	89.257660 
3753.539983  	90.789675 
3754.504407  	91.818800 
3755.468832  	92.284502 
3756.433256  	91.933308 
3757.397681  	91.933241 
3758.362105  	92.195933 
3759.326529  	91.327182 
3760.290954  	90.853632 
3761.255378  	92.180522 
3762.219803  	92.613148 
3763.184227  	92.688026 
3764.148652  	92.674451 
3765.113076  	92.295707 
3766.077501  	91.558048 
3767.041925  	92.179211 
3768.006350  	92.674369 
3768.970774  	92.390750 
3769.935199  	91.484253 
3770.899623  	91.686699 
3771.864047  	92.430535 
3772.828472  	92.723582 
3773.792896  	92.784521 
3774.757321  	92.911183 
3775.721745  	93.032678 
3776.686170  	93.114729 
3777.650594  	92.961596 
3778.615019  	92.522680 
3779.579443  	91.717317 
3780.543868  	91.867229 
3781.508292  	92.676123 
3782.472716  	92.827292 
3783.437141  	92.884891 
3784.401565  	92.550082 
3785.365990  	92.120804 
3786.330414  	92.417883 
3787.294839  	92.738811 
3788.259263  	92.892293 
3789.223688  	92.919543 
3790.188112  	92.921501 
3791.152537  	92.977713 
3792.116961  	93.012803 
3793.081385  	93.065455 
3794.045810  	93.087523 
3795.010234  	92.895895 
3795.974659  	92.340979 
3796.939083  	91.621977 
3797.903508  	91.954183 
3798.867932  	92.424790 
3799.832357  	92.482747 
3800.796781  	91.562122 
3801.761206  	90.187847 
3802.725630  	90.805835 
3803.690054  	91.817363 
3804.654479  	92.534330 
3805.618903  	92.571177 
3806.583328  	91.924789 
3807.547752  	91.379273 
3808.512177  	92.343046 
3809.476601  	92.711258 
3810.441026  	92.739225 
3811.405450  	92.863318 
3812.369875  	93.013049 
3813.334299  	93.045192 
3814.298723  	92.842561 
3815.263148  	92.191611 
3816.227572  	90.900266 
3817.191997  	91.467378 
3818.156421  	92.333663 
3819.120846  	92.204185 
3820.085270  	91.397796 
3821.049695  	89.886688 
3822.014119  	89.995056 
3822.978544  	91.657171 
3823.942968  	92.183191 
3824.907392  	92.361134 
3825.871817  	92.285035 
3826.836241  	91.786209 
3827.800666  	91.925710 
3828.765090  	92.516368 
3829.729515  	92.781813 
3830.693939  	92.636439 
3831.658364  	91.908760 
3832.622788  	91.971782 
3833.587213  	92.578517 
3834.551637  	92.205006 
3835.516062  	91.602830 
3836.480486  	92.110019 
3837.444910  	91.746565 
3838.409335  	90.743594 
3839.373759  	91.203144 
3840.338184  	90.779461 
3841.302608  	90.833467 
3842.267033  	91.984790 
3843.231457  	92.033250 
3844.195882  	91.424268 
3845.160306  	92.176200 
3846.124731  	92.677408 
3847.089155  	92.769478 
3848.053579  	92.826453 
3849.018004  	92.649592 
3849.982428  	92.221081 
3850.946853  	92.148114 
3851.911277  	91.350686 
3852.875702  	89.848434 
3853.840126  	89.216040 
3854.804551  	89.555659 
3855.768975  	91.449476 
3856.733400  	91.621266 
3857.697824  	91.304063 
3858.662248  	92.214075 
3859.626673  	92.790024 
3860.591097  	92.788196 
3861.555522  	92.236427 
3862.519946  	91.739004 
3863.484371  	91.997787 
3864.448795  	91.289718 
3865.413220  	90.335647 
3866.377644  	91.669741 
3867.342069  	92.608841 
3868.306493  	92.478729 
3869.270917  	91.290321 
3870.235342  	89.610508 
3871.199766  	90.869931 
3872.164191  	91.969125 
3873.128615  	92.174266 
3874.093040  	90.987173 
3875.057464  	91.056293 
3876.021889  	92.543632 
3876.986313  	92.922220 
3877.950738  	92.944662 
3878.915162  	92.830896 
3879.879586  	91.917137 
3880.844011  	90.341097 
3881.808435  	91.464976 
3882.772860  	92.310646 
3883.737284  	92.055127 
3884.701709  	91.944567 
3885.666133  	91.188479 
3886.630558  	90.982653 
3887.594982  	92.360171 
3888.559407  	92.816600 
3889.523831  	92.758620 
3890.488256  	92.285160 
3891.452680  	91.183125 
3892.417104  	91.286946 
3893.381529  	92.164401 
3894.345953  	92.129373 
3895.310378  	92.401115 
3896.274802  	92.837401 
3897.239227  	92.851574 
3898.203651  	92.288863 
3899.168076  	91.299858 
3900.132500  	91.154172 
3901.096925  	91.834970 
3902.061349  	90.780948 
3903.025773  	90.771933 
3903.990198  	91.107884 
3904.954622  	90.707716 
3905.919047  	91.038658 
3906.883471  	91.821832 
3907.847896  	92.682754 
3908.812320  	92.956483 
3909.776745  	92.998517 
3910.741169  	93.006487 
3911.705594  	92.969442 
3912.670018  	92.953616 
3913.634442  	92.974462 
3914.598867  	92.990405 
3915.563291  	92.849931 
3916.527716  	92.036226 
3917.492140  	91.367456 
3918.456565  	92.159573 
3919.420989  	92.403135 
3920.385414  	91.811210 
3921.349838  	92.277918 
3922.314263  	92.871075 
3923.278687  	92.595981 
3924.243111  	91.875573 
3925.207536  	91.482948 
3926.171960  	92.171887 
3927.136385  	92.920231 
3928.100809  	92.915167 
3929.065234  	92.672210 
3930.029658  	92.394702 
3930.994083  	92.199096 
3931.958507  	91.816481 
3932.922932  	91.503320 
3933.887356  	92.229666 
3934.851780  	92.634196 
3935.816205  	92.871276 
3936.780629  	92.983748 
3937.745054  	92.905269 
3938.709478  	92.757428 
3939.673903  	92.930119 
3940.638327  	93.026313 
3941.602752  	92.826281 
3942.567176  	92.033575 
3943.531601  	91.686427 
3944.496025  	92.408446 
3945.460449  	92.782011 
3946.424874  	92.821512 
3947.389298  	92.290260 
3948.353723  	91.998099 
3949.318147  	92.255616 
3950.282572  	92.044601 
3951.246996  	92.381511 
3952.211421  	92.870195 
3953.175845  	92.797979 
3954.140270  	92.880146 
3955.104694  	92.985900 
3956.069119  	92.922322 
3957.033543  	92.751975 
3957.997967  	92.720194 
3958.962392  	92.798320 
3959.926816  	92.821751 
3960.891241  	92.794873 
3961.855665  	92.485449 
3962.820090  	92.484862 
3963.784514  	92.898578 
3964.748939  	92.945514 
3965.713363  	92.945144 
3966.677788  	92.994884 
3967.642212  	93.013677 
3968.606636  	92.829790 
3969.571061  	92.694799 
3970.535485  	92.861514 
3971.499910  	92.919758 
3972.464334  	92.728230 
3973.428759  	92.811051 
3974.393183  	92.913627 
3975.357608  	92.813981 
3976.322032  	92.702152 
3977.286457  	92.885115 
3978.250881  	93.068487 
3979.215305  	93.016395 
3980.179730  	92.968497 
3981.144154  	92.977530 
3982.108579  	92.913796 
3983.073003  	92.900036 
3984.037428  	93.047232 
3985.001852  	93.114734 
3985.966277  	93.054398 
3986.930701  	93.035538 
3987.895126  	93.017992 
3988.859550  	92.975793 
3989.823974  	92.900789 
3990.788399  	92.742248 
3991.752823  	92.857622 
3992.717248  	92.981088 
3993.681672  	92.934139 
3994.646097  	92.851566 
3995.610521  	92.796969 
3996.574946  	92.954842 
3997.539370  	93.081136 
3998.503795  	93.099110 
3999.468219  	93.078087 
4000.432643  	93.097462 
4001.397068  	93.059888 
4002.361492  	93.031365 
4003.325917  	92.982470 
4004.290341  	93.004026 
4005.254766  	93.039232 
4006.219190  	93.045865 
4007.183615  	93.002086 
4008.148039  	92.910673 
4009.112464  	92.820551 
4010.076888  	92.927810 
4011.041313  	93.004928 
4012.005737  	93.044294 
4012.970161  	92.984466 
4013.934586  	92.969579 
4014.899010  	93.009941 
4015.863435  	93.018516 
4016.827859  	93.029149 
4017.792284  	93.051572 
4018.756708  	93.044029 
4019.721133  	92.975814 
4020.685557  	92.958049 
4021.649982  	93.022107 
4022.614406  	93.055462 
4023.578830  	93.029920 
4024.543255  	92.983939 
4025.507679  	92.921412 
4026.472104  	92.963474 
4027.436528  	93.054725 
4028.400953  	93.033095 
4029.365377  	93.021654 
4030.329802  	93.049287 
4031.294226  	93.040991 
4032.258651  	92.994767 
4033.223075  	93.023242 
4034.187499  	93.064606 
4035.151924  	93.039902 
4036.116348  	93.014888 
4037.080773  	93.041707 
4038.045197  	93.049954 
4039.009622  	93.054189 
4039.974046  	93.043093 
4040.938471  	93.043041 
4041.902895  	93.021989 
4042.867320  	93.038786 
4043.831744  	92.974189 
4044.796168  	92.914208 
4045.760593  	92.930601 
4046.725017  	92.991349 
4047.689442  	93.035271 
4048.653866  	93.055946 
4049.618291  	93.041150 
4050.582715  	93.060827 
4051.547140  	93.066225 
4052.511564  	93.056163 
4053.475989  	93.068345 
4054.440413  	93.017670 
4055.404837  	92.974979 
4056.369262  	93.047863 
4057.333686  	93.102433 
4058.298111  	93.073297 
4059.262535  	93.005650 
4060.226960  	92.953582 
4061.191384  	92.918014 
4062.155809  	92.996979 
4063.120233  	93.043629 
4064.084658  	93.011580 
4065.049082  	93.008739 
4066.013506  	93.057327 
4066.977931  	93.016187 
4067.942355  	92.956599 
4068.906780  	92.937967 
4069.871204  	92.981507 
4070.835629  	93.035041 
4071.800053  	93.008100 
4072.764478  	92.991397 
4073.728902  	92.975098 
4074.693327  	92.966636 
4075.657751  	92.959605 
4076.622176  	92.952967 
4077.586600  	92.975956 
4078.551024  	92.986239 
4079.515449  	92.953273 
4080.479873  	92.976148 
4081.444298  	93.004802 
4082.408722  	92.962529 
4083.373147  	92.902752 
4084.337571  	92.885957 
4085.301996  	92.914668 
4086.266420  	92.895745 
4087.230845  	92.868586 
4088.195269  	92.892831 
4089.159693  	92.947419 
4090.124118  	92.991833 
4091.088542  	92.969916 
4092.052967  	92.954641 
4093.017391  	92.945910 
4093.981816  	92.917067 
4094.946240  	92.945218 
4095.910665  	93.021938 
4096.875089  	93.057732 
4097.839514  	92.970899 
4098.803938  	92.887186 
4099.768362  	92.931435 
4100.732787  	92.998923 
4101.697211  	93.016556 
4102.661636  	92.989579 
4103.626060  	92.992028 
4104.590485  	92.981249 
4105.554909  	92.932114 
4106.519334  	92.938589 
4107.483758  	92.938594 
4108.448183  	92.959749 
4109.412607  	92.978881 
4110.377031  	92.967728 
4111.341456  	93.014124 
4112.305880  	93.031985 
4113.270305  	92.997172 
4114.234729  	93.021597 
4115.199154  	93.085573 
4116.163578  	93.063992 
4117.128003  	93.010028 
4118.092427  	92.985527 
4119.056852  	92.999726 
4120.021276  	93.003336 
4120.985700  	93.013988 
4121.950125  	93.085696 
4122.914549  	93.076128 
4123.878974  	93.027450 
4124.843398  	93.036610 
4125.807823  	93.091243 
4126.772247  	93.051765 
4127.736672  	93.027480 
4128.701096  	93.028985 
4129.665521  	93.040987 
4130.629945  	93.046484 
4131.594370  	93.043688 
4132.558794  	92.995517 
4133.523218  	92.920240 
4134.487643  	92.930511 
4135.452067  	92.985058 
4136.416492  	93.022669 
4137.380916  	93.047510 
4138.345341  	92.998908 
4139.309765  	92.939418 
4140.274190  	92.941034 
4141.238614  	92.956805 
4142.203039  	92.981872 
4143.167463  	93.049648 
4144.131887  	92.996770 
4145.096312  	92.977305 
4146.060736  	92.996575 
4147.025161  	93.008147 
4147.989585  	93.057876 
4148.954010  	93.019816 
4149.918434  	93.027677 
4150.882859  	93.064685 
4151.847283  	93.062456 
4152.811708  	93.031712 
4153.776132  	93.031860 
4154.740556  	93.067361 
4155.704981  	93.036779 
4156.669405  	93.006892 
4157.633830  	93.063429 
4158.598254  	93.076111 
4159.562679  	93.048608 
4160.527103  	93.021472 
4161.491528  	93.036771 
4162.455952  	93.059674 
4163.420377  	93.094184 
4164.384801  	93.063070 
4165.349225  	93.043422 
4166.313650  	93.007676 
4167.278074  	92.976230 
4168.242499  	93.017892 
4169.206923  	93.097161 
4170.171348  	93.107828 
4171.135772  	93.082589 
4172.100197  	93.046707 
4173.064621  	93.045837 
4174.029046  	93.063631 
4174.993470  	93.063953 
4175.957894  	93.090589 
4176.922319  	93.108278 
4177.886743  	93.078367 
4178.851168  	93.033529 
4179.815592  	92.994652 
4180.780017  	92.966377 
4181.744441  	93.012046 
4182.708866  	93.016178 
4183.673290  	93.026669 
4184.637715  	93.052745 
4185.602139  	93.026463 
4186.566563  	92.995924 
4187.530988  	93.041086 
4188.495412  	93.075866 
4189.459837  	93.092408 
4190.424261  	93.080282 
4191.388686  	93.085980 
4192.353110  	93.122672 
4193.317535  	93.107372 
4194.281959  	93.054424 
4195.246384  	93.056381 
4196.210808  	93.048678 
4197.175233  	93.018425 
4198.139657  	93.015792 
4199.104081  	93.044905 
4200.068506  	93.026734 
4201.032930  	92.981077 
4201.997355  	93.041994 
4202.961779  	93.160594 
4203.926204  	93.123252 
4204.890628  	93.078372 
4205.855053  	93.076038 
4206.819477  	93.051970 
4207.783902  	93.004742 
4208.748326  	93.029947 
4209.712750  	93.093706 
4210.677175  	93.098990 
4211.641599  	93.065739 
4212.606024  	93.074095 
4213.570448  	93.074026 
4214.534873  	93.113069 
4215.499297  	93.075616 
4216.463722  	93.021188 
4217.428146  	92.959983 
4218.392571  	92.995588 
4219.356995  	93.045895 
4220.321419  	93.066041 
4221.285844  	93.122936 
4222.250268  	93.114763 
4223.214693  	92.980613 
4224.179117  	92.948281 
4225.143542  	93.011833 
4226.107966  	93.063186 
4227.072391  	93.055871 
4228.036815  	92.969052 
4229.001240  	92.941371 
4229.965664  	92.946252 
4230.930088  	92.985915 
4231.894513  	93.007530 
4232.858937  	93.029694 
4233.823362  	93.108396 
4234.787786  	93.110580 
4235.752211  	93.047701 
4236.716635  	93.075584 
4237.681060  	93.128619 
4238.645484  	93.095297 
4239.609909  	93.084272 
4240.574333  	93.048657 
4241.538757  	93.068422 
4242.503182  	93.117559 
4243.467606  	93.097389 
4244.432031  	93.034927 
4245.396455  	93.030735 
4246.360880  	93.067418 
4247.325304  	93.056507 
4248.289729  	93.039051 
4249.254153  	93.082805 
4250.218578  	93.142467 
4251.183002  	93.125411 
4252.147427  	93.094353 
4253.111851  	93.099540 
4254.076275  	93.016237 
4255.040700  	92.979920 
4256.005124  	93.041996 
4256.969549  	93.117226 
4257.933973  	93.097459 
4258.898398  	93.037156 
4259.862822  	93.018533 
4260.827247  	93.039830 
4261.791671  	93.071590 
4262.756096  	93.071676 
4263.720520  	93.027920 
4264.684944  	93.034567 
4265.649369  	93.074958 
4266.613793  	93.098460 
4267.578218  	93.029188 
4268.542642  	93.007547 
4269.507067  	93.035865 
4270.471491  	93.046539 
4271.435916  	93.011671 
4272.400340  	92.984145 
4273.364765  	92.961418 
4274.329189  	92.986493 
4275.293613  	93.041877 
4276.258038  	93.075310 
4277.222462  	93.087092 
4278.186887  	93.034971 
4279.151311  	92.967017 
4280.115736  	92.960770 
4281.080160  	93.023853 
4282.044585  	93.052613 
4283.009009  	93.034527 
4283.973434  	93.037187 
4284.937858  	93.006546 
4285.902282  	93.010034 
4286.866707  	92.986937 
4287.831131  	92.981924 
4288.795556  	93.029786 
4289.759980  	93.029122 
4290.724405  	93.012262 
4291.688829  	92.993415 
4292.653254  	92.998063 
4293.617678  	93.076405 
4294.582103  	93.080646 
4295.546527  	93.013000 
4296.510951  	92.989375 
4297.475376  	93.055722 
4298.439800  	93.069070 
4299.404225  	93.093746 
4300.368649  	93.134065 
4301.333074  	93.071611 
4302.297498  	92.952637 
4303.261923  	92.959416 
4304.226347  	93.019912 
4305.190772  	93.135374 
4306.155196  	93.116481 
4307.119620  	93.066831 
4308.084045  	93.027334 
4309.048469  	93.055383 
4310.012894  	93.072829 
4310.977318  	93.106896 
4311.941743  	93.112960 
4312.906167  	93.072786 
4313.870592  	93.025606 
4314.835016  	93.063178 
4315.799441  	93.093439 
4316.763865  	93.103074 
4317.728290  	93.133996 
4318.692714  	93.146077 
4319.657138  	93.109097 
4320.621563  	93.055711 
4321.585987  	93.071028 
4322.550412  	93.066907 
4323.514836  	93.052131 
4324.479261  	93.073009 
4325.443685  	93.047116 
4326.408110  	93.078599 
4327.372534  	93.076074 
4328.336959  	93.075663 
4329.301383  	93.075333 
4330.265807  	93.077811 
4331.230232  	93.054638 
4332.194656  	93.038915 
4333.159081  	93.098861 
4334.123505  	93.156352 
4335.087930  	93.120873 
4336.052354  	93.032528 
4337.016779  	93.004430 
4337.981203  	93.072345 
4338.945628  	93.155526 
4339.910052  	93.121242 
4340.874476  	93.066098 
4341.838901  	93.105330 
4342.803325  	93.102994 
4343.767750  	93.050404 
4344.732174  	93.058201 
4345.696599  	93.039099 
4346.661023  	93.035550 
4347.625448  	93.044046 
4348.589872  	93.036347 
4349.554297  	93.084023 
4350.518721  	93.108193 
4351.483145  	93.145930 
4352.447570  	93.121413 
4353.411994  	93.102158 
4354.376419  	93.049127 
4355.340843  	93.074968 
4356.305268  	93.133182 
4357.269692  	93.098534 
4358.234117  	93.133250 
4359.198541  	93.210016 
4360.162966  	93.208554 
4361.127390  	93.139355 
4362.091814  	93.060257 
4363.056239  	93.014697 
4364.020663  	93.042730 
4364.985088  	93.048745 
4365.949512  	93.018549 
4366.913937  	92.998596 
4367.878361  	92.981641 
4368.842786  	93.035518 
4369.807210  	93.110860 
4370.771635  	93.098737 
4371.736059  	93.027119 
4372.700484  	93.036220 
4373.664908  	93.110651 
4374.629332  	93.146934 
4375.593757  	93.130820 
4376.558181  	93.093599 
4377.522606  	93.101188 
4378.487030  	93.070312 
4379.451455  	93.067839 
4380.415879  	93.103020 
4381.380304  	93.076826 
4382.344728  	93.061581 
4383.309153  	93.114781 
4384.273577  	93.117479 
4385.238001  	93.099627 
4386.202426  	93.099235 
4387.166850  	93.056386 
4388.131275  	93.077135 
4389.095699  	93.080886 
4390.060124  	93.037005 
4391.024548  	93.041700 
4391.988973  	93.098333 
4392.953397  	93.085302 
4393.917822  	93.074045 
4394.882246  	93.098778 
4395.846670  	93.087753 
4396.811095  	93.049919 
4397.775519  	93.068101 
4398.739944  	93.142250 
4399.704368  	93.149610 
4400.668793  	93.140564 
4401.633217  	93.048851 
4402.597642  	93.065009 
4403.562066  	93.138439 
4404.526491  	93.149315 
4405.490915  	93.132125 
4406.455339  	93.034966 
4407.419764  	92.997995 
4408.384188  	93.097950 
4409.348613  	93.170053 
4410.313037  	93.138719 
4411.277462  	93.074813 
4412.241886  	93.025535 
4413.206311  	93.032756 
4414.170735  	93.087941 
4415.135160  	93.093986 
4416.099584  	93.068721 
4417.064008  	92.983360 
4418.028433  	92.908651 
4418.992857  	92.951083 
4419.957282  	92.980632 
4420.921706  	93.008312 
4421.886131  	93.063840 
4422.850555  	93.044961 
4423.814980  	92.978914 
4424.779404  	92.973760 
4425.743829  	92.962303 
4426.708253  	92.975710 
4427.672677  	92.950535 
4428.637102  	92.946695 
4429.601526  	93.031417 
4430.565951  	93.056808 
4431.530375  	92.980380 
4432.494800  	92.921031 
4433.459224  	92.917652 
4434.423649  	92.937991 
4435.388073  	92.909367 
4436.352498  	92.954492 
4437.316922  	93.036578 
4438.281347  	93.081207 
4439.245771  	93.035917 
4440.210195  	93.047637 
4441.174620  	93.050270 
4442.139044  	93.017278 
4443.103469  	93.054983 
4444.067893  	93.110059 
4445.032318  	93.116807 
4445.996742  	93.102428 
4446.961167  	93.031684 
4447.925591  	92.962064 
4448.890016  	92.971452 
4449.854440  	92.944352 
4450.818864  	93.006958 
4451.783289  	93.048352 
4452.747713  	92.953935 
4453.712138  	92.946526 
4454.676562  	93.002361 
4455.640987  	92.996628 
4456.605411  	93.019137 
4457.569836  	93.031358 
4458.534260  	93.019509 
4459.498685  	92.963049 
4460.463109  	92.934138 
4461.427533  	92.971888 
4462.391958  	92.983749 
4463.356382  	92.989488 
4464.320807  	93.006802 
4465.285231  	93.056368 
4466.249656  	93.075243 
4467.214080  	93.095694 
4468.178505  	93.078872 
4469.142929  	93.072144 
4470.107354  	93.112443 
4471.071778  	93.094088 
4472.036202  	93.125351 
4473.000627  	93.158158 
4473.965051  	93.062225 
4474.929476  	92.973487 
4475.893900  	93.041572 
4476.858325  	93.088443 
4477.822749  	93.085788 
4478.787174  	93.075026 
4479.751598  	93.111668 
4480.716023  	93.069323 
4481.680447  	93.008939 
4482.644871  	93.072363 
4483.609296  	93.089441 
4484.573720  	93.088791 
4485.538145  	93.108415 
4486.502569  	93.058784 
4487.466994  	93.042815 
4488.431418  	93.086299 
4489.395843  	93.055127 
4490.360267  	93.065749 
4491.324692  	93.090976 
4492.289116  	93.073025 
4493.253541  	93.057921 
4494.217965  	93.079313 
4495.182389  	93.073150 
4496.146814  	93.054393 
4497.111238  	93.013308 
4498.075663  	93.017093 
4499.040087  	93.017409 
4500.004512  	93.037771 
4500.968936  	93.073593 
4501.933361  	93.050841 
4502.897785  	93.097073 
4503.862210  	93.121592 
4504.826634  	93.137885 
4505.791058  	93.145091 
4506.755483  	93.146359 
4507.719907  	93.134558 
4508.684332  	93.162539 
4509.648756  	93.132510 
4510.613181  	93.078243 
4511.577605  	93.145628 
4512.542030  	93.152957 
4513.506454  	93.121446 
4514.470879  	93.056014 
4515.435303  	93.045649 
4516.399727  	93.077396 
4517.364152  	93.093770 
4518.328576  	93.107351 
4519.293001  	93.108882 
4520.257425  	93.081718 
4521.221850  	93.063607 
4522.186274  	93.104168 
4523.150699  	93.096543 
4524.115123  	93.063123 
4525.079548  	93.078100 
4526.043972  	93.078793 
4527.008396  	93.105062 
4527.972821  	93.036170 
4528.937245  	93.039940 
4529.901670  	93.078551 
4530.866094  	93.076431 
4531.830519  	93.127261 
4532.794943  	93.126129 
4533.759368  	93.117145 
4534.723792  	93.140973 
4535.688217  	93.120974 
4536.652641  	93.122459 
4537.617065  	93.159011 
4538.581490  	93.137250 
4539.545914  	93.139773 
4540.510339  	93.220665 
4541.474763  	93.167353 
4542.439188  	93.056579 
4543.403612  	93.022381 
4544.368037  	92.977439 
4545.332461  	92.960067 
4546.296886  	93.017326 
4547.261310  	92.993864 
4548.225734  	93.064468 
4549.190159  	93.124520 
4550.154583  	93.091815 
4551.119008  	92.996369 
4552.083432  	93.002646 
4553.047857  	93.100511 
4554.012281  	93.175577 
4554.976706  	93.156490 
4555.941130  	93.117245 
4556.905555  	93.119128 
4557.869979  	93.154726 
4558.834404  	93.127254 
4559.798828  	93.046786 
4560.763252  	92.983641 
4561.727677  	93.004820 
4562.692101  	93.033824 
4563.656526  	93.104017 
4564.620950  	93.144891 
4565.585375  	93.037242 
4566.549799  	92.961684 
4567.514224  	93.029825 
4568.478648  	93.077399 
4569.443073  	93.087796 
4570.407497  	93.077252 
4571.371921  	93.142813 
4572.336346  	93.146499 
4573.300770  	93.137479 
4574.265195  	93.096919 
4575.229619  	93.011861 
4576.194044  	93.007217 
4577.158468  	93.087246 
4578.122893  	93.162013 
4579.087317  	93.081166 
4580.051742  	92.996617 
4581.016166  	93.068972 
4581.980590  	93.161320 
4582.945015  	93.209112 
4583.909439  	93.198466 
4584.873864  	93.162753 
4585.838288  	93.104720 
4586.802713  	93.091922 
4587.767137  	93.057324 
4588.731562  	93.055673 
4589.695986  	93.086233 
4590.660411  	93.080405 
4591.624835  	93.142931 
4592.589259  	93.140010 
4593.553684  	93.078894 
4594.518108  	93.008921 
4595.482533  	92.965088 
4596.446957  	92.976543 
4597.411382  	92.899622 
4598.375806  	92.930433 
4599.340231  	93.082541 
4600.304655  	93.128604 
4601.269080  	93.039955 
4602.233504  	93.056139 
4603.197928  	93.086095 
4604.162353  	93.084084 
4605.126777  	93.066056 
4606.091202  	93.145284 
4607.055626  	93.164308 
4608.020051  	93.154482 
4608.984475  	93.065516 
4609.948900  	93.039609 
4610.913324  	93.043292 
4611.877749  	93.073004 
4612.842173  	93.047391 
4613.806598  	93.079308 
4614.771022  	93.124958 
4615.735446  	93.109537 
4616.699871  	93.042485 
4617.664295  	93.061044 
4618.628720  	93.064619 
4619.593144  	93.003331 
4620.557569  	93.020139 
4621.521993  	93.026464 
4622.486418  	93.024265 
4623.450842  	92.999654 
4624.415267  	92.973264 
4625.379691  	93.030887 
4626.344115  	93.034006 
4627.308540  	93.045299 
4628.272964  	92.963646 
4629.237389  	92.949350 
4630.201813  	93.014231 
4631.166238  	93.073767 
4632.130662  	93.065335 
4633.095087  	92.956590 
4634.059511  	92.942630 
4635.023936  	93.062101 
4635.988360  	93.103744 
4636.952784  	93.015426 
4637.917209  	93.013118 
4638.881633  	92.994559 
4639.846058  	92.996927 
4640.810482  	93.054838 
4641.774907  	93.023644 
4642.739331  	92.949238 
4643.703756  	92.912607 
4644.668180  	92.947436 
4645.632605  	92.901615 
4646.597029  	92.932861 
4647.561453  	92.979046 
4648.525878  	92.987959 
4649.490302  	93.032699 
4650.454727  	93.034416 
4651.419151  	93.002457 
4652.383576  	93.019323 
4653.348000  	93.084401 
4654.312425  	93.097694 
4655.276849  	93.092069 
4656.241274  	93.067675 
4657.205698  	93.079157 
4658.170122  	93.058989 
4659.134547  	93.001170 
4660.098971  	93.028478 
4661.063396  	93.085087 
4662.027820  	93.140905 
4662.992245  	93.123847 
4663.956669  	93.052959 
4664.921094  	93.048301 
4665.885518  	93.108079 
4666.849943  	93.180638 
4667.814367  	93.156323 
4668.778791  	93.157407 
4669.743216  	93.087776 
4670.707640  	93.036487 
4671.672065  	93.076407 
4672.636489  	93.034108 
4673.600914  	93.044371 
4674.565338  	93.081485 
4675.529763  	93.080112 
4676.494187  	93.157833 
4677.458612  	93.178435 
4678.423036  	93.116652 
4679.387461  	93.088381 
4680.351885  	93.092107 
4681.316309  	93.078034 
4682.280734  	93.039723 
4683.245158  	92.979344 
4684.209583  	93.003379 
4685.174007  	93.003769 
4686.138432  	92.950094 
4687.102856  	92.979520 
4688.067281  	92.995746 
4689.031705  	92.993019 
4689.996130  	93.053753 
4690.960554  	93.102367 
4691.924978  	93.068068 
4692.889403  	92.965172 
4693.853827  	92.922593 
4694.818252  	92.990502 
4695.782676  	92.986387 
4696.747101  	92.954537 
4697.711525  	92.985083 
4698.675950  	93.037640 
4699.640374  	92.977632 