##TITLE=No Description
##DATA TYPE=INFRARED SPECTRUM
##XUNITS=1/CM
##YUNITS=%T
400.236149  	109.054184 
401.200574  	89.069102 
402.164998  	84.496459 
403.129423  	76.477832 
404.093847  	67.120090 
405.058272  	75.267269 
406.022696  	85.203128 
406.987120  	82.269984 
407.951545  	86.598631 
408.915969  	85.431846 
409.880394  	92.472285 
410.844818  	93.284100 
411.809243  	96.027429 
412.773667  	94.492732 
413.738092  	86.773020 
414.702516  	77.978794 
415.666941  	80.175810 
416.631365  	88.567392 
417.595789  	90.418453 
418.560214  	93.573562 
419.524638  	90.507454 
420.489063  	85.062046 
421.453487  	83.644103 
422.417912  	83.300399 
423.382336  	84.364285 
424.346761  	83.473544 
425.311185  	79.714785 
426.275610  	79.136117 
427.240034  	82.089197 
428.204458  	84.091306 
429.168883  	84.174809 
430.133307  	83.757297 
431.097732  	83.112691 
432.062156  	80.880238 
433.026581  	79.452306 
433.991005  	80.679934 
434.955430  	82.125867 
435.919854  	79.891100 
436.884279  	78.051957 
437.848703  	78.974797 
438.813127  	80.555836 
439.777552  	80.915447 
440.741976  	81.215724 
441.706401  	82.467182 
442.670825  	82.721200 
443.635250  	83.267015 
444.599674  	85.960885 
445.564099  	85.749350 
446.528523  	84.106645 
447.492948  	83.312792 
448.457372  	84.281140 
449.421796  	84.953811 
450.386221  	84.900112 
451.350645  	84.361573 
452.315070  	83.775223 
453.279494  	83.582389 
454.243919  	83.928801 
455.208343  	84.205924 
456.172768  	84.200314 
457.137192  	83.603298 
458.101617  	83.651541 
459.066041  	84.928370 
460.030466  	85.164563 
460.994890  	85.155250 
461.959314  	84.918036 
462.923739  	84.810089 
463.888163  	84.637515 
464.852588  	84.385958 
465.817012  	85.059052 
466.781437  	84.936069 
467.745861  	83.567385 
468.710286  	83.059998 
469.674710  	82.991020 
470.639135  	82.796802 
471.603559  	82.704871 
472.567983  	83.112186 
473.532408  	84.155940 
474.496832  	84.123342 
475.461257  	84.069617 
476.425681  	84.053777 
477.390106  	84.448453 
478.354530  	84.748088 
479.318955  	84.132754 
480.283379  	83.841454 
481.247804  	84.255803 
482.212228  	83.633780 
483.176652  	84.174284 
484.141077  	84.482311 
485.105501  	83.699329 
486.069926  	82.981876 
487.034350  	83.712439 
487.998775  	84.514335 
488.963199  	84.846026 
489.927624  	84.993659 
490.892048  	83.960921 
491.856473  	82.565586 
492.820897  	83.000411 
493.785321  	82.951259 
494.749746  	82.120486 
495.714170  	81.882668 
496.678595  	81.924638 
497.643019  	81.375722 
498.607444  	81.048604 
499.571868  	80.450400 
500.536293  	80.278330 
501.500717  	79.316090 
502.465142  	78.546959 
503.429566  	79.388264 
504.393990  	79.044204 
505.358415  	78.801822 
506.322839  	78.550060 
507.287264  	78.797139 
508.251688  	80.197545 
509.216113  	81.753941 
510.180537  	82.325794 
511.144962  	82.832449 
512.109386  	83.628826 
513.073811  	84.010843 
514.038235  	84.265528 
515.002660  	84.043458 
515.967084  	83.707377 
516.931508  	82.950011 
517.895933  	83.536842 
518.860357  	84.305174 
519.824782  	84.016477 
520.789206  	84.394864 
521.753631  	84.950805 
522.718055  	85.142984 
523.682480  	85.019857 
524.646904  	84.840279 
525.611329  	84.766080 
526.575753  	84.811148 
527.540177  	85.326372 
528.504602  	85.771496 
529.469026  	86.080044 
530.433451  	86.131706 
531.397875  	85.983244 
532.362300  	86.044156 
533.326724  	86.294979 
534.291149  	86.268826 
535.255573  	86.151311 
536.219998  	86.224745 
537.184422  	86.866765 
538.148846  	86.815225 
539.113271  	86.953221 
540.077695  	86.925008 
541.042120  	87.264112 
542.006544  	87.289831 
542.970969  	87.170205 
543.935393  	87.033118 
544.899818  	87.096024 
545.864242  	87.058701 
546.828667  	87.184758 
547.793091  	86.937739 
548.757515  	87.274116 
549.721940  	87.559088 
550.686364  	87.579886 
551.650789  	87.976809 
552.615213  	87.770577 
553.579638  	87.861309 
554.544062  	87.995424 
555.508487  	88.004671 
556.472911  	87.833977 
557.437336  	87.590753 
558.401760  	87.885456 
559.366184  	88.129900 
560.330609  	87.911246 
561.295033  	87.742400 
562.259458  	87.737250 
563.223882  	87.533003 
564.188307  	87.682829 
565.152731  	88.120136 
566.117156  	88.108105 
567.081580  	87.706082 
568.046005  	87.665397 
569.010429  	87.509791 
569.974853  	87.528462 
570.939278  	87.727416 
571.903702  	87.775696 
572.868127  	87.702734 
573.832551  	87.562020 
574.796976  	87.459987 
575.761400  	86.958700 
576.725825  	87.289092 
577.690249  	87.615441 
578.654674  	87.938467 
579.619098  	88.087318 
580.583523  	87.696084 
581.547947  	87.827796 
582.512371  	88.064443 
583.476796  	88.164099 
584.441220  	88.085319 
585.405645  	88.128168 
586.370069  	88.396933 
587.334494  	88.352265 
588.298918  	88.338520 
589.263343  	88.324767 
590.227767  	88.283658 
591.192192  	87.881534 
592.156616  	87.440215 
593.121040  	87.843542 
594.085465  	88.029711 
595.049889  	87.997590 
596.014314  	87.977894 
596.978738  	88.079018 
597.943163  	88.128820 
598.907587  	88.013816 
599.872012  	87.589999 
600.836436  	87.715765 
601.800861  	88.002622 
602.765285  	88.015862 
603.729709  	88.037266 
604.694134  	88.125194 
605.658558  	88.124157 
606.622983  	88.058639 
607.587407  	87.857748 
608.551832  	87.942933 
609.516256  	88.082955 
610.480681  	87.887591 
611.445105  	87.687999 
612.409530  	87.784897 
613.373954  	87.873654 
614.338378  	87.816459 
615.302803  	87.526048 
616.267227  	87.246375 
617.231652  	87.458979 
618.196076  	87.669709 
619.160501  	87.587083 
620.124925  	87.329056 
621.089350  	87.248762 
622.053774  	87.266400 
623.018199  	87.612420 
623.982623  	87.405116 
624.947047  	87.150165 
625.911472  	86.926288 
626.875896  	87.069160 
627.840321  	86.934114 
628.804745  	86.897978 
629.769170  	86.487485 
630.733594  	85.738604 
631.698019  	85.302902 
632.662443  	85.340611 
633.626868  	85.697944 
634.591292  	86.177912 
635.555717  	86.104526 
636.520141  	86.569035 
637.484565  	86.952539 
638.448990  	87.035611 
639.413414  	86.925147 
640.377839  	86.830273 
641.342263  	86.727447 
642.306688  	86.538756 
643.271112  	86.523057 
644.235537  	86.526544 
645.199961  	86.542449 
646.164386  	86.719027 
647.128810  	86.698065 
648.093234  	86.538931 
649.057659  	86.469183 
650.022083  	86.459719 
650.986508  	86.391546 
651.950932  	86.236719 
652.915357  	86.033471 
653.879781  	85.894779 
654.844206  	85.945723 
655.808630  	85.935774 
656.773055  	85.757666 
657.737479  	85.739877 
658.701903  	85.653909 
659.666328  	85.499835 
660.630752  	85.414855 
661.595177  	85.366693 
662.559601  	85.247228 
663.524026  	85.073075 
664.488450  	84.955881 
665.452875  	84.795060 
666.417299  	84.760520 
667.381724  	85.206587 
668.346148  	84.963325 
669.310572  	83.844336 
670.274997  	83.781618 
671.239421  	83.802826 
672.203846  	83.634200 
673.168270  	83.367206 
674.132695  	82.956019 
675.097119  	82.583824 
676.061544  	82.123988 
677.025968  	81.784132 
677.990393  	81.385297 
678.954817  	80.986659 
679.919241  	80.776717 
680.883666  	80.707564 
681.848090  	80.702629 
682.812515  	80.743959 
683.776939  	80.592127 
684.741364  	80.263349 
685.705788  	79.837255 
686.670213  	79.669313 
687.634637  	79.376524 
688.599062  	78.932133 
689.563486  	78.475634 
690.527910  	78.158798 
691.492335  	77.671022 
692.456759  	77.073469 
693.421184  	76.341930 
694.385608  	75.644070 
695.350033  	74.761664 
696.314457  	73.688589 
697.278882  	72.428230 
698.243306  	71.180607 
699.207731  	69.884944 
700.172155  	68.570797 
701.136580  	67.172772 
702.101004  	66.045105 
703.065428  	65.083476 
704.029853  	64.091507 
704.994277  	62.848864 
705.958702  	61.698368 
706.923126  	60.460280 
707.887551  	59.062624 
708.851975  	57.655726 
709.816400  	56.102074 
710.780824  	54.410693 
711.745249  	52.673700 
712.709673  	50.861096 
713.674097  	48.813430 
714.638522  	46.704685 
715.602946  	44.551653 
716.567371  	42.319034 
717.531795  	40.204731 
718.496220  	38.288226 
719.460644  	36.851332 
720.425069  	35.972026 
721.389493  	35.737573 
722.353918  	36.070941 
723.318342  	36.988717 
724.282766  	38.645064 
725.247191  	41.157733 
726.211615  	44.194034 
727.176040  	47.347951 
728.140464  	50.380128 
729.104889  	53.372062 
730.069313  	56.298222 
731.033738  	59.293794 
731.998162  	62.332204 
732.962587  	65.505487 
733.927011  	68.555770 
734.891435  	71.585635 
735.855860  	74.530795 
736.820284  	77.386761 
737.784709  	79.999156 
738.749133  	82.366176 
739.713558  	84.560375 
740.677982  	86.364176 
741.642407  	87.773353 
742.606831  	88.894870 
743.571256  	89.661547 
744.535680  	90.214338 
745.500104  	90.739264 
746.464529  	91.171733 
747.428953  	91.355728 
748.393378  	91.589330 
749.357802  	91.730810 
750.322227  	91.737491 
751.286651  	91.763168 
752.251076  	91.838357 
753.215500  	91.931481 
754.179925  	91.892009 
755.144349  	91.753760 
756.108774  	91.762921 
757.073198  	91.722149 
758.037622  	91.659310 
759.002047  	91.579264 
759.966471  	91.567849 
760.930896  	91.528969 
761.895320  	91.453818 
762.859745  	91.416837 
763.824169  	91.414542 
764.788594  	91.299168 
765.753018  	91.181854 
766.717443  	91.108328 
767.681867  	90.955253 
768.646291  	90.703718 
769.610716  	90.638689 
770.575140  	90.516096 
771.539565  	90.393161 
772.503989  	90.135456 
773.468414  	89.954658 
774.432838  	89.876746 
775.397263  	89.757081 
776.361687  	89.568212 
777.326112  	89.442401 
778.290536  	89.384717 
779.254960  	89.409461 
780.219385  	89.280939 
781.183809  	89.060891 
782.148234  	88.523062 
783.112658  	88.392956 
784.077083  	88.050681 
785.041507  	87.646955 
786.005932  	87.346288 
786.970356  	86.926755 
787.934781  	86.426599 
788.899205  	86.031759 
789.863629  	85.645483 
790.828054  	85.158091 
791.792478  	84.686079 
792.756903  	84.495230 
793.721327  	84.632666 
794.685752  	85.002814 
795.650176  	85.692047 
796.614601  	86.495934 
797.579025  	87.218565 
798.543450  	87.488009 
799.507874  	87.572270 
800.472298  	87.729354 
801.436723  	87.846680 
802.401147  	87.794698 
803.365572  	87.732649 
804.329996  	87.749730 
805.294421  	87.804004 
806.258845  	87.798190 
807.223270  	87.755720 
808.187694  	87.743238 
809.152119  	87.728110 
810.116543  	87.764926 
811.080967  	87.834848 
812.045392  	87.782924 
813.009816  	87.723722 
813.974241  	87.808376 
814.938665  	87.874726 
815.903090  	87.794213 
816.867514  	87.690556 
817.831939  	87.688625 
818.796363  	87.710210 
819.760788  	87.651594 
820.725212  	87.546102 
821.689637  	87.397003 
822.654061  	87.331409 
823.618485  	87.217523 
824.582910  	86.955893 
825.547334  	86.679495 
826.511759  	86.511384 
827.476183  	86.345134 
828.440608  	86.126200 
829.405032  	85.873735 
830.369457  	85.601121 
831.333881  	85.391333 
832.298306  	85.144580 
833.262730  	84.772754 
834.227154  	84.418889 
835.191579  	84.080157 
836.156003  	83.720104 
837.120428  	83.274772 
838.084852  	82.754078 
839.049277  	82.299923 
840.013701  	81.810209 
840.978126  	81.299347 
841.942550  	80.838495 
842.906975  	80.238669 
843.871399  	79.559976 
844.835823  	78.999432 
845.800248  	78.542402 
846.764672  	78.220583 
847.729097  	78.224713 
848.693521  	78.398793 
849.657946  	78.793224 
850.622370  	79.289181 
851.586795  	79.751772 
852.551219  	80.162344 
853.515644  	80.534485 
854.480068  	80.801339 
855.444492  	80.853525 
856.408917  	81.006867 
857.373341  	81.268784 
858.337766  	81.527388 
859.302190  	81.761673 
860.266615  	81.834699 
861.231039  	81.740830 
862.195464  	81.624108 
863.159888  	81.382953 
864.124313  	80.942357 
865.088737  	80.287622 
866.053161  	79.349741 
867.017586  	78.060029 
867.982010  	76.257689 
868.946435  	73.803082 
869.910859  	70.740065 
870.875284  	67.514339 
871.839708  	65.673655 
872.804133  	66.529891 
873.768557  	69.496007 
874.732982  	72.795968 
875.697406  	75.416238 
876.661831  	77.311844 
877.626255  	78.826506 
878.590679  	80.139483 
879.555104  	81.266474 
880.519528  	82.289205 
881.483953  	83.180640 
882.448377  	84.031601 
883.412802  	84.851930 
884.377226  	85.530761 
885.341651  	86.015003 
886.306075  	86.430452 
887.270500  	86.778545 
888.234924  	87.044939 
889.199348  	87.156199 
890.163773  	87.202569 
891.128197  	87.288515 
892.092622  	87.306942 
893.057046  	87.229555 
894.021471  	87.216920 
894.985895  	87.240735 
895.950320  	87.136463 
896.914744  	87.063604 
897.879169  	87.099016 
898.843593  	87.101191 
899.808017  	87.133469 
900.772442  	87.232970 
901.736866  	87.327011 
902.701291  	87.519557 
903.665715  	87.698762 
904.630140  	87.814398 
905.594564  	87.951767 
906.558989  	88.246385 
907.523413  	88.515322 
908.487838  	88.666132 
909.452262  	88.808757 
910.416686  	89.051910 
911.381111  	89.282130 
912.345535  	89.314991 
913.309960  	89.355686 
914.274384  	89.462646 
915.238809  	89.518790 
916.203233  	89.533924 
917.167658  	89.594282 
918.132082  	89.601172 
919.096507  	89.643047 
920.060931  	89.735659 
921.025355  	89.757965 
921.989780  	89.683962 
922.954204  	89.593408 
923.918629  	89.568907 
924.883053  	89.584145 
925.847478  	89.565417 
926.811902  	89.516282 
927.776327  	89.497274 
928.740751  	89.425146 
929.705176  	89.388326 
930.669600  	89.352449 
931.634024  	89.276583 
932.598449  	89.249240 
933.562873  	89.208684 
934.527298  	89.158399 
935.491722  	89.019668 
936.456147  	88.941886 
937.420571  	88.953718 
938.384996  	88.868744 
939.349420  	88.741687 
940.313845  	88.657614 
941.278269  	88.558146 
942.242694  	88.479987 
943.207118  	88.381378 
944.171542  	88.303704 
945.135967  	88.192086 
946.100391  	88.020545 
947.064816  	87.897893 
948.029240  	87.809803 
948.993665  	87.660485 
949.958089  	87.470372 
950.922514  	87.311434 
951.886938  	87.187047 
952.851363  	86.982867 
953.815787  	86.730819 
954.780211  	86.527508 
955.744636  	86.360249 
956.709060  	86.131925 
957.673485  	85.844249 
958.637909  	85.527402 
959.602334  	85.193423 
960.566758  	84.875718 
961.531183  	84.485894 
962.495607  	84.063525 
963.460032  	83.677314 
964.424456  	83.238468 
965.388880  	82.723793 
966.353305  	82.246853 
967.317729  	81.877562 
968.282154  	81.491486 
969.246578  	81.092080 
970.211003  	80.845444 
971.175427  	80.758398 
972.139852  	80.783910 
973.104276  	81.017135 
974.068701  	81.380738 
975.033125  	81.817922 
975.997549  	82.321836 
976.961974  	82.792995 
977.926398  	83.229196 
978.890823  	83.643787 
979.855247  	84.007510 
980.819672  	84.308862 
981.784096  	84.579138 
982.748521  	84.821942 
983.712945  	84.960300 
984.677370  	84.980786 
985.641794  	85.002429 
986.606218  	85.004805 
987.570643  	84.961443 
988.535067  	84.951483 
989.499492  	85.014486 
990.463916  	85.092006 
991.428341  	85.127480 
992.392765  	85.138520 
993.357190  	85.165715 
994.321614  	85.184543 
995.286039  	85.149456 
996.250463  	85.060642 
997.214888  	84.958940 
998.179312  	84.853711 
999.143736  	84.643911 
1000.108161  	84.419126 
1001.072585  	84.228395 
1002.037010  	84.037303 
1003.001434  	83.762995 
1003.965859  	83.416818 
1004.930283  	83.056355 
1005.894708  	82.559182 
1006.859132  	81.941723 
1007.823557  	81.221674 
1008.787981  	80.367556 
1009.752405  	79.341498 
1010.716830  	78.022571 
1011.681254  	76.362722 
1012.645679  	74.338986 
1013.610103  	71.839798 
1014.574528  	69.122646 
1015.538952  	66.697871 
1016.503377  	64.971940 
1017.467801  	64.161129 
1018.432226  	64.352495 
1019.396650  	65.348198 
1020.361074  	66.761776 
1021.325499  	68.255643 
1022.289923  	69.640804 
1023.254348  	70.992119 
1024.218772  	72.597739 
1025.183197  	74.535326 
1026.147621  	76.610882 
1027.112046  	78.466203 
1028.076470  	79.802012 
1029.040895  	80.595526 
1030.005319  	80.983707 
1030.969743  	81.122582 
1031.934168  	81.203624 
1032.898592  	81.211183 
1033.863017  	81.067042 
1034.827441  	80.859391 
1035.791866  	80.636892 
1036.756290  	80.413346 
1037.720715  	80.219069 
1038.685139  	80.035576 
1039.649564  	79.842610 
1040.613988  	79.659502 
1041.578412  	79.502519 
1042.542837  	79.448376 
1043.507261  	79.451029 
1044.471686  	79.415194 
1045.436110  	79.386387 
1046.400535  	79.484179 
1047.364959  	79.594772 
1048.329384  	79.659035 
1049.293808  	79.785553 
1050.258233  	79.995999 
1051.222657  	80.134837 
1052.187081  	80.187154 
1053.151506  	80.248454 
1054.115930  	80.358891 
1055.080355  	80.367954 
1056.044779  	80.286304 
1057.009204  	80.143408 
1057.973628  	80.007111 
1058.938053  	79.814403 
1059.902477  	79.504571 
1060.866902  	79.144013 
1061.831326  	78.779558 
1062.795751  	78.345770 
1063.760175  	77.810749 
1064.724599  	77.239558 
1065.689024  	76.669879 
1066.653448  	76.090872 
1067.617873  	75.403680 
1068.582297  	74.608824 
1069.546722  	73.803837 
1070.511146  	72.959250 
1071.475571  	72.036832 
1072.439995  	71.029752 
1073.404420  	69.955533 
1074.368844  	68.796489 
1075.333268  	67.498730 
1076.297693  	66.121396 
1077.262117  	64.717863 
1078.226542  	63.329284 
1079.190966  	61.944780 
1080.155391  	60.555616 
1081.119815  	59.246329 
1082.084240  	58.094557 
1083.048664  	57.086962 
1084.013089  	56.231293 
1084.977513  	55.489076 
1085.941937  	54.764793 
1086.906362  	54.095944 
1087.870786  	53.543711 
1088.835211  	53.041904 
1089.799635  	52.567925 
1090.764060  	52.145930 
1091.728484  	51.799029 
1092.692909  	51.504419 
1093.657333  	51.195330 
1094.621758  	50.923023 
1095.586182  	50.837122 
1096.550606  	50.874698 
1097.515031  	50.961693 
1098.479455  	51.126328 
1099.443880  	51.430693 
1100.408304  	51.833416 
1101.372729  	52.275733 
1102.337153  	52.819681 
1103.301578  	53.405294 
1104.266002  	54.010756 
1105.230427  	54.685236 
1106.194851  	55.457009 
1107.159275  	56.235870 
1108.123700  	56.959277 
1109.088124  	57.597693 
1110.052549  	58.145286 
1111.016973  	58.578409 
1111.981398  	58.913638 
1112.945822  	59.200374 
1113.910247  	59.436399 
1114.874671  	59.504525 
1115.839096  	59.396891 
1116.803520  	59.225749 
1117.767945  	59.040083 
1118.732369  	58.917356 
1119.696793  	58.920184 
1120.661218  	58.992579 
1121.625642  	59.155895 
1122.590067  	59.409935 
1123.554491  	59.713848 
1124.518916  	60.095552 
1125.483340  	60.591413 
1126.447765  	61.155665 
1127.412189  	61.811769 
1128.376614  	62.565387 
1129.341038  	63.410039 
1130.305462  	64.389200 
1131.269887  	65.515319 
1132.234311  	66.706353 
1133.198736  	67.983536 
1134.163160  	69.331951 
1135.127585  	70.678893 
1136.092009  	72.036055 
1137.056434  	73.409388 
1138.020858  	74.747878 
1138.985283  	76.018243 
1139.949707  	77.187756 
1140.914131  	78.277646 
1141.878556  	79.282948 
1142.842980  	80.163435 
1143.807405  	81.020097 
1144.771829  	81.877934 
1145.736254  	82.648624 
1146.700678  	83.305017 
1147.665103  	83.889415 
1148.629527  	84.473873 
1149.593952  	85.015437 
1150.558376  	85.497415 
1151.522800  	85.911454 
1152.487225  	86.283307 
1153.451649  	86.645791 
1154.416074  	86.958757 
1155.380498  	87.199353 
1156.344923  	87.413368 
1157.309347  	87.623133 
1158.273772  	87.794189 
1159.238196  	87.893512 
1160.202621  	88.012286 
1161.167045  	88.121765 
1162.131469  	88.115683 
1163.095894  	88.087169 
1164.060318  	88.065156 
1165.024743  	87.975301 
1165.989167  	87.817401 
1166.953592  	87.613935 
1167.918016  	87.331876 
1168.882441  	86.933292 
1169.846865  	86.483238 
1170.811290  	86.098839 
1171.775714  	85.785930 
1172.740138  	85.566293 
1173.704563  	85.388741 
1174.668987  	85.257498 
1175.633412  	85.337214 
1176.597836  	85.489206 
1177.562261  	85.658884 
1178.526685  	85.878293 
1179.491110  	86.098234 
1180.455534  	86.305737 
1181.419959  	86.548237 
1182.384383  	86.750601 
1183.348808  	86.928476 
1184.313232  	87.091430 
1185.277656  	87.177115 
1186.242081  	87.195060 
1187.206505  	87.196180 
1188.170930  	87.176862 
1189.135354  	87.086015 
1190.099779  	86.958729 
1191.064203  	86.849836 
1192.028628  	86.673934 
1192.993052  	86.407093 
1193.957477  	86.104700 
1194.921901  	85.806740 
1195.886325  	85.488865 
1196.850750  	85.110570 
1197.815174  	84.733695 
1198.779599  	84.389883 
1199.744023  	84.028721 
1200.708448  	83.616623 
1201.672872  	83.205513 
1202.637297  	82.822685 
1203.601721  	82.401465 
1204.566146  	81.960609 
1205.530570  	81.513585 
1206.494994  	81.069012 
1207.459419  	80.623481 
1208.423843  	80.149531 
1209.388268  	79.654889 
1210.352692  	79.142067 
1211.317117  	78.563938 
1212.281541  	77.927336 
1213.245966  	77.324348 
1214.210390  	76.696780 
1215.174815  	75.960911 
1216.139239  	75.133193 
1217.103663  	74.270652 
1218.068088  	73.371939 
1219.032512  	72.414502 
1219.996937  	71.470849 
1220.961361  	70.568386 
1221.925786  	69.690703 
1222.890210  	68.830828 
1223.854635  	67.982476 
1224.819059  	67.110358 
1225.783484  	66.233151 
1226.747908  	65.321685 
1227.712332  	64.278163 
1228.676757  	63.086002 
1229.641181  	61.766289 
1230.605606  	60.348760 
1231.570030  	58.849176 
1232.534455  	57.310753 
1233.498879  	55.777082 
1234.463304  	54.291334 
1235.427728  	52.904783 
1236.392153  	51.667278 
1237.356577  	50.596394 
1238.321002  	49.679998 
1239.285426  	48.938422 
1240.249850  	48.389012 
1241.214275  	47.971240 
1242.178699  	47.680781 
1243.143124  	47.515062 
1244.107548  	47.439400 
1245.071973  	47.489370 
1246.036397  	47.616954 
1247.000822  	47.786175 
1247.965246  	48.006656 
1248.929671  	48.250553 
1249.894095  	48.502057 
1250.858519  	48.780941 
1251.822944  	49.055424 
1252.787368  	49.302524 
1253.751793  	49.548974 
1254.716217  	49.767128 
1255.680642  	49.999347 
1256.645066  	50.235319 
1257.609491  	50.447072 
1258.573915  	50.638979 
1259.538340  	50.830641 
1260.502764  	51.084763 
1261.467188  	51.530203 
1262.431613  	52.017773 
1263.396037  	52.543204 
1264.360462  	53.131116 
1265.324886  	53.765444 
1266.289311  	54.449594 
1267.253735  	55.218064 
1268.218160  	56.022722 
1269.182584  	56.806922 
1270.147009  	57.573418 
1271.111433  	58.384227 
1272.075857  	59.174264 
1273.040282  	60.073950 
1274.004706  	60.891961 
1274.969131  	61.652263 
1275.933555  	62.391183 
1276.897980  	63.095265 
1277.862404  	63.815436 
1278.826829  	64.539597 
1279.791253  	65.175297 
1280.755678  	65.853639 
1281.720102  	66.604589 
1282.684526  	67.353489 
1283.648951  	68.032792 
1284.613375  	68.695476 
1285.577800  	69.394115 
1286.542224  	70.039756 
1287.506649  	70.554431 
1288.471073  	71.244647 
1289.435498  	72.112941 
1290.399922  	72.878707 
1291.364347  	73.659584 
1292.328771  	74.487011 
1293.293195  	75.290413 
1294.257620  	76.092056 
1295.222044  	76.851770 
1296.186469  	77.575395 
1297.150893  	78.384398 
1298.115318  	79.314065 
1299.079742  	80.116746 
1300.044167  	80.894597 
1301.008591  	81.621729 
1301.973016  	82.281927 
1302.937440  	82.855834 
1303.901865  	83.370158 
1304.866289  	83.830659 
1305.830713  	84.265891 
1306.795138  	84.647498 
1307.759562  	84.944427 
1308.723987  	85.325706 
1309.688411  	85.858930 
1310.652836  	86.240513 
1311.617260  	86.417304 
1312.581685  	86.305965 
1313.546109  	86.631190 
1314.510534  	87.052485 
1315.474958  	87.484643 
1316.439382  	87.627331 
1317.403807  	87.671430 
1318.368231  	87.835772 
1319.332656  	87.856973 
1320.297080  	88.351362 
1321.261505  	88.782453 
1322.225929  	89.124094 
1323.190354  	89.249681 
1324.154778  	89.395644 
1325.119203  	89.532744 
1326.083627  	89.571283 
1327.048051  	89.511274 
1328.012476  	89.347597 
1328.976900  	89.036451 
1329.941325  	88.555034 
1330.905749  	87.981070 
1331.870174  	87.175507 
1332.834598  	86.039491 
1333.799023  	84.674315 
1334.763447  	83.149548 
1335.727872  	81.329999 
1336.692296  	79.194128 
1337.656720  	77.572750 
1338.621145  	75.727555 
1339.585569  	74.100050 
1340.549994  	74.031426 
1341.514418  	75.477466 
1342.478843  	76.816420 
1343.443267  	78.039579 
1344.407692  	79.573742 
1345.372116  	81.302320 
1346.336541  	83.044199 
1347.300965  	84.629610 
1348.265389  	85.931889 
1349.229814  	86.881015 
1350.194238  	87.868589 
1351.158663  	88.702239 
1352.123087  	89.256739 
1353.087512  	89.699620 
1354.051936  	89.863985 
1355.016361  	89.801048 
1355.980785  	90.242480 
1356.945210  	90.524800 
1357.909634  	90.477613 
1358.874059  	90.555349 
1359.838483  	90.561294 
1360.802907  	89.762795 
1361.767332  	89.098926 
1362.731756  	88.038684 
1363.696181  	87.898309 
1364.660605  	89.230477 
1365.625030  	89.361686 
1366.589454  	89.071582 
1367.553879  	88.535536 
1368.518303  	87.768561 
1369.482728  	87.715662 
1370.447152  	88.163625 
1371.411576  	88.136471 
1372.376001  	87.934605 
1373.340425  	87.145323 
1374.304850  	86.541954 
1375.269274  	87.130205 
1376.233699  	88.189551 
1377.198123  	88.458156 
1378.162548  	88.184049 
1379.126972  	88.292795 
1380.091397  	88.516720 
1381.055821  	88.776495 
1382.020245  	88.823652 
1382.984670  	88.779721 
1383.949094  	88.765399 
1384.913519  	88.706890 
1385.877943  	88.192316 
1386.842368  	86.985706 
1387.806792  	86.681139 
1388.771217  	87.922602 
1389.735641  	88.465726 
1390.700066  	88.348104 
1391.664490  	88.325550 
1392.628914  	88.291379 
1393.593339  	87.570311 
1394.557763  	85.991181 
1395.522188  	85.569470 
1396.486612  	86.169983 
1397.451037  	85.911572 
1398.415461  	84.879054 
1399.379886  	84.203432 
1400.344310  	84.492061 
1401.308735  	84.380482 
1402.273159  	83.433087 
1403.237583  	82.243978 
1404.202008  	80.490619 
1405.166432  	78.281295 
1406.130857  	77.408168 
1407.095281  	76.823199 
1408.059706  	75.890083 
1409.024130  	75.435511 
1409.988555  	75.456060 
1410.952979  	76.248413 
1411.917404  	77.549068 
1412.881828  	79.731064 
1413.846252  	81.862116 
1414.810677  	83.735315 
1415.775101  	84.980649 
1416.739526  	85.721231 
1417.703950  	86.310871 
1418.668375  	86.557609 
1419.632799  	86.847129 
1420.597224  	89.494376 
1421.561648  	90.646606 
1422.526073  	90.998349 
1423.490497  	90.109422 
1424.454922  	89.825910 
1425.419346  	91.234189 
1426.383770  	91.785455 
1427.348195  	91.761881 
1428.312619  	91.445188 
1429.277044  	90.874946 
1430.241468  	90.365556 
1431.205893  	90.863431 
1432.170317  	90.820484 
1433.134742  	90.381787 
1434.099166  	90.427188 
1435.063591  	90.105239 
1436.028015  	88.538171 
1436.992439  	87.318316 
1437.956864  	88.981174 
1438.921288  	89.790043 
1439.885713  	89.861404 
1440.850137  	89.799969 
1441.814562  	89.746742 
1442.778986  	89.726466 
1443.743411  	89.604484 
1444.707835  	89.444040 
1445.672260  	89.268881 
1446.636684  	88.983998 
1447.601108  	87.978808 
1448.565533  	87.762438 
1449.529957  	88.645789 
1450.494382  	88.802465 
1451.458806  	88.222905 
1452.423231  	87.691287 
1453.387655  	88.128261 
1454.352080  	87.679324 
1455.316504  	86.372916 
1456.280929  	85.352598 
1457.245353  	84.524892 
1458.209777  	84.795053 
1459.174202  	85.980491 
1460.138626  	87.762324 
1461.103051  	88.763093 
1462.067475  	88.980423 
1463.031900  	88.999751 
1463.996324  	88.532490 
1464.960749  	87.472344 
1465.925173  	88.006287 
1466.889598  	88.617060 
1467.854022  	88.457987 
1468.818446  	88.104025 
1469.782871  	87.423381 
1470.747295  	86.379633 
1471.711720  	84.460463 
1472.676144  	83.459286 
1473.640569  	84.505405 
1474.604993  	86.614679 
1475.569418  	87.072573 
1476.533842  	86.808370 
1477.498267  	88.529995 
1478.462691  	89.636588 
1479.427116  	90.011167 
1480.391540  	89.971685 
1481.355964  	89.563309 
1482.320389  	90.353036 
1483.284813  	91.153072 
1484.249238  	91.518982 
1485.213662  	91.489795 
1486.178087  	90.990708 
1487.142511  	90.407283 
1488.106936  	90.630953 
1489.071360  	89.657786 
1490.035785  	88.082215 
1491.000209  	89.672358 
1491.964633  	91.820787 
1492.929058  	92.682272 
1493.893482  	92.730062 
1494.857907  	92.359021 
1495.822331  	91.174078 
1496.786756  	90.373587 
1497.751180  	91.010130 
1498.715605  	90.295812 
1499.680029  	90.118978 
1500.644454  	90.291905 
1501.608878  	89.315173 
1502.573302  	88.527556 
1503.537727  	87.985287 
1504.502151  	86.753046 
1505.466576  	84.600616 
1506.431000  	80.890225 
1507.395425  	80.470826 
1508.359849  	83.480637 
1509.324274  	85.941663 
1510.288698  	87.900760 
1511.253123  	89.715685 
1512.217547  	89.845156 
1513.181971  	90.853809 
1514.146396  	91.481200 
1515.110820  	90.423548 
1516.075245  	89.243940 
1517.039669  	87.854620 
1518.004094  	89.812611 
1518.968518  	91.333858 
1519.932943  	90.301051 
1520.897367  	87.514503 
1521.861792  	87.809956 
1522.826216  	89.409748 
1523.790640  	90.670920 
1524.755065  	90.223368 
1525.719489  	89.549519 
1526.683914  	90.240023 
1527.648338  	89.944546 
1528.612763  	90.497303 
1529.577187  	91.784833 
1530.541612  	92.202197 
1531.506036  	91.242406 
1532.470461  	90.670363 
1533.434885  	89.721940 
1534.399309  	90.073433 
1535.363734  	91.183052 
1536.328158  	91.790073 
1537.292583  	91.972834 
1538.257007  	90.815466 
1539.221432  	87.804554 
1540.185856  	87.447960 
1541.150281  	89.046285 
1542.114705  	89.018534 
1543.079130  	88.892026 
1544.043554  	89.041306 
1545.007979  	88.663757 
1545.972403  	89.957765 
1546.936827  	91.711763 
1547.901252  	92.055884 
1548.865676  	91.416781 
1549.830101  	89.335900 
1550.794525  	89.860038 
1551.758950  	91.609550 
1552.723374  	91.725563 
1553.687799  	90.782809 
1554.652223  	89.576035 
1555.616648  	90.705902 
1556.581072  	91.025558 
1557.545496  	89.650323 
1558.509921  	85.076647 
1559.474345  	84.496794 
1560.438770  	87.798822 
1561.403194  	90.628584 
1562.367619  	91.602550 
1563.332043  	91.847977 
1564.296468  	91.416273 
1565.260892  	90.986100 
1566.225317  	91.613548 
1567.189741  	91.861719 
1568.154165  	91.360536 
1569.118590  	89.792380 
1570.083014  	89.298423 
1571.047439  	90.818088 
1572.011863  	91.220849 
1572.976288  	91.032363 
1573.940712  	90.760217 
1574.905137  	90.219484 
1575.869561  	88.916077 
1576.833986  	87.916381 
1577.798410  	88.900472 
1578.762834  	89.698830 
1579.727259  	90.091508 
1580.691683  	90.427851 
1581.656108  	90.717571 
1582.620532  	90.983222 
1583.584957  	91.271587 
1584.549381  	91.580346 
1585.513806  	91.806817 
1586.478230  	91.972239 
1587.442655  	92.081714 
1588.407079  	92.158384 
1589.371503  	92.023203 
1590.335928  	91.949945 
1591.300352  	92.045023 
1592.264777  	92.120324 
1593.229201  	92.153174 
1594.193626  	91.872527 
1595.158050  	91.739505 
1596.122475  	91.864027 
1597.086899  	91.959493 
1598.051324  	92.096287 
1599.015748  	92.036914 
1599.980173  	91.958413 
1600.944597  	91.698860 
1601.909021  	91.530697 
1602.873446  	91.249428 
1603.837870  	91.221632 
1604.802295  	91.425881 
1605.766719  	91.347928 
1606.731144  	90.855555 
1607.695568  	90.581526 
1608.659993  	90.549992 
1609.624417  	90.125364 
1610.588842  	90.355440 
1611.553266  	90.512569 
1612.517690  	90.409852 
1613.482115  	90.368443 
1614.446539  	90.248167 
1615.410964  	89.873951 
1616.375388  	88.899716 
1617.339813  	88.746245 
1618.304237  	89.895005 
1619.268662  	90.390178 
1620.233086  	90.464921 
1621.197511  	90.462709 
1622.161935  	90.089110 
1623.126359  	89.123561 
1624.090784  	89.204831 
1625.055208  	90.151985 
1626.019633  	90.380413 
1626.984057  	90.106926 
1627.948482  	89.470475 
1628.912906  	89.908126 
1629.877331  	90.342320 
1630.841755  	90.387597 
1631.806180  	90.285936 
1632.770604  	90.194191 
1633.735028  	89.885525 
1634.699453  	88.929596 
1635.663877  	86.912744 
1636.628302  	87.807565 
1637.592726  	88.048682 
1638.557151  	88.852706 
1639.521575  	89.412941 
1640.486000  	89.380310 
1641.450424  	89.358458 
1642.414849  	89.240067 
1643.379273  	89.237900 
1644.343697  	89.127172 
1645.308122  	88.231413 
1646.272546  	86.514759 
1647.236971  	85.750889 
1648.201395  	86.173617 
1649.165820  	87.673606 
1650.130244  	88.259107 
1651.094669  	87.915000 
1652.059093  	86.806882 
1653.023518  	83.195722 
1653.987942  	82.624275 
1654.952366  	85.198562 
1655.916791  	86.761986 
1656.881215  	87.019607 
1657.845640  	87.106877 
1658.810064  	87.138947 
1659.774489  	86.981203 
1660.738913  	86.383697 
1661.703338  	85.566494 
1662.667762  	84.562793 
1663.632187  	84.630560 
1664.596611  	84.919438 
1665.561036  	84.710221 
1666.525460  	84.284574 
1667.489884  	83.448944 
1668.454309  	81.714293 
1669.418733  	80.469971 
1670.383158  	81.103357 
1671.347582  	80.633594 
1672.312007  	80.499679 
1673.276431  	80.742027 
1674.240856  	80.081352 
1675.205280  	78.518102 
1676.169705  	78.377728 
1677.134129  	78.789152 
1678.098553  	78.397813 
1679.062978  	77.416229 
1680.027402  	75.523128 
1680.991827  	75.060304 
1681.956251  	75.283268 
1682.920676  	73.873381 
1683.885100  	70.168992 
1684.849525  	70.061409 
1685.813949  	73.061236 
1686.778374  	73.455839 
1687.742798  	72.484317 
1688.707222  	71.394253 
1689.671647  	70.940576 
1690.636071  	70.298391 
1691.600496  	69.846288 
1692.564920  	68.890630 
1693.529345  	67.509903 
1694.493769  	65.918625 
1695.458194  	63.658024 
1696.422618  	61.080665 
1697.387043  	60.413243 
1698.351467  	59.341776 
1699.315891  	57.585052 
1700.280316  	53.808333 
1701.244740  	52.712886 
1702.209165  	52.696752 
1703.173589  	51.572149 
1704.138014  	49.728721 
1705.102438  	48.079848 
1706.066863  	46.931878 
1707.031287  	45.758321 
1707.995712  	45.392547 
1708.960136  	44.974070 
1709.924560  	44.226232 
1710.888985  	43.921678 
1711.853409  	44.146609 
1712.817834  	44.240751 
1713.782258  	44.209462 
1714.746683  	44.331401 
1715.711107  	45.649176 
1716.675532  	46.639608 
1717.639956  	46.832701 
1718.604381  	48.986870 
1719.568805  	51.839883 
1720.533230  	53.594057 
1721.497654  	54.964303 
1722.462078  	56.217529 
1723.426503  	57.256653 
1724.390927  	58.900885 
1725.355352  	60.464154 
1726.319776  	61.778345 
1727.284201  	63.093950 
1728.248625  	64.403991 
1729.213050  	64.970633 
1730.177474  	65.468055 
1731.141899  	67.719563 
1732.106323  	69.054601 
1733.070747  	68.962290 
1734.035172  	68.481291 
1734.999596  	72.146046 
1735.964021  	75.114574 
1736.928445  	76.531868 
1737.892870  	77.755021 
1738.857294  	78.663423 
1739.821719  	79.404508 
1740.786143  	81.734839 
1741.750568  	83.369897 
1742.714992  	83.605626 
1743.679416  	83.799816 
1744.643841  	85.674138 
1745.608265  	87.136196 
1746.572690  	87.612466 
1747.537114  	87.844587 
1748.501539  	88.046572 
1749.465963  	88.729733 
1750.430388  	89.433134 
1751.394812  	88.988413 
1752.359237  	90.596724 
1753.323661  	92.087175 
1754.288085  	92.760446 
1755.252510  	92.943051 
1756.216934  	92.283452 
1757.181359  	91.666294 
1758.145783  	92.481050 
1759.110208  	93.039589 
1760.074632  	93.321496 
1761.039057  	92.778638 
1762.003481  	91.755655 
1762.967906  	92.875619 
1763.932330  	93.775614 
1764.896754  	93.986789 
1765.861179  	93.999312 
1766.825603  	93.816947 
1767.790028  	92.784031 
1768.754452  	92.471901 
1769.718877  	93.606252 
1770.683301  	93.396937 
1771.647726  	92.223116 
1772.612150  	91.691651 
1773.576575  	92.882809 
1774.540999  	93.674412 
1775.505423  	93.233469 
1776.469848  	93.478075 
1777.434272  	94.253343 
1778.398697  	94.083954 
1779.363121  	93.744070 
1780.327546  	93.268685 
1781.291970  	93.127393 
1782.256395  	93.962239 
1783.220819  	94.383781 
1784.185244  	94.014887 
1785.149668  	93.350879 
1786.114093  	93.963646 
1787.078517  	94.459780 
1788.042941  	94.451256 
1789.007366  	94.338843 
1789.971790  	93.946568 
1790.936215  	92.853061 
1791.900639  	92.402761 
1792.865064  	92.354174 
1793.829488  	93.377784 
1794.793913  	93.899045 
1795.758337  	93.198898 
1796.722762  	93.190977 
1797.687186  	94.068950 
1798.651610  	94.146331 
1799.616035  	93.473406 
1800.580459  	93.353958 
1801.544884  	93.142260 
1802.509308  	92.947003 
1803.473733  	93.851601 
1804.438157  	94.421371 
1805.402582  	94.396615 
1806.367006  	94.356078 
1807.331431  	94.009715 
1808.295855  	93.845578 
1809.260279  	94.255551 
1810.224704  	93.780509 
1811.189128  	93.301578 
1812.153553  	93.604292 
1813.117977  	94.015931 
1814.082402  	94.451053 
1815.046826  	94.512888 
1816.011251  	94.525477 
1816.975675  	94.238433 
1817.940100  	94.033427 
1818.904524  	94.388060 
1819.868948  	94.533825 
1820.833373  	94.465293 
1821.797797  	94.360906 
1822.762222  	94.101471 
1823.726646  	94.118524 
1824.691071  	93.525884 
1825.655495  	92.802651 
1826.619920  	93.959448 
1827.584344  	94.432799 
1828.548769  	93.953268 
1829.513193  	92.656046 
1830.477617  	92.682908 
1831.442042  	93.997361 
1832.406466  	94.398012 
1833.370891  	94.256676 
1834.335315  	94.529078 
1835.299740  	94.723531 
1836.264164  	94.502307 
1837.228589  	93.988439 
1838.193013  	94.255708 
1839.157438  	94.681105 
1840.121862  	94.785594 
1841.086287  	94.734396 
1842.050711  	94.306019 
1843.015135  	93.956364 
1843.979560  	93.179703 
1844.943984  	92.916000 
1845.908409  	93.927998 
1846.872833  	94.306431 
1847.837258  	93.818959 
1848.801682  	94.067101 
1849.766107  	94.779389 
1850.730531  	95.067721 
1851.694956  	95.063783 
1852.659380  	95.020831 
1853.623804  	95.074648 
1854.588229  	95.063392 
1855.552653  	95.085837 
1856.517078  	95.046435 
1857.481502  	95.037558 
1858.445927  	94.867845 
1859.410351  	94.821411 
1860.374776  	94.965596 
1861.339200  	94.887769 
1862.303625  	94.925365 
1863.268049  	95.110198 
1864.232473  	95.081222 
1865.196898  	95.095815 
1866.161322  	94.733370 
1867.125747  	94.187371 
1868.090171  	93.479665 
1869.054596  	92.993317 
1870.019020  	93.533951 
1870.983445  	94.388936 
1871.947869  	94.974139 
1872.912294  	95.322952 
1873.876718  	95.377302 
1874.841142  	95.296704 
1875.805567  	95.236100 
1876.769991  	95.247618 
1877.734416  	95.248647 
1878.698840  	95.129397 
1879.663265  	95.034654 
1880.627689  	95.213872 
1881.592114  	95.259703 
1882.556538  	95.193943 
1883.520963  	95.183616 
1884.485387  	95.096642 
1885.449811  	95.016861 
1886.414236  	95.272886 
1887.378660  	95.317408 
1888.343085  	95.065058 
1889.307509  	94.077663 
1890.271934  	93.959452 
1891.236358  	94.848652 
1892.200783  	95.145907 
1893.165207  	95.226309 
1894.129632  	95.070607 
1895.094056  	94.419588 
1896.058480  	94.535242 
1897.022905  	95.088172 
1897.987329  	95.151615 
1898.951754  	95.130945 
1899.916178  	95.171694 
1900.880603  	95.244636 
1901.845027  	95.091253 
1902.809452  	95.005272 
1903.773876  	95.059457 
1904.738301  	95.123796 
1905.702725  	95.042630 
1906.667150  	95.049698 
1907.631574  	94.797518 
1908.595998  	94.651676 
1909.560423  	94.530029 
1910.524847  	94.458085 
1911.489272  	95.029258 
1912.453696  	95.108470 
1913.418121  	94.988808 
1914.382545  	94.870972 
1915.346970  	94.980475 
1916.311394  	95.104242 
1917.275819  	94.739042 
1918.240243  	93.859295 
1919.204667  	94.406056 
1920.169092  	94.828025 
1921.133516  	94.708601 
1922.097941  	94.087669 
1923.062365  	93.435051 
1924.026790  	94.331270 
1924.991214  	95.034744 
1925.955639  	94.949097 
1926.920063  	95.045549 
1927.884488  	95.073742 
1928.848912  	95.084287 
1929.813336  	95.041537 
1930.777761  	94.987401 
1931.742185  	94.860393 
1932.706610  	94.800078 
1933.671034  	95.030837 
1934.635459  	95.193165 
1935.599883  	95.081604 
1936.564308  	95.026761 
1937.528732  	94.906389 
1938.493157  	94.966932 
1939.457581  	95.113321 
1940.422005  	94.912880 
1941.386430  	94.349656 
1942.350854  	93.444857 
1943.315279  	93.583985 
1944.279703  	94.486322 
1945.244128  	94.511787 
1946.208552  	94.442536 
1947.172977  	94.507111 
1948.137401  	94.684159 
1949.101826  	94.700701 
1950.066250  	94.879157 
1951.030674  	94.966741 
1951.995099  	94.956340 
1952.959523  	94.753701 
1953.923948  	94.478093 
1954.888372  	94.316390 
1955.852797  	94.530038 
1956.817221  	94.843436 
1957.781646  	94.905108 
1958.746070  	94.651852 
1959.710495  	94.472098 
1960.674919  	94.359414 
1961.639344  	94.384835 
1962.603768  	94.302314 
1963.568192  	94.444561 
1964.532617  	94.782457 
1965.497041  	94.930170 
1966.461466  	94.361363 
1967.425890  	93.796633 
1968.390315  	94.373713 
1969.354739  	95.007913 
1970.319164  	95.005712 
1971.283588  	95.186766 
1972.248013  	95.146184 
1973.212437  	95.111854 
1974.176861  	95.399364 
1975.141286  	95.470475 
1976.105710  	95.355197 
1977.070135  	95.467767 
1978.034559  	94.920639 
1978.998984  	94.529703 
1979.963408  	94.598309 
1980.927833  	94.654667 
1981.892257  	94.779208 
1982.856682  	94.976358 
1983.821106  	95.067731 
1984.785530  	95.244247 
1985.749955  	95.247762 
1986.714379  	95.250685 
1987.678804  	94.772369 
1988.643228  	94.351097 
1989.607653  	94.966086 
1990.572077  	95.092702 
1991.536502  	94.401657 
1992.500926  	94.145776 
1993.465351  	94.580114 
1994.429775  	94.971852 
1995.394199  	95.060619 
1996.358624  	95.117391 
1997.323048  	95.056321 
1998.287473  	95.042803 
1999.251897  	95.229528 
2000.216322  	95.605016 
2001.180746  	95.713956 
2002.145171  	95.708499 
2003.109595  	95.774371 
2004.074020  	95.773266 
2005.038444  	95.742675 
2006.002868  	95.867431 
2006.967293  	95.715703 
2007.931717  	95.223358 
2008.896142  	95.334134 
2009.860566  	95.639214 
2010.824991  	95.643214 
2011.789415  	95.372628 
2012.753840  	95.311425 
2013.718264  	95.417485 
2014.682689  	95.327931 
2015.647113  	95.412189 
2016.611537  	95.039697 
2017.575962  	94.866987 
2018.540386  	95.029009 
2019.504811  	95.426053 
2020.469235  	95.942692 
2021.433660  	96.201547 
2022.398084  	96.040890 
2023.362509  	95.624968 
2024.326933  	95.600328 
2025.291358  	95.468484 
2026.255782  	95.448932 
2027.220207  	95.438093 
2028.184631  	95.556989 
2029.149055  	96.153498 
2030.113480  	96.348489 
2031.077904  	96.136335 
2032.042329  	95.637997 
2033.006753  	95.525097 
2033.971178  	95.705856 
2034.935602  	95.873791 
2035.900027  	95.973525 
2036.864451  	95.935964 
2037.828876  	95.911481 
2038.793300  	95.832837 
2039.757724  	95.474692 
2040.722149  	95.259582 
2041.686573  	94.896192 
2042.650998  	94.935378 
2043.615422  	95.064156 
2044.579847  	95.511516 
2045.544271  	95.825494 
2046.508696  	95.949091 
2047.473120  	95.729003 
2048.437545  	95.619560 
2049.401969  	95.591139 
2050.366393  	95.225119 
2051.330818  	95.086888 
2052.295242  	95.413716 
2053.259667  	95.668348 
2054.224091  	95.393043 
2055.188516  	95.050606 
2056.152940  	95.177029 
2057.117365  	95.196784 
2058.081789  	95.213905 
2059.046214  	95.308194 
2060.010638  	95.202935 
2060.975062  	95.051276 
2061.939487  	95.092952 
2062.903911  	95.014458 
2063.868336  	94.986114 
2064.832760  	94.874032 
2065.797185  	95.013202 
2066.761609  	95.102827 
2067.726034  	95.178706 
2068.690458  	95.286942 
2069.654883  	95.257660 
2070.619307  	95.155892 
2071.583731  	95.116292 
2072.548156  	95.064396 
2073.512580  	95.110216 
2074.477005  	95.024203 
2075.441429  	95.059678 
2076.405854  	95.013043 
2077.370278  	94.961325 
2078.334703  	94.911526 
2079.299127  	94.912336 
2080.263552  	95.022179 
2081.227976  	95.106888 
2082.192401  	95.014149 
2083.156825  	94.843589 
2084.121249  	94.847970 
2085.085674  	94.968074 
2086.050098  	94.945230 
2087.014523  	94.885952 
2087.978947  	94.967762 
2088.943372  	94.968623 
2089.907796  	94.844858 
2090.872221  	94.853021 
2091.836645  	95.075967 
2092.801070  	95.159103 
2093.765494  	95.223004 
2094.729918  	95.190766 
2095.694343  	95.026278 
2096.658767  	94.992305 
2097.623192  	95.037216 
2098.587616  	94.911752 
2099.552041  	94.930294 
2100.516465  	95.031737 
2101.480890  	95.023713 
2102.445314  	94.971678 
2103.409739  	94.870678 
2104.374163  	94.831450 
2105.338587  	94.909929 
2106.303012  	94.951023 
2107.267436  	94.911140 
2108.231861  	94.932628 
2109.196285  	94.896829 
2110.160710  	94.925410 
2111.125134  	95.063927 
2112.089559  	95.005466 
2113.053983  	95.021728 
2114.018408  	94.985956 
2114.982832  	94.819727 
2115.947256  	94.770992 
2116.911681  	94.968386 
2117.876105  	95.113954 
2118.840530  	94.995874 
2119.804954  	95.044644 
2120.769379  	95.216688 
2121.733803  	95.220171 
2122.698228  	95.200218 
2123.662652  	95.116872 
2124.627077  	94.963767 
2125.591501  	95.133962 
2126.555925  	95.377002 
2127.520350  	95.306357 
2128.484774  	95.234087 
2129.449199  	95.451238 
2130.413623  	95.494940 
2131.378048  	95.409610 
2132.342472  	95.471852 
2133.306897  	95.568380 
2134.271321  	95.488659 
2135.235746  	95.403776 
2136.200170  	95.329065 
2137.164594  	95.498968 
2138.129019  	95.577736 
2139.093443  	95.625871 
2140.057868  	95.769359 
2141.022292  	95.764858 
2141.986717  	95.583310 
2142.951141  	95.529254 
2143.915566  	95.778891 
2144.879990  	95.805945 
2145.844415  	95.722139 
2146.808839  	95.814672 
2147.773264  	96.071992 
2148.737688  	96.204880 
2149.702112  	96.293502 
2150.666537  	96.303999 
2151.630961  	96.183608 
2152.595386  	96.258003 
2153.559810  	96.197447 
2154.524235  	96.404017 
2155.488659  	96.735716 
2156.453084  	97.082017 
2157.417508  	97.123972 
2158.381933  	96.834841 
2159.346357  	96.037591 
2160.310781  	95.409011 
2161.275206  	95.296751 
2162.239630  	95.638365 
2163.204055  	96.008333 
2164.168479  	96.119825 
2165.132904  	95.866904 
2166.097328  	95.812458 
2167.061753  	95.849341 
2168.026177  	95.801977 
2168.990602  	95.611853 
2169.955026  	95.691591 
2170.919450  	95.945822 
2171.883875  	95.649596 
2172.848299  	95.663135 
2173.812724  	95.841049 
2174.777148  	95.907381 
2175.741573  	95.804469 
2176.705997  	95.663698 
2177.670422  	95.811521 
2178.634846  	96.077781 
2179.599271  	95.972922 
2180.563695  	95.749659 
2181.528119  	95.816223 
2182.492544  	95.784109 
2183.456968  	95.502944 
2184.421393  	95.233361 
2185.385817  	95.734627 
2186.350242  	95.786009 
2187.314666  	95.450670 
2188.279091  	95.555687 
2189.243515  	95.628531 
2190.207940  	95.530432 
2191.172364  	95.663495 
2192.136788  	95.850559 
2193.101213  	95.749333 
2194.065637  	95.615808 
2195.030062  	95.568038 
2195.994486  	95.342556 
2196.958911  	95.374741 
2197.923335  	95.589090 
2198.887760  	95.488685 
2199.852184  	95.478490 
2200.816609  	95.485916 
2201.781033  	95.398151 
2202.745458  	95.640615 
2203.709882  	95.726680 
2204.674306  	95.694950 
2205.638731  	95.501872 
2206.603155  	95.360041 
2207.567580  	95.445808 
2208.532004  	95.493949 
2209.496429  	95.376505 
2210.460853  	95.257891 
2211.425278  	95.343408 
2212.389702  	95.328005 
2213.354127  	95.060305 
2214.318551  	94.934706 
2215.282975  	94.878428 
2216.247400  	95.080586 
2217.211824  	95.270866 
2218.176249  	95.370934 
2219.140673  	95.439267 
2220.105098  	95.247582 
2221.069522  	95.230855 
2222.033947  	95.377954 
2222.998371  	95.440605 
2223.962796  	95.327672 
2224.927220  	95.369023 
2225.891644  	95.389995 
2226.856069  	95.227566 
2227.820493  	95.147713 
2228.784918  	95.181186 
2229.749342  	95.279312 
2230.713767  	95.182486 
2231.678191  	95.069553 
2232.642616  	95.143770 
2233.607040  	95.437779 
2234.571465  	95.419491 
2235.535889  	95.116428 
2236.500313  	94.979658 
2237.464738  	94.942181 
2238.429162  	95.105016 
2239.393587  	95.195153 
2240.358011  	95.098857 
2241.322436  	95.214503 
2242.286860  	95.205194 
2243.251285  	95.131018 
2244.215709  	95.095379 
2245.180134  	94.942580 
2246.144558  	94.872364 
2247.108982  	95.034014 
2248.073407  	95.102533 
2249.037831  	94.995760 
2250.002256  	94.941756 
2250.966680  	95.037334 
2251.931105  	95.115454 
2252.895529  	95.085975 
2253.859954  	95.057420 
2254.824378  	94.954994 
2255.788803  	94.915013 
2256.753227  	94.992660 
2257.717651  	94.987002 
2258.682076  	94.781765 
2259.646500  	94.777476 
2260.610925  	94.777160 
2261.575349  	94.813446 
2262.539774  	94.926912 
2263.504198  	95.010968 
2264.468623  	94.971777 
2265.433047  	94.922784 
2266.397472  	94.988842 
2267.361896  	94.996660 
2268.326321  	94.904684 
2269.290745  	94.880411 
2270.255169  	94.938369 
2271.219594  	95.019340 
2272.184018  	94.987185 
2273.148443  	94.877865 
2274.112867  	94.872677 
2275.077292  	94.791546 
2276.041716  	94.672195 
2277.006141  	94.759750 
2277.970565  	94.821076 
2278.934990  	94.747000 
2279.899414  	94.758297 
2280.863838  	94.771558 
2281.828263  	94.740976 
2282.792687  	94.663929 
2283.757112  	94.632203 
2284.721536  	94.613093 
2285.685961  	94.601184 
2286.650385  	94.599645 
2287.614810  	94.583278 
2288.579234  	94.527378 
2289.543659  	94.500148 
2290.508083  	94.646996 
2291.472507  	94.671563 
2292.436932  	94.642217 
2293.401356  	94.591177 
2294.365781  	94.514526 
2295.330205  	94.508949 
2296.294630  	94.448473 
2297.259054  	94.469983 
2298.223479  	94.424292 
2299.187903  	94.459414 
2300.152328  	94.466142 
2301.116752  	94.449046 
2302.081176  	94.514078 
2303.045601  	94.408047 
2304.010025  	94.489582 
2304.974450  	94.372890 
2305.938874  	94.362306 
2306.903299  	94.307561 
2307.867723  	94.362998 
2308.832148  	94.324799 
2309.796572  	94.347469 
2310.760997  	94.339554 
2311.725421  	94.300770 
2312.689845  	94.452703 
2313.654270  	94.524994 
2314.618694  	94.597403 
2315.583119  	94.675528 
2316.547543  	94.736034 
2317.511968  	94.853937 
2318.476392  	94.900581 
2319.440817  	94.891283 
2320.405241  	94.888989 
2321.369666  	95.002426 
2322.334090  	95.095159 
2323.298515  	95.135740 
2324.262939  	95.163485 
2325.227363  	95.547085 
2326.191788  	95.870314 
2327.156212  	96.069255 
2328.120637  	96.067135 
2329.085061  	96.174495 
2330.049486  	96.276941 
2331.013910  	96.292645 
2331.978335  	96.404932 
2332.942759  	96.635199 
2333.907184  	96.753792 
2334.871608  	96.839755 
2335.836032  	97.085359 
2336.800457  	97.261812 
2337.764881  	97.190335 
2338.729306  	97.189016 
2339.693730  	97.144523 
2340.658155  	97.208041 
2341.622579  	97.335349 
2342.587004  	97.221791 
2343.551428  	97.022618 
2344.515853  	96.721270 
2345.480277  	96.429239 
2346.444701  	96.155501 
2347.409126  	95.882489 
2348.373550  	95.391951 
2349.337975  	95.175838 
2350.302399  	95.540110 
2351.266824  	96.098830 
2352.231248  	96.613986 
2353.195673  	96.870922 
2354.160097  	97.099187 
2355.124522  	97.282771 
2356.088946  	97.670553 
2357.053370  	97.847556 
2358.017795  	97.947488 
2358.982219  	97.908446 
2359.946644  	98.183201 
2360.911068  	98.278043 
2361.875493  	97.966295 
2362.839917  	97.688710 
2363.804342  	97.761012 
2364.768766  	97.753098 
2365.733191  	97.752220 
2366.697615  	97.487707 
2367.662039  	97.063847 
2368.626464  	96.699408 
2369.590888  	96.479485 
2370.555313  	96.241917 
2371.519737  	95.928998 
2372.484162  	95.691586 
2373.448586  	95.544606 
2374.413011  	95.264327 
2375.377435  	95.013429 
2376.341860  	94.820220 
2377.306284  	94.691950 
2378.270708  	94.523046 
2379.235133  	94.394476 
2380.199557  	94.434905 
2381.163982  	94.452729 
2382.128406  	94.468194 
2383.092831  	94.509555 
2384.057255  	94.507834 
2385.021680  	94.567947 
2385.986104  	94.680120 
2386.950529  	94.715680 
2387.914953  	94.745224 
2388.879378  	94.779209 
2389.843802  	94.850076 
2390.808226  	94.866822 
2391.772651  	94.839695 
2392.737075  	94.840941 
2393.701500  	94.896032 
2394.665924  	94.889705 
2395.630349  	94.864820 
2396.594773  	94.813649 
2397.559198  	94.788843 
2398.523622  	94.843562 
2399.488047  	94.914856 
2400.452471  	94.867568 
2401.416895  	94.843590 
2402.381320  	94.875598 
2403.345744  	94.921803 
2404.310169  	94.950757 
2405.274593  	94.922709 
2406.239018  	94.879466 
2407.203442  	94.892684 
2408.167867  	94.904287 
2409.132291  	94.887653 
2410.096716  	94.831351 
2411.061140  	94.817567 
2412.025564  	94.856372 
2412.989989  	94.859200 
2413.954413  	94.868707 
2414.918838  	94.927241 
2415.883262  	94.893137 
2416.847687  	94.857876 
2417.812111  	94.895130 
2418.776536  	94.895061 
2419.740960  	94.884202 
2420.705385  	94.922244 
2421.669809  	94.913040 
2422.634233  	94.905581 
2423.598658  	94.922140 
2424.563082  	94.910418 
2425.527507  	94.956777 
2426.491931  	94.945714 
2427.456356  	94.899973 
2428.420780  	94.984931 
2429.385205  	94.987252 
2430.349629  	94.972630 
2431.314054  	94.995101 
2432.278478  	94.985635 
2433.242902  	94.945549 
2434.207327  	94.887311 
2435.171751  	94.922804 
2436.136176  	94.992697 
2437.100600  	95.000149 
2438.065025  	95.007588 
2439.029449  	95.065255 
2439.993874  	95.044845 
2440.958298  	95.009577 
2441.922723  	94.975265 
2442.887147  	94.927374 
2443.851572  	94.924068 
2444.815996  	94.958436 
2445.780420  	94.938254 
2446.744845  	94.886786 
2447.709269  	94.883903 
2448.673694  	94.912726 
2449.638118  	94.912608 
2450.602543  	94.897752 
2451.566967  	94.865211 
2452.531392  	94.860687 
2453.495816  	94.868932 
2454.460241  	94.905055 
2455.424665  	94.968238 
2456.389089  	94.958959 
2457.353514  	94.905148 
2458.317938  	94.902240 
2459.282363  	94.918626 
2460.246787  	94.939882 
2461.211212  	94.897307 
2462.175636  	94.912538 
2463.140061  	94.948928 
2464.104485  	94.929974 
2465.068910  	94.949128 
2466.033334  	94.945195 
2466.997758  	94.929924 
2467.962183  	94.963984 
2468.926607  	94.971553 
2469.891032  	94.931144 
2470.855456  	94.918672 
2471.819881  	94.947468 
2472.784305  	94.963015 
2473.748730  	94.963429 
2474.713154  	94.999224 
2475.677579  	94.967778 
2476.642003  	94.928715 
2477.606427  	94.934765 
2478.570852  	94.976824 
2479.535276  	94.976580 
2480.499701  	94.908648 
2481.464125  	94.923078 
2482.428550  	94.982676 
2483.392974  	95.017537 
2484.357399  	95.052846 
2485.321823  	94.991923 
2486.286248  	94.889327 
2487.250672  	94.881800 
2488.215096  	94.937878 
2489.179521  	94.933397 
2490.143945  	94.890643 
2491.108370  	94.848515 
2492.072794  	94.830974 
2493.037219  	94.862704 
2494.001643  	94.922471 
2494.966068  	94.947524 
2495.930492  	94.953626 
2496.894917  	94.884231 
2497.859341  	94.861619 
2498.823765  	94.861093 
2499.788190  	94.886655 
2500.752614  	94.864130 
2501.717039  	94.822190 
2502.681463  	94.828875 
2503.645888  	94.873443 
2504.610312  	94.846111 
2505.574737  	94.834913 
2506.539161  	94.879904 
2507.503586  	94.913975 
2508.468010  	94.853366 
2509.432435  	94.790782 
2510.396859  	94.820282 
2511.361283  	94.874553 
2512.325708  	94.858454 
2513.290132  	94.819464 
2514.254557  	94.845038 
2515.218981  	94.822542 
2516.183406  	94.781413 
2517.147830  	94.821091 
2518.112255  	94.751975 
2519.076679  	94.752551 
2520.041104  	94.837675 
2521.005528  	94.826863 
2521.969952  	94.743993 
2522.934377  	94.727150 
2523.898801  	94.748353 
2524.863226  	94.791504 
2525.827650  	94.817911 
2526.792075  	94.815807 
2527.756499  	94.791638 
2528.720924  	94.797804 
2529.685348  	94.748412 
2530.649773  	94.750973 
2531.614197  	94.766377 
2532.578621  	94.789475 
2533.543046  	94.817355 
2534.507470  	94.844116 
2535.471895  	94.823337 
2536.436319  	94.773511 
2537.400744  	94.786609 
2538.365168  	94.761642 
2539.329593  	94.763799 
2540.294017  	94.807251 
2541.258442  	94.806020 
2542.222866  	94.778298 
2543.187290  	94.817872 
2544.151715  	94.870757 
2545.116139  	94.810887 
2546.080564  	94.710005 
2547.044988  	94.647034 
2548.009413  	94.649316 
2548.973837  	94.737682 
2549.938262  	94.776471 
2550.902686  	94.773044 
2551.867111  	94.743344 
2552.831535  	94.720039 
2553.795959  	94.712544 
2554.760384  	94.741433 
2555.724808  	94.723676 
2556.689233  	94.651903 
2557.653657  	94.666977 
2558.618082  	94.693582 
2559.582506  	94.722811 
2560.546931  	94.707675 
2561.511355  	94.653666 
2562.475780  	94.659006 
2563.440204  	94.666578 
2564.404629  	94.712452 
2565.369053  	94.761391 
2566.333477  	94.735311 
2567.297902  	94.730743 
2568.262326  	94.733604 
2569.226751  	94.643091 
2570.191175  	94.572350 
2571.155600  	94.621997 
2572.120024  	94.684882 
2573.084449  	94.746743 
2574.048873  	94.693229 
2575.013298  	94.632916 
2575.977722  	94.680713 
2576.942146  	94.735597 
2577.906571  	94.721350 
2578.870995  	94.684613 
2579.835420  	94.666021 
2580.799844  	94.704845 
2581.764269  	94.690404 
2582.728693  	94.680446 
2583.693118  	94.648033 
2584.657542  	94.642214 
2585.621967  	94.732955 
2586.586391  	94.726633 
2587.550815  	94.707615 
2588.515240  	94.710893 
2589.479664  	94.680519 
2590.444089  	94.638177 
2591.408513  	94.652915 
2592.372938  	94.692745 
2593.337362  	94.680333 
2594.301787  	94.627215 
2595.266211  	94.649775 
2596.230636  	94.700688 
2597.195060  	94.725662 
2598.159484  	94.742021 
2599.123909  	94.749963 
2600.088333  	94.744916 
2601.052758  	94.700258 
2602.017182  	94.693803 
2602.981607  	94.675361 
2603.946031  	94.683306 
2604.910456  	94.709260 
2605.874880  	94.695483 
2606.839305  	94.705004 
2607.803729  	94.729830 
2608.768153  	94.718429 
2609.732578  	94.683646 
2610.697002  	94.645746 
2611.661427  	94.636284 
2612.625851  	94.671648 
2613.590276  	94.703333 
2614.554700  	94.691838 
2615.519125  	94.693535 
2616.483549  	94.672109 
2617.447974  	94.641905 
2618.412398  	94.674155 
2619.376822  	94.716862 
2620.341247  	94.713374 
2621.305671  	94.676108 
2622.270096  	94.663549 
2623.234520  	94.666222 
2624.198945  	94.649547 
2625.163369  	94.692218 
2626.127794  	94.688910 
2627.092218  	94.669655 
2628.056643  	94.657958 
2629.021067  	94.631403 
2629.985492  	94.651200 
2630.949916  	94.703083 
2631.914340  	94.676462 
2632.878765  	94.665053 
2633.843189  	94.687230 
2634.807614  	94.664861 
2635.772038  	94.656760 
2636.736463  	94.652004 
2637.700887  	94.660849 
2638.665312  	94.652606 
2639.629736  	94.650901 
2640.594161  	94.690267 
2641.558585  	94.727194 
2642.523009  	94.720422 
2643.487434  	94.720100 
2644.451858  	94.736825 
2645.416283  	94.718695 
2646.380707  	94.719347 
2647.345132  	94.696039 
2648.309556  	94.692666 
2649.273981  	94.721896 
2650.238405  	94.751142 
2651.202830  	94.767707 
2652.167254  	94.732815 
2653.131678  	94.718306 
2654.096103  	94.738936 
2655.060527  	94.754961 
2656.024952  	94.738546 
2656.989376  	94.713292 
2657.953801  	94.693136 
2658.918225  	94.700410 
2659.882650  	94.713097 
2660.847074  	94.734424 
2661.811499  	94.762064 
2662.775923  	94.785136 
2663.740347  	94.811249 
2664.704772  	94.797692 
2665.669196  	94.806821 
2666.633621  	94.808025 
2667.598045  	94.798235 
2668.562470  	94.786494 
2669.526894  	94.797146 
2670.491319  	94.778581 
2671.455743  	94.793204 
2672.420168  	94.810618 
2673.384592  	94.812155 
2674.349016  	94.804465 
2675.313441  	94.805058 
2676.277865  	94.830737 
2677.242290  	94.824107 
2678.206714  	94.809294 
2679.171139  	94.804561 
2680.135563  	94.772296 
2681.099988  	94.782489 
2682.064412  	94.817684 
2683.028837  	94.813654 
2683.993261  	94.788542 
2684.957686  	94.781024 
2685.922110  	94.798991 
2686.886534  	94.797880 
2687.850959  	94.786484 
2688.815383  	94.808487 
2689.779808  	94.830617 
2690.744232  	94.816417 
2691.708657  	94.801419 
2692.673081  	94.812484 
2693.637506  	94.815882 
2694.601930  	94.816330 
2695.566355  	94.840452 
2696.530779  	94.827668 
2697.495203  	94.804084 
2698.459628  	94.817319 
2699.424052  	94.819844 
2700.388477  	94.774586 
2701.352901  	94.744418 
2702.317326  	94.773451 
2703.281750  	94.800142 
2704.246175  	94.811795 
2705.210599  	94.780632 
2706.175024  	94.768798 
2707.139448  	94.772288 
2708.103872  	94.747258 
2709.068297  	94.764096 
2710.032721  	94.774510 
2710.997146  	94.761503 
2711.961570  	94.777493 
2712.925995  	94.816616 
2713.890419  	94.811471 
2714.854844  	94.787573 
2715.819268  	94.816770 
2716.783693  	94.829873 
2717.748117  	94.801629 
2718.712541  	94.791509 
2719.676966  	94.791244 
2720.641390  	94.800596 
2721.605815  	94.812705 
2722.570239  	94.796917 
2723.534664  	94.799773 
2724.499088  	94.780489 
2725.463513  	94.752119 
2726.427937  	94.747138 
2727.392362  	94.760066 
2728.356786  	94.769100 
2729.321210  	94.735734 
2730.285635  	94.742208 
2731.250059  	94.750422 
2732.214484  	94.739419 
2733.178908  	94.737361 
2734.143333  	94.760379 
2735.107757  	94.751496 
2736.072182  	94.740332 
2737.036606  	94.758939 
2738.001031  	94.746932 
2738.965455  	94.729287 
2739.929879  	94.721166 
2740.894304  	94.738264 
2741.858728  	94.744461 
2742.823153  	94.725475 
2743.787577  	94.706240 
2744.752002  	94.703417 
2745.716426  	94.676041 
2746.680851  	94.656581 
2747.645275  	94.677538 
2748.609700  	94.690631 
2749.574124  	94.707674 
2750.538549  	94.716467 
2751.502973  	94.698920 
2752.467397  	94.707616 
2753.431822  	94.697811 
2754.396246  	94.695893 
2755.360671  	94.712428 
2756.325095  	94.729836 
2757.289520  	94.699090 
2758.253944  	94.694687 
2759.218369  	94.709080 
2760.182793  	94.682167 
2761.147218  	94.663347 
2762.111642  	94.673589 
2763.076066  	94.697356 
2764.040491  	94.707930 
2765.004915  	94.708450 
2765.969340  	94.699735 
2766.933764  	94.693791 
2767.898189  	94.677191 
2768.862613  	94.684174 
2769.827038  	94.681838 
2770.791462  	94.670911 
2771.755887  	94.659796 
2772.720311  	94.652754 
2773.684735  	94.662359 
2774.649160  	94.657796 
2775.613584  	94.656974 
2776.578009  	94.633682 
2777.542433  	94.626941 
2778.506858  	94.650925 
2779.471282  	94.660523 
2780.435707  	94.648237 
2781.400131  	94.632478 
2782.364556  	94.645362 
2783.328980  	94.642040 
2784.293404  	94.605600 
2785.257829  	94.638369 
2786.222253  	94.658532 
2787.186678  	94.646074 
2788.151102  	94.628927 
2789.115527  	94.660284 
2790.079951  	94.653967 
2791.044376  	94.636369 
2792.008800  	94.619918 
2792.973225  	94.584681 
2793.937649  	94.593446 
2794.902073  	94.590423 
2795.866498  	94.571563 
2796.830922  	94.584930 
2797.795347  	94.599725 
2798.759771  	94.581023 
2799.724196  	94.508948 
2800.688620  	94.484849 
2801.653045  	94.493575 
2802.617469  	94.512845 
2803.581894  	94.560028 
2804.546318  	94.578743 
2805.510743  	94.545429 
2806.475167  	94.521864 
2807.439591  	94.515140 
2808.404016  	94.517262 
2809.368440  	94.520867 
2810.332865  	94.529621 
2811.297289  	94.499072 
2812.261714  	94.485442 
2813.226138  	94.521426 
2814.190563  	94.520707 
2815.154987  	94.507616 
2816.119412  	94.511869 
2817.083836  	94.502589 
2818.048260  	94.500437 
2819.012685  	94.505152 
2819.977109  	94.548662 
2820.941534  	94.565386 
2821.905958  	94.546654 
2822.870383  	94.500413 
2823.834807  	94.495579 
2824.799232  	94.486876 
2825.763656  	94.501505 
2826.728081  	94.518296 
2827.692505  	94.508957 
2828.656929  	94.508010 
2829.621354  	94.513652 
2830.585778  	94.485250 
2831.550203  	94.459229 
2832.514627  	94.453985 
2833.479052  	94.452653 
2834.443476  	94.464876 
2835.407901  	94.486682 
2836.372325  	94.496150 
2837.336750  	94.475955 
2838.301174  	94.420868 
2839.265598  	94.376514 
2840.230023  	94.351019 
2841.194447  	94.349245 
2842.158872  	94.300665 
2843.123296  	94.221533 
2844.087721  	94.152808 
2845.052145  	94.098366 
2846.016570  	94.033554 
2846.980994  	93.962537 
2847.945419  	93.872638 
2848.909843  	93.778467 
2849.874267  	93.704251 
2850.838692  	93.689511 
2851.803116  	93.719574 
2852.767541  	93.748419 
2853.731965  	93.793300 
2854.696390  	93.849352 
2855.660814  	93.895311 
2856.625239  	93.963669 
2857.589663  	94.001749 
2858.554088  	94.009208 
2859.518512  	94.025278 
2860.482936  	94.068396 
2861.447361  	94.063109 
2862.411785  	94.063066 
2863.376210  	94.092972 
2864.340634  	94.081287 
2865.305059  	94.039684 
2866.269483  	94.055033 
2867.233908  	94.053887 
2868.198332  	94.048820 
2869.162757  	94.044612 
2870.127181  	94.066286 
2871.091606  	94.082972 
2872.056030  	94.061026 
2873.020454  	94.074658 
2873.984879  	94.096256 
2874.949303  	94.036065 
2875.913728  	94.016563 
2876.878152  	94.038229 
2877.842577  	94.033913 
2878.807001  	94.026765 
2879.771426  	94.021856 
2880.735850  	93.963083 
2881.700275  	93.939116 
2882.664699  	93.912246 
2883.629123  	93.879895 
2884.593548  	93.876445 
2885.557972  	93.901869 
2886.522397  	93.890471 
2887.486821  	93.878609 
2888.451246  	93.824634 
2889.415670  	93.797188 
2890.380095  	93.785544 
2891.344519  	93.777218 
2892.308944  	93.786796 
2893.273368  	93.778634 
2894.237792  	93.749048 
2895.202217  	93.683872 
2896.166641  	93.662552 
2897.131066  	93.657463 
2898.095490  	93.662748 
2899.059915  	93.643404 
2900.024339  	93.570018 
2900.988764  	93.521469 
2901.953188  	93.476127 
2902.917613  	93.421087 
2903.882037  	93.348601 
2904.846461  	93.284848 
2905.810886  	93.237199 
2906.775310  	93.200646 
2907.739735  	93.128987 
2908.704159  	93.089883 
2909.668584  	93.084458 
2910.633008  	93.077384 
2911.597433  	93.097114 
2912.561857  	93.105721 
2913.526282  	93.095294 
2914.490706  	93.066057 
2915.455130  	93.028969 
2916.419555  	93.011798 
2917.383979  	93.008810 
2918.348404  	92.982513 
2919.312828  	92.980041 
2920.277253  	93.009130 
2921.241677  	93.037406 
2922.206102  	93.119081 
2923.170526  	93.170428 
2924.134951  	93.186694 
2925.099375  	93.217010 
2926.063800  	93.300538 
2927.028224  	93.374174 
2927.992648  	93.406267 
2928.957073  	93.460287 
2929.921497  	93.478531 
2930.885922  	93.482233 
2931.850346  	93.524315 
2932.814771  	93.560667 
2933.779195  	93.564597 
2934.743620  	93.564362 
2935.708044  	93.583282 
2936.672469  	93.608687 
2937.636893  	93.636056 
2938.601317  	93.618857 
2939.565742  	93.607107 
2940.530166  	93.624446 
2941.494591  	93.602117 
2942.459015  	93.543428 
2943.423440  	93.492246 
2944.387864  	93.445905 
2945.352289  	93.420610 
2946.316713  	93.401681 
2947.281138  	93.393118 
2948.245562  	93.352953 
2949.209986  	93.259132 
2950.174411  	93.154193 
2951.138835  	93.122405 
2952.103260  	93.073408 
2953.067684  	92.992073 
2954.032109  	92.935051 
2954.996533  	92.902196 
2955.960958  	92.834838 
2956.925382  	92.762640 
2957.889807  	92.717772 
2958.854231  	92.658042 
2959.818655  	92.599401 
2960.783080  	92.535284 
2961.747504  	92.478790 
2962.711929  	92.497982 
2963.676353  	92.463582 
2964.640778  	92.357014 
2965.605202  	92.246336 
2966.569627  	92.173479 
2967.534051  	92.202044 
2968.498476  	92.279337 
2969.462900  	92.260898 
2970.427324  	92.235445 
2971.391749  	92.280512 
2972.356173  	92.323678 
2973.320598  	92.383763 
2974.285022  	92.442444 
2975.249447  	92.490954 
2976.213871  	92.570957 
2977.178296  	92.633116 
2978.142720  	92.690275 
2979.107145  	92.763074 
2980.071569  	92.868709 
2981.035993  	92.918452 
2982.000418  	93.000431 
2982.964842  	93.107315 
2983.929267  	93.165898 
2984.893691  	93.208313 
2985.858116  	93.229552 
2986.822540  	93.288376 
2987.786965  	93.334857 
2988.751389  	93.314740 
2989.715814  	93.348619 
2990.680238  	93.417005 
2991.644663  	93.487599 
2992.609087  	93.511120 
2993.573511  	93.490143 
2994.537936  	93.506826 
2995.502360  	93.570913 
2996.466785  	93.600256 
2997.431209  	93.610129 
2998.395634  	93.609863 
2999.360058  	93.625003 
3000.324483  	93.679342 
3001.288907  	93.707387 
3002.253332  	93.685219 
3003.217756  	93.644237 
3004.182180  	93.575800 
3005.146605  	93.570662 
3006.111029  	93.635251 
3007.075454  	93.708681 
3008.039878  	93.763435 
3009.004303  	93.828938 
3009.968727  	93.810640 
3010.933152  	93.787228 
3011.897576  	93.779975 
3012.862001  	93.693508 
3013.826425  	93.793449 
3014.790849  	93.919819 
3015.755274  	93.898940 
3016.719698  	93.932079 
3017.684123  	94.019119 
3018.648547  	94.028448 
3019.612972  	94.012103 
3020.577396  	94.084875 
3021.541821  	94.151715 
3022.506245  	94.192652 
3023.470670  	94.231598 
3024.435094  	94.269684 
3025.399518  	94.252078 
3026.363943  	94.265364 
3027.328367  	94.300639 
3028.292792  	94.326848 
3029.257216  	94.367366 
3030.221641  	94.287440 
3031.186065  	94.162199 
3032.150490  	94.139875 
3033.114914  	94.278262 
3034.079339  	94.328006 
3035.043763  	94.299447 
3036.008187  	94.332264 
3036.972612  	94.371079 
3037.937036  	94.343755 
3038.901461  	94.309208 
3039.865885  	94.339843 
3040.830310  	94.379339 
3041.794734  	94.402431 
3042.759159  	94.405140 
3043.723583  	94.397514 
3044.688008  	94.395801 
3045.652432  	94.388817 
3046.616857  	94.335489 
3047.581281  	94.295001 
3048.545705  	94.202488 
3049.510130  	94.133460 
3050.474554  	94.144957 
3051.438979  	94.128038 
3052.403403  	94.080679 
3053.367828  	94.064008 
3054.332252  	94.003348 
3055.296677  	93.988404 
3056.261101  	93.900802 
3057.225526  	93.876516 
3058.189950  	94.030386 
3059.154374  	94.141032 
3060.118799  	94.168387 
3061.083223  	94.174849 
3062.047648  	94.193574 
3063.012072  	94.177328 
3063.976497  	94.068563 
3064.940921  	93.993765 
3065.905346  	94.078803 
3066.869770  	94.070442 
3067.834195  	94.013189 
3068.798619  	94.084167 
3069.763043  	94.131283 
3070.727468  	94.154475 
3071.691892  	94.183822 
3072.656317  	94.134252 
3073.620741  	94.082960 
3074.585166  	94.115116 
3075.549590  	94.160766 
3076.514015  	94.130334 
3077.478439  	94.072659 
3078.442864  	94.069235 
3079.407288  	94.077965 
3080.371712  	94.079094 
3081.336137  	94.117069 
3082.300561  	94.092428 
3083.264986  	94.145291 
3084.229410  	94.224589 
3085.193835  	94.207918 
3086.158259  	94.203402 
3087.122684  	94.169705 
3088.087108  	94.146871 
3089.051533  	94.189244 
3090.015957  	94.209398 
3090.980381  	94.254704 
3091.944806  	94.295542 
3092.909230  	94.333079 
3093.873655  	94.299839 
3094.838079  	94.283000 
3095.802504  	94.290243 
3096.766928  	94.270944 
3097.731353  	94.276572 
3098.695777  	94.257030 
3099.660202  	94.187972 
3100.624626  	94.117511 
3101.589050  	94.070810 
3102.553475  	94.107208 
3103.517899  	94.168234 
3104.482324  	94.230278 
3105.446748  	94.224737 
3106.411173  	94.208202 
3107.375597  	94.203565 
3108.340022  	94.225493 
3109.304446  	94.294372 
3110.268871  	94.287480 
3111.233295  	94.255430 
3112.197720  	94.262317 
3113.162144  	94.296593 
3114.126568  	94.343351 
3115.090993  	94.328397 
3116.055417  	94.263320 
3117.019842  	94.308441 
3117.984266  	94.330108 
3118.948691  	94.241482 
3119.913115  	94.358077 
3120.877540  	94.466697 
3121.841964  	94.384101 
3122.806389  	94.294678 
3123.770813  	94.352706 
3124.735237  	94.378230 
3125.699662  	94.343714 
3126.664086  	94.314066 
3127.628511  	94.386938 
3128.592935  	94.444629 
3129.557360  	94.402783 
3130.521784  	94.359242 
3131.486209  	94.379905 
3132.450633  	94.386393 
3133.415058  	94.311739 
3134.379482  	94.387269 
3135.343906  	94.465537 
3136.308331  	94.471698 
3137.272755  	94.436850 
3138.237180  	94.451870 
3139.201604  	94.487757 
3140.166029  	94.509485 
3141.130453  	94.539730 
3142.094878  	94.485047 
3143.059302  	94.430390 
3144.023727  	94.500743 
3144.988151  	94.580815 
3145.952575  	94.528745 
3146.917000  	94.473987 
3147.881424  	94.572836 
3148.845849  	94.676333 
3149.810273  	94.632069 
3150.774698  	94.583565 
3151.739122  	94.557968 
3152.703547  	94.547533 
3153.667971  	94.587952 
3154.632396  	94.623227 
3155.596820  	94.629147 
3156.561244  	94.566053 
3157.525669  	94.559657 
3158.490093  	94.571481 
3159.454518  	94.592664 
3160.418942  	94.583761 
3161.383367  	94.556953 
3162.347791  	94.551002 
3163.312216  	94.521471 
3164.276640  	94.536272 
3165.241065  	94.611814 
3166.205489  	94.643445 
3167.169914  	94.625834 
3168.134338  	94.555153 
3169.098762  	94.514927 
3170.063187  	94.514714 
3171.027611  	94.506039 
3171.992036  	94.548232 
3172.956460  	94.577240 
3173.920885  	94.524756 
3174.885309  	94.524836 
3175.849734  	94.553792 
3176.814158  	94.556844 
3177.778583  	94.481732 
3178.743007  	94.441451 
3179.707431  	94.478965 
3180.671856  	94.550834 
3181.636280  	94.594634 
3182.600705  	94.595478 
3183.565129  	94.536870 
3184.529554  	94.508217 
3185.493978  	94.514961 
3186.458403  	94.537761 
3187.422827  	94.535344 
3188.387252  	94.503318 
3189.351676  	94.546773 
3190.316100  	94.596962 
3191.280525  	94.593644 
3192.244949  	94.588079 
3193.209374  	94.595847 
3194.173798  	94.562539 
3195.138223  	94.532732 
3196.102647  	94.463309 
3197.067072  	94.434719 
3198.031496  	94.484100 
3198.995921  	94.590303 
3199.960345  	94.601723 
3200.924769  	94.585525 
3201.889194  	94.618081 
3202.853618  	94.625718 
3203.818043  	94.560775 
3204.782467  	94.528891 
3205.746892  	94.560156 
3206.711316  	94.546821 
3207.675741  	94.552943 
3208.640165  	94.537659 
3209.604590  	94.515494 
3210.569014  	94.523522 
3211.533438  	94.563494 
3212.497863  	94.539378 
3213.462287  	94.458239 
3214.426712  	94.394959 
3215.391136  	94.479626 
3216.355561  	94.547782 
3217.319985  	94.578285 
3218.284410  	94.572221 
3219.248834  	94.511577 
3220.213259  	94.537834 
3221.177683  	94.620078 
3222.142107  	94.549988 
3223.106532  	94.518275 
3224.070956  	94.563009 
3225.035381  	94.559773 
3225.999805  	94.560884 
3226.964230  	94.515328 
3227.928654  	94.442288 
3228.893079  	94.504224 
3229.857503  	94.573751 
3230.821928  	94.580391 
3231.786352  	94.573902 
3232.750777  	94.530227 
3233.715201  	94.478515 
3234.679625  	94.505144 
3235.644050  	94.517350 
3236.608474  	94.508225 
3237.572899  	94.527993 
3238.537323  	94.577781 
3239.501748  	94.577136 
3240.466172  	94.529565 
3241.430597  	94.587485 
3242.395021  	94.596444 
3243.359446  	94.550857 
3244.323870  	94.522623 
3245.288294  	94.405236 
3246.252719  	94.429248 
3247.217143  	94.557879 
3248.181568  	94.534760 
3249.145992  	94.494054 
3250.110417  	94.545089 
3251.074841  	94.545422 
3252.039266  	94.517005 
3253.003690  	94.531441 
3253.968115  	94.451588 
3254.932539  	94.407973 
3255.896963  	94.439648 
3256.861388  	94.439833 
3257.825812  	94.507889 
3258.790237  	94.525374 
3259.754661  	94.546386 
3260.719086  	94.562359 
3261.683510  	94.563783 
3262.647935  	94.533971 
3263.612359  	94.541265 
3264.576784  	94.582235 
3265.541208  	94.581213 
3266.505632  	94.614359 
3267.470057  	94.623663 
3268.434481  	94.604032 
3269.398906  	94.576390 
3270.363330  	94.524345 
3271.327755  	94.507436 
3272.292179  	94.509735 
3273.256604  	94.471886 
3274.221028  	94.381952 
3275.185453  	94.466849 
3276.149877  	94.500166 
3277.114301  	94.434452 
3278.078726  	94.483949 
3279.043150  	94.477073 
3280.007575  	94.447486 
3280.971999  	94.491272 
3281.936424  	94.559085 
3282.900848  	94.486206 
3283.865273  	94.388294 
3284.829697  	94.441071 
3285.794122  	94.498399 
3286.758546  	94.535423 
3287.722971  	94.518919 
3288.687395  	94.477496 
3289.651819  	94.495245 
3290.616244  	94.499278 
3291.580668  	94.411497 
3292.545093  	94.351893 
3293.509517  	94.395918 
3294.473942  	94.448380 
3295.438366  	94.418466 
3296.402791  	94.431172 
3297.367215  	94.413146 
3298.331640  	94.394809 
3299.296064  	94.435569 
3300.260488  	94.522204 
3301.224913  	94.562995 
3302.189337  	94.530287 
3303.153762  	94.478076 
3304.118186  	94.487207 
3305.082611  	94.499804 
3306.047035  	94.493768 
3307.011460  	94.513181 
3307.975884  	94.453768 
3308.940309  	94.327420 
3309.904733  	94.345930 
3310.869157  	94.388531 
3311.833582  	94.449227 
3312.798006  	94.488651 
3313.762431  	94.463677 
3314.726855  	94.474326 
3315.691280  	94.499094 
3316.655704  	94.472521 
3317.620129  	94.433160 
3318.584553  	94.438961 
3319.548978  	94.440851 
3320.513402  	94.469551 
3321.477826  	94.510132 
3322.442251  	94.513093 
3323.406675  	94.529625 
3324.371100  	94.532681 
3325.335524  	94.452882 
3326.299949  	94.472332 
3327.264373  	94.453254 
3328.228798  	94.390848 
3329.193222  	94.357906 
3330.157647  	94.355524 
3331.122071  	94.410846 
3332.086495  	94.465884 
3333.050920  	94.460635 
3334.015344  	94.411610 
3334.979769  	94.319915 
3335.944193  	94.325746 
3336.908618  	94.263156 
3337.873042  	94.307247 
3338.837467  	94.442994 
3339.801891  	94.427742 
3340.766316  	94.447028 
3341.730740  	94.410456 
3342.695164  	94.378976 
3343.659589  	94.461838 
3344.624013  	94.579241 
3345.588438  	94.615708 
3346.552862  	94.554812 
3347.517287  	94.478318 
3348.481711  	94.456201 
3349.446136  	94.509896 
3350.410560  	94.567212 
3351.374985  	94.616306 
3352.339409  	94.605440 
3353.303834  	94.539075 
3354.268258  	94.547956 
3355.232682  	94.542299 
3356.197107  	94.405762 
3357.161531  	94.432302 
3358.125956  	94.536041 
3359.090380  	94.513101 
3360.054805  	94.365255 
3361.019229  	94.284558 
3361.983654  	94.270467 
3362.948078  	94.423227 
3363.912503  	94.541880 
3364.876927  	94.451268 
3365.841351  	94.417478 
3366.805776  	94.433493 
3367.770200  	94.364846 
3368.734625  	94.323720 
3369.699049  	94.457805 
3370.663474  	94.571588 
3371.627898  	94.552057 
3372.592323  	94.466058 
3373.556747  	94.397652 
3374.521172  	94.409903 
3375.485596  	94.466022 
3376.450020  	94.476009 
3377.414445  	94.484919 
3378.378869  	94.505298 
3379.343294  	94.485082 
3380.307718  	94.458700 
3381.272143  	94.553373 
3382.236567  	94.524499 
3383.200992  	94.404580 
3384.165416  	94.279652 
3385.129841  	94.260632 
3386.094265  	94.327788 
3387.058689  	94.441020 
3388.023114  	94.509859 
3388.987538  	94.542352 
3389.951963  	94.506278 
3390.916387  	94.415058 
3391.880812  	94.286318 
3392.845236  	94.055683 
3393.809661  	94.098305 
3394.774085  	94.359931 
3395.738510  	94.446841 
3396.702934  	94.397053 
3397.667358  	94.214678 
3398.631783  	94.365502 
3399.596207  	94.548935 
3400.560632  	94.461261 
3401.525056  	94.341283 
3402.489481  	94.408815 
3403.453905  	94.398889 
3404.418330  	94.318051 
3405.382754  	94.304532 
3406.347179  	94.340544 
3407.311603  	94.355794 
3408.276028  	94.328198 
3409.240452  	94.245549 
3410.204876  	94.189156 
3411.169301  	94.218685 
3412.133725  	94.298153 
3413.098150  	94.331433 
3414.062574  	94.288789 
3415.026999  	94.205832 
3415.991423  	94.080289 
3416.955848  	94.067897 
3417.920272  	94.037317 
3418.884697  	93.961167 
3419.849121  	93.742603 
3420.813545  	93.442135 
3421.777970  	93.438137 
3422.742394  	93.559791 
3423.706819  	93.702048 
3424.671243  	93.832782 
3425.635668  	93.868866 
3426.600092  	93.868194 
3427.564517  	93.857821 
3428.528941  	93.850958 
3429.493366  	93.813434 
3430.457790  	93.783777 
3431.422214  	93.744278 
3432.386639  	93.770748 
3433.351063  	93.867904 
3434.315488  	93.981605 
3435.279912  	93.966834 
3436.244337  	93.919014 
3437.208761  	93.869891 
3438.173186  	93.866301 
3439.137610  	93.906876 
3440.102035  	93.996905 
3441.066459  	94.050138 
3442.030883  	93.912382 
3442.995308  	93.672061 
3443.959732  	93.821651 
3444.924157  	93.894699 
3445.888581  	93.841610 
3446.853006  	93.421036 
3447.817430  	93.080202 
3448.781855  	93.753157 
3449.746279  	94.133052 
3450.710704  	94.135547 
3451.675128  	94.101557 
3452.639552  	94.162374 
3453.603977  	94.153618 
3454.568401  	94.170369 
3455.532826  	94.193237 
3456.497250  	94.178698 
3457.461675  	94.153480 
3458.426099  	94.191663 
3459.390524  	94.241977 
3460.354948  	94.249706 
3461.319373  	94.049489 
3462.283797  	93.939016 
3463.248221  	93.924143 
3464.212646  	94.141519 
3465.177070  	94.262976 
3466.141495  	94.250259 
3467.105919  	93.969962 
3468.070344  	94.055812 
3469.034768  	94.303137 
3469.999193  	94.294590 
3470.963617  	94.249175 
3471.928042  	94.299478 
3472.892466  	94.283283 
3473.856891  	94.255763 
3474.821315  	94.106733 
3475.785739  	94.127487 
3476.750164  	94.331123 
3477.714588  	94.426055 
3478.679013  	94.432417 
3479.643437  	94.304476 
3480.607862  	93.912898 
3481.572286  	93.768278 
3482.536711  	93.657638 
3483.501135  	93.958782 
3484.465560  	94.266147 
3485.429984  	94.186638 
3486.394408  	94.168604 
3487.358833  	94.138950 
3488.323257  	93.826875 
3489.287682  	93.948258 
3490.252106  	94.274488 
3491.216531  	94.233333 
3492.180955  	94.235977 
3493.145380  	94.345936 
3494.109804  	94.482680 
3495.074229  	94.375964 
3496.038653  	94.041081 
3497.003077  	93.861582 
3497.967502  	94.087195 
3498.931926  	94.251698 
3499.896351  	94.124012 
3500.860775  	94.024362 
3501.825200  	93.670706 
3502.789624  	93.138390 
3503.754049  	92.995298 
3504.718473  	93.391399 
3505.682898  	93.805835 
3506.647322  	94.126081 
3507.611746  	94.252518 
3508.576171  	93.994076 
3509.540595  	93.262549 
3510.505020  	93.373853 
3511.469444  	93.943124 
3512.433869  	94.100952 
3513.398293  	94.134967 
3514.362718  	94.230719 
3515.327142  	94.412272 
3516.291567  	94.379770 
3517.255991  	94.177415 
3518.220415  	94.041548 
3519.184840  	94.002313 
3520.149264  	94.049455 
3521.113689  	94.194132 
3522.078113  	93.963132 
3523.042538  	93.044710 
3524.006962  	92.622517 
3524.971387  	93.138233 
3525.935811  	93.360901 
3526.900236  	93.235665 
3527.864660  	92.991936 
3528.829085  	93.094915 
3529.793509  	93.349967 
3530.757933  	93.666114 
3531.722358  	93.694051 
3532.686782  	94.026575 
3533.651207  	94.271735 
3534.615631  	94.257813 
3535.580056  	93.940729 
3536.544480  	93.208847 
3537.508905  	93.395762 
3538.473329  	94.068816 
3539.437754  	94.046147 
3540.402178  	94.018627 
3541.366602  	94.067453 
3542.331027  	94.102298 
3543.295451  	93.772644 
3544.259876  	93.263981 
3545.224300  	92.300440 
3546.188725  	92.074901 
3547.153149  	92.233730 
3548.117574  	92.687333 
3549.081998  	93.589394 
3550.046423  	93.895119 
3551.010847  	93.792713 
3551.975271  	93.111304 
3552.939696  	92.705638 
3553.904120  	93.148224 
3554.868545  	93.640162 
3555.832969  	94.061970 
3556.797394  	94.030917 
3557.761818  	94.029004 
3558.726243  	94.129822 
3559.690667  	93.702971 
3560.655092  	93.052328 
3561.619516  	93.452386 
3562.583940  	93.563311 
3563.548365  	93.413101 
3564.512789  	93.289368 
3565.477214  	92.382813 
3566.441638  	89.886403 
3567.406063  	89.659848 
3568.370487  	90.194035 
3569.334912  	91.835365 
3570.299336  	93.235577 
3571.263761  	93.486351 
3572.228185  	93.864278 
3573.192609  	93.909674 
3574.157034  	93.785307 
3575.121458  	93.746845 
3576.085883  	93.925483 
3577.050307  	93.815731 
3578.014732  	93.800974 
3578.979156  	93.927307 
3579.943581  	93.538040 
3580.908005  	93.426820 
3581.872430  	93.825873 
3582.836854  	93.864842 
3583.801278  	93.745969 
3584.765703  	93.765923 
3585.730127  	93.382228 
3586.694552  	91.578173 
3587.658976  	90.374131 
3588.623401  	90.785292 
3589.587825  	91.891091 
3590.552250  	93.429106 
3591.516674  	93.891391 
3592.481099  	93.818519 
3593.445523  	92.987638 
3594.409948  	92.950605 
3595.374372  	92.586089 
3596.338796  	92.365047 
3597.303221  	93.342675 
3598.267645  	93.436095 
3599.232070  	93.020123 
3600.196494  	93.081143 
3601.160919  	92.827044 
3602.125343  	93.174825 
3603.089768  	93.508972 
3604.054192  	93.825684 
3605.018617  	94.083525 
3605.983041  	93.892657 
3606.947465  	92.600734 
3607.911890  	91.847809 
3608.876314  	92.279085 
3609.840739  	91.812998 
3610.805163  	92.842564 
3611.769588  	93.146307 
3612.734012  	91.830151 
3613.698437  	91.687281 
3614.662861  	92.021262 
3615.627286  	92.089087 
3616.591710  	93.192534 
3617.556134  	92.712387 
3618.520559  	91.682183 
3619.484983  	91.711985 
3620.449408  	91.644541 
3621.413832  	92.327417 
3622.378257  	93.185148 
3623.342681  	93.715907 
3624.307106  	93.920325 
3625.271530  	93.887843 
3626.235955  	93.281788 
3627.200379  	92.944204 
3628.164803  	92.086517 
3629.129228  	89.043755 
3630.093652  	89.312728 
3631.058077  	92.046993 
3632.022501  	93.271020 
3632.986926  	93.468861 
3633.951350  	92.728222 
3634.915775  	93.008312 
3635.880199  	93.814463 
3636.844624  	93.986038 
3637.809048  	93.792958 
3638.773472  	93.632705 
3639.737897  	93.921524 
3640.702321  	93.985044 
3641.666746  	93.674885 
3642.631170  	93.197306 
3643.595595  	93.430232 
3644.560019  	93.797751 
3645.524444  	93.522439 
3646.488868  	92.482279 
3647.453293  	90.462144 
3648.417717  	90.397893 
3649.382142  	90.304703 
3650.346566  	89.385124 
3651.310990  	89.549231 
3652.275415  	91.704763 
3653.239839  	93.325829 
3654.204264  	93.839737 
3655.168688  	93.802233 
3656.133113  	92.869105 
3657.097537  	92.286775 
3658.061962  	93.543372 
3659.026386  	93.968067 
3659.990811  	93.780645 
3660.955235  	93.910297 
3661.919659  	94.242466 
3662.884084  	94.297510 
3663.848508  	94.265771 
3664.812933  	94.214369 
3665.777357  	94.244543 
3666.741782  	94.242490 
3667.706206  	94.157815 
3668.670631  	93.165621 
3669.635055  	91.792979 
3670.599480  	91.196751 
3671.563904  	91.508269 
3672.528328  	93.220225 
3673.492753  	93.709869 
3674.457177  	92.539445 
3675.421602  	89.405775 
3676.386026  	89.536026 
3677.350451  	91.645109 
3678.314875  	92.758962 
3679.279300  	92.917856 
3680.243724  	92.901178 
3681.208149  	93.823366 
3682.172573  	94.294231 
3683.136997  	94.279689 
3684.101422  	94.111469 
3685.065846  	93.981456 
3686.030271  	94.144974 
3686.994695  	94.066813 
3687.959120  	93.376540 
3688.923544  	91.870451 
3689.887969  	92.293486 
3690.852393  	92.102867 
3691.816818  	91.709237 
3692.781242  	93.310158 
3693.745666  	93.956554 
3694.710091  	94.048931 
3695.674515  	94.190386 
3696.638940  	94.076760 
3697.603364  	94.165063 
3698.567789  	94.445609 
3699.532213  	94.367848 
3700.496638  	94.324209 
3701.461062  	93.601113 
3702.425487  	92.763329 
3703.389911  	93.808543 
3704.354335  	94.444115 
3705.318760  	94.297712 
3706.283184  	94.190359 
3707.247609  	94.250735 
3708.212033  	94.274525 
3709.176458  	93.664221 
3710.140882  	92.646677 
3711.105307  	92.383256 
3712.069731  	91.450194 
3713.034156  	91.198843 
3713.998580  	92.900818 
3714.963005  	93.250131 
3715.927429  	93.601300 
3716.891853  	94.274578 
3717.856278  	94.374212 
3718.820702  	93.699640 
3719.785127  	93.286982 
3720.749551  	93.944399 
3721.713976  	93.613253 
3722.678400  	92.028642 
3723.642825  	92.547563 
3724.607249  	93.161233 
3725.571674  	92.428422 
3726.536098  	92.121801 
3727.500522  	92.400275 
3728.464947  	93.554651 
3729.429371  	94.273306 
3730.393796  	94.210096 
3731.358220  	93.806181 
3732.322645  	92.813290 
3733.287069  	92.641074 
3734.251494  	92.245777 
3735.215918  	88.836809 
3736.180343  	88.893960 
3737.144767  	90.818732 
3738.109191  	92.052720 
3739.073616  	92.563147 
3740.038040  	93.194339 
3741.002465  	92.900163 
3741.966889  	92.834983 
3742.931314  	93.463568 
3743.895738  	92.784286 
3744.860163  	89.022677 
3745.824587  	90.700681 
3746.789012  	92.319535 
3747.753436  	92.527727 
3748.717860  	92.483563 
3749.682285  	91.754273 
3750.646709  	91.240900 
3751.611134  	91.367786 
3752.575558  	90.208458 
3753.539983  	91.575649 
3754.504407  	92.950731 
3755.468832  	93.720363 
3756.433256  	93.471379 
3757.397681  	93.242633 
3758.362105  	93.460355 
3759.326529  	92.586062 
3760.290954  	91.963072 
3761.255378  	93.532349 
3762.219803  	94.124209 
3763.184227  	94.179999 
3764.148652  	94.198738 
3765.113076  	93.832075 
3766.077501  	92.823354 
3767.041925  	93.408757 
3768.006350  	94.114326 
3768.970774  	93.934438 
3769.935199  	92.887560 
3770.899623  	92.768769 
3771.864047  	93.713228 
3772.828472  	94.213335 
3773.792896  	94.397296 
3774.757321  	94.489997 
3775.721745  	94.556466 
3776.686170  	94.615306 
3777.650594  	94.479379 
3778.615019  	94.059982 
3779.579443  	93.197349 
3780.543868  	93.168022 
3781.508292  	94.119462 
3782.472716  	94.267689 
3783.437141  	94.286491 
3784.401565  	93.954072 
3785.365990  	93.353759 
3786.330414  	93.725297 
3787.294839  	94.183295 
3788.259263  	94.393065 
3789.223688  	94.419926 
3790.188112  	94.441691 
3791.152537  	94.559096 
3792.116961  	94.596556 
3793.081385  	94.613239 
3794.045810  	94.534013 
3795.010234  	94.353750 
3795.974659  	93.882365 
3796.939083  	92.943578 
3797.903508  	93.128457 
3798.867932  	93.753184 
3799.832357  	93.901642 
3800.796781  	92.980252 
3801.761206  	91.255628 
3802.725630  	91.644566 
3803.690054  	92.928020 
3804.654479  	93.919903 
3805.618903  	94.112862 
3806.583328  	93.538464 
3807.547752  	92.548759 
3808.512177  	93.528612 
3809.476601  	94.199520 
3810.441026  	94.298337 
3811.405450  	94.413945 
3812.369875  	94.534146 
3813.334299  	94.550704 
3814.298723  	94.373311 
3815.263148  	93.812061 
3816.227572  	92.283968 
3817.191997  	92.382954 
3818.156421  	93.571304 
3819.120846  	93.633641 
3820.085270  	92.945748 
3821.049695  	91.314749 
3822.014119  	90.851415 
3822.978544  	92.696555 
3823.942968  	93.546923 
3824.907392  	93.800844 
3825.871817  	93.779337 
3826.836241  	93.225700 
3827.800666  	93.214699 
3828.765090  	93.919060 
3829.729515  	94.313274 
3830.693939  	94.240201 
3831.658364  	93.416982 
3832.622788  	93.168521 
3833.587213  	93.984777 
3834.551637  	93.765026 
3835.516062  	92.805928 
3836.480486  	93.338286 
3837.444910  	93.249048 
3838.409335  	91.706545 
3839.373759  	92.062322 
3840.338184  	91.807691 
3841.302608  	91.722812 
3842.267033  	93.128435 
3843.231457  	93.450884 
3844.195882  	92.535910 
3845.160306  	93.298319 
3846.124731  	94.141804 
3847.089155  	94.316356 
3848.053579  	94.357936 
3849.018004  	94.134829 
3849.982428  	93.529677 
3850.946853  	93.514182 
3851.911277  	92.802430 
3852.875702  	90.868135 
3853.840126  	90.141914 
3854.804551  	90.114952 
3855.768975  	92.373202 
3856.733400  	92.880973 
3857.697824  	92.401343 
3858.662248  	93.444275 
3859.626673  	94.252533 
3860.591097  	94.265045 
3861.555522  	93.604605 
3862.519946  	92.815383 
3863.484371  	93.205267 
3864.448795  	92.652191 
3865.413220  	91.375667 
3866.377644  	92.656661 
3867.342069  	93.944791 
3868.306493  	93.976599 
3869.270917  	92.661317 
3870.235342  	90.304679 
3871.199766  	91.492189 
3872.164191  	93.063361 
3873.128615  	93.607010 
3874.093040  	92.294605 
3875.057464  	91.971351 
3876.021889  	93.834279 
3876.986313  	94.451880 
3877.950738  	94.461196 
3878.915162  	94.297412 
3879.879586  	93.281468 
3880.844011  	91.112213 
3881.808435  	92.322779 
3882.772860  	93.637801 
3883.737284  	93.315252 
3884.701709  	93.253785 
3885.666133  	92.557183 
3886.630558  	91.858417 
3887.594982  	93.562000 
3888.559407  	94.299796 
3889.523831  	94.287334 
3890.488256  	93.866940 
3891.452680  	92.595026 
3892.417104  	92.309055 
3893.381529  	93.388501 
3894.345953  	93.412841 
3895.310378  	93.747383 
3896.274802  	94.331025 
3897.239227  	94.330871 
3898.203651  	93.618591 
3899.168076  	92.442419 
3900.132500  	92.052816 
3901.096925  	93.039331 
3902.061349  	91.820526 
3903.025773  	91.556924 
3903.990198  	92.267087 
3904.954622  	91.648024 
3905.919047  	91.919092 
3906.883471  	92.903221 
3907.847896  	94.078654 
3908.812320  	94.456686 
3909.776745  	94.498416 
3910.741169  	94.504503 
3911.705594  	94.494408 
3912.670018  	94.431648 
3913.634442  	94.421785 
3914.598867  	94.445628 
3915.563291  	94.306936 
3916.527716  	93.323134 
3917.492140  	92.336175 
3918.456565  	93.254904 
3919.420989  	93.794544 
3920.385414  	93.065241 
3921.349838  	93.535656 
3922.314263  	94.361890 
3923.278687  	94.050339 
3924.243111  	93.122572 
3925.207536  	92.521021 
3926.171960  	93.259630 
3927.136385  	94.244792 
3928.100809  	94.378432 
3929.065234  	94.119167 
3930.029658  	93.692657 
3930.994083  	93.463494 
3931.958507  	93.073287 
3932.922932  	92.535935 
3933.887356  	93.375008 
3934.851780  	93.968462 
3935.816205  	94.307637 
3936.780629  	94.467224 
3937.745054  	94.395111 
3938.709478  	94.209203 
3939.673903  	94.373855 
3940.638327  	94.452092 
3941.602752  	94.250233 
3942.567176  	93.240261 
3943.531601  	92.632773 
3944.496025  	93.590505 
3945.460449  	94.170383 
3946.424874  	94.341317 
3947.389298  	93.711432 
3948.353723  	93.206014 
3949.318147  	93.525101 
3950.282572  	93.231535 
3951.246996  	93.637343 
3952.211421  	94.366361 
3953.175845  	94.311841 
3954.140270  	94.366209 
3955.104694  	94.458778 
3956.069119  	94.367970 
3957.033543  	94.142188 
3957.997967  	94.156463 
3958.962392  	94.302301 
3959.926816  	94.310403 
3960.891241  	94.250731 
3961.855665  	93.823058 
3962.820090  	93.740594 
3963.784514  	94.320776 
3964.748939  	94.396306 
3965.713363  	94.460840 
3966.677788  	94.563141 
3967.642212  	94.543452 
3968.606636  	94.356339 
3969.571061  	94.137848 
3970.535485  	94.289557 
3971.499910  	94.454633 
3972.464334  	94.208669 
3973.428759  	94.293036 
3974.393183  	94.416237 
3975.357608  	94.182609 
3976.322032  	93.990783 
3977.286457  	94.208171 
3978.250881  	94.459494 
3979.215305  	94.507491 
3980.179730  	94.445984 
3981.144154  	94.420242 
3982.108579  	94.374967 
3983.073003  	94.399696 
3984.037428  	94.547416 
3985.001852  	94.565369 
3985.966277  	94.529490 
3986.930701  	94.549677 
3987.895126  	94.542582 
3988.859550  	94.519675 
3989.823974  	94.394868 
3990.788399  	94.154401 
3991.752823  	94.266469 
3992.717248  	94.498766 
3993.681672  	94.507318 
3994.646097  	94.368281 
3995.610521  	94.241154 
3996.574946  	94.451294 
3997.539370  	94.566820 
3998.503795  	94.561181 
3999.468219  	94.545073 
4000.432643  	94.594597 
4001.397068  	94.593309 
4002.361492  	94.584592 
4003.325917  	94.540277 
4004.290341  	94.564112 
4005.254766  	94.570310 
4006.219190  	94.540457 
4007.183615  	94.489875 
4008.148039  	94.398440 
4009.112464  	94.292183 
4010.076888  	94.438479 
4011.041313  	94.535774 
4012.005737  	94.545928 
4012.970161  	94.475450 
4013.934586  	94.491137 
4014.899010  	94.527638 
4015.863435  	94.493300 
4016.827859  	94.494712 
4017.792284  	94.502528 
4018.756708  	94.499015 
4019.721133  	94.433379 
4020.685557  	94.424583 
4021.649982  	94.489674 
4022.614406  	94.567506 
4023.578830  	94.591858 
4024.543255  	94.548437 
4025.507679  	94.422195 
4026.472104  	94.423617 
4027.436528  	94.541865 
4028.400953  	94.567103 
4029.365377  	94.539631 
4030.329802  	94.509240 
4031.294226  	94.520776 
4032.258651  	94.511968 
4033.223075  	94.556521 
4034.187499  	94.588751 
4035.151924  	94.587942 
4036.116348  	94.568894 
4037.080773  	94.594196 
4038.045197  	94.604995 
4039.009622  	94.574687 
4039.974046  	94.539916 
4040.938471  	94.560679 
4041.902895  	94.547141 
4042.867320  	94.568416 
4043.831744  	94.468916 
4044.796168  	94.359659 
4045.760593  	94.364363 
4046.725017  	94.487412 
4047.689442  	94.536299 
4048.653866  	94.519111 
4049.618291  	94.521407 
4050.582715  	94.535915 
4051.547140  	94.535995 
4052.511564  	94.540349 
4053.475989  	94.537100 
4054.440413  	94.525281 
4055.404837  	94.496919 
4056.369262  	94.544179 
4057.333686  	94.618363 
4058.298111  	94.582468 
4059.262535  	94.498186 
4060.226960  	94.491612 
4061.191384  	94.439888 
4062.155809  	94.476671 
4063.120233  	94.550571 
4064.084658  	94.585755 
4065.049082  	94.587565 
4066.013506  	94.559157 
4066.977931  	94.529270 
4067.942355  	94.518379 
4068.906780  	94.528110 
4069.871204  	94.539372 
4070.835629  	94.503696 
4071.800053  	94.501654 
4072.764478  	94.517334 
4073.728902  	94.528107 
4074.693327  	94.508386 
4075.657751  	94.501548 
4076.622176  	94.458790 
4077.586600  	94.435071 
4078.551024  	94.444732 
4079.515449  	94.442155 
4080.479873  	94.475548 
4081.444298  	94.499488 
4082.408722  	94.464002 
4083.373147  	94.431196 
4084.337571  	94.402649 
4085.301996  	94.427058 
4086.266420  	94.404350 
4087.230845  	94.359484 
4088.195269  	94.353073 
4089.159693  	94.387823 
4090.124118  	94.427204 
4091.088542  	94.426632 
4092.052967  	94.447857 
4093.017391  	94.445137 
4093.981816  	94.437100 
4094.946240  	94.475524 
4095.910665  	94.487946 
4096.875089  	94.508038 
4097.839514  	94.477558 
4098.803938  	94.417571 
4099.768362  	94.413167 
4100.732787  	94.445614 
4101.697211  	94.457181 
4102.661636  	94.466429 
4103.626060  	94.502047 
4104.590485  	94.466907 
4105.554909  	94.362324 
4106.519334  	94.365164 
4107.483758  	94.410728 
4108.448183  	94.471661 
4109.412607  	94.490391 
4110.377031  	94.459906 
4111.341456  	94.479475 
4112.305880  	94.508654 
4113.270305  	94.473535 
4114.234729  	94.460082 
4115.199154  	94.494060 
4116.163578  	94.496476 
4117.128003  	94.467944 
4118.092427  	94.465557 
4119.056852  	94.456996 
4120.021276  	94.443788 
4120.985700  	94.433893 
4121.950125  	94.495709 
4122.914549  	94.496706 
4123.878974  	94.457914 
4124.843398  	94.478763 
4125.807823  	94.543809 
4126.772247  	94.531351 
4127.736672  	94.480054 
4128.701096  	94.506974 
4129.665521  	94.540649 
4130.629945  	94.517087 
4131.594370  	94.485209 
4132.558794  	94.527291 
4133.523218  	94.516628 
4134.487643  	94.474657 
4135.452067  	94.496415 
4136.416492  	94.564044 
4137.380916  	94.580153 
4138.345341  	94.531498 
4139.309765  	94.467299 
4140.274190  	94.498331 
4141.238614  	94.577453 
4142.203039  	94.570135 
4143.167463  	94.633288 
4144.131887  	94.614138 
4145.096312  	94.580218 
4146.060736  	94.569890 
4147.025161  	94.516385 
4147.989585  	94.466972 
4148.954010  	94.472295 
4149.918434  	94.454380 
4150.882859  	94.471759 
4151.847283  	94.483329 
4152.811708  	94.443605 
4153.776132  	94.461024 
4154.740556  	94.508091 
4155.704981  	94.508703 
4156.669405  	94.508858 
4157.633830  	94.523778 
4158.598254  	94.519436 
4159.562679  	94.471333 
4160.527103  	94.430767 
4161.491528  	94.448486 
4162.455952  	94.504139 
4163.420377  	94.594142 
4164.384801  	94.632662 
4165.349225  	94.574164 
4166.313650  	94.521106 
4167.278074  	94.499463 
4168.242499  	94.488854 
4169.206923  	94.506856 
4170.171348  	94.600580 
4171.135772  	94.626006 
4172.100197  	94.564349 
4173.064621  	94.526893 
4174.029046  	94.510262 
4174.993470  	94.492899 
4175.957894  	94.561157 
4176.922319  	94.602515 
4177.886743  	94.551691 
4178.851168  	94.482785 
4179.815592  	94.454983 
4180.780017  	94.484357 
4181.744441  	94.591603 
4182.708866  	94.617635 
4183.673290  	94.612080 
4184.637715  	94.574688 
4185.602139  	94.529441 
4186.566563  	94.490595 
4187.530988  	94.499262 
4188.495412  	94.520551 
4189.459837  	94.560199 
4190.424261  	94.564128 
4191.388686  	94.556182 
4192.353110  	94.551296 
4193.317535  	94.530054 
4194.281959  	94.539893 
4195.246384  	94.546241 
4196.210808  	94.554651 
4197.175233  	94.553457 
4198.139657  	94.515716 
4199.104081  	94.509438 
4200.068506  	94.526576 
4201.032930  	94.492822 
4201.997355  	94.504636 
4202.961779  	94.571659 
4203.926204  	94.543300 
4204.890628  	94.525188 
4205.855053  	94.553518 
4206.819477  	94.549271 
4207.783902  	94.514960 
4208.748326  	94.512136 
4209.712750  	94.563396 
4210.677175  	94.608597 
4211.641599  	94.603704 
4212.606024  	94.585849 
4213.570448  	94.623949 
4214.534873  	94.660172 
4215.499297  	94.594063 
4216.463722  	94.545831 
4217.428146  	94.496954 
4218.392571  	94.496909 
4219.356995  	94.518309 
4220.321419  	94.564094 
4221.285844  	94.644308 
4222.250268  	94.685853 
4223.214693  	94.553629 
4224.179117  	94.468996 
4225.143542  	94.501774 
4226.107966  	94.571532 
4227.072391  	94.586280 
4228.036815  	94.526297 
4229.001240  	94.503109 
4229.965664  	94.490808 
4230.930088  	94.487380 
4231.894513  	94.510330 
4232.858937  	94.529218 
4233.823362  	94.577331 
4234.787786  	94.596810 
4235.752211  	94.559554 
4236.716635  	94.529344 
4237.681060  	94.560999 
4238.645484  	94.582638 
4239.609909  	94.582120 
4240.574333  	94.544445 
4241.538757  	94.555491 
4242.503182  	94.586181 
4243.467606  	94.566060 
4244.432031  	94.490088 
4245.396455  	94.490199 
4246.360880  	94.504529 
4247.325304  	94.479626 
4248.289729  	94.487448 
4249.254153  	94.552536 
4250.218578  	94.581795 
4251.183002  	94.613276 
4252.147427  	94.606865 
4253.111851  	94.549590 
4254.076275  	94.484498 
4255.040700  	94.486928 
4256.005124  	94.523735 
4256.969549  	94.565613 
4257.933973  	94.571084 
4258.898398  	94.548946 
4259.862822  	94.523645 
4260.827247  	94.507537 
4261.791671  	94.505041 
4262.756096  	94.545315 
4263.720520  	94.498490 
4264.684944  	94.486952 
4265.649369  	94.526582 
4266.613793  	94.606450 
4267.578218  	94.556422 
4268.542642  	94.482540 
4269.507067  	94.501475 
4270.471491  	94.488571 
4271.435916  	94.462251 
4272.400340  	94.472754 
4273.364765  	94.488746 
4274.329189  	94.472592 
4275.293613  	94.481685 
4276.258038  	94.488249 
4277.222462  	94.515879 
4278.186887  	94.471450 
4279.151311  	94.409507 
4280.115736  	94.444447 
4281.080160  	94.481173 
4282.044585  	94.504817 
4283.009009  	94.503907 
4283.973434  	94.486489 
4284.937858  	94.467014 
4285.902282  	94.495502 
4286.866707  	94.500850 
4287.831131  	94.506105 
4288.795556  	94.567042 
4289.759980  	94.560320 
4290.724405  	94.470022 
4291.688829  	94.477758 
4292.653254  	94.470341 
4293.617678  	94.516371 
4294.582103  	94.579942 
4295.546527  	94.548964 
4296.510951  	94.447822 
4297.475376  	94.415740 
4298.439800  	94.478119 
4299.404225  	94.518424 
4300.368649  	94.509673 
4301.333074  	94.463160 
4302.297498  	94.387673 
4303.261923  	94.410975 
4304.226347  	94.547053 
4305.190772  	94.666553 
4306.155196  	94.570239 
4307.119620  	94.508224 
4308.084045  	94.482658 
4309.048469  	94.458249 
4310.012894  	94.447497 
4310.977318  	94.502711 
4311.941743  	94.561866 
4312.906167  	94.572764 
4313.870592  	94.516467 
4314.835016  	94.546295 
4315.799441  	94.563282 
4316.763865  	94.487802 
4317.728290  	94.471720 
4318.692714  	94.510375 
4319.657138  	94.481124 
4320.621563  	94.509497 
4321.585987  	94.491652 
4322.550412  	94.467299 
4323.514836  	94.466193 
4324.479261  	94.465889 
4325.443685  	94.492982 
4326.408110  	94.551806 
4327.372534  	94.534543 
4328.336959  	94.509187 
4329.301383  	94.502910 
4330.265807  	94.540903 
4331.230232  	94.574045 
4332.194656  	94.539423 
4333.159081  	94.583754 
4334.123505  	94.574568 
4335.087930  	94.492138 
4336.052354  	94.504710 
4337.016779  	94.524924 
4337.981203  	94.533215 
4338.945628  	94.521703 
4339.910052  	94.488160 
4340.874476  	94.490254 
4341.838901  	94.549274 
4342.803325  	94.555898 
4343.767750  	94.495843 
4344.732174  	94.479343 
4345.696599  	94.485740 
4346.661023  	94.499362 
4347.625448  	94.507329 
4348.589872  	94.471778 
4349.554297  	94.520321 
4350.518721  	94.581966 
4351.483145  	94.574200 
4352.447570  	94.522092 
4353.411994  	94.532895 
4354.376419  	94.519804 
4355.340843  	94.521007 
4356.305268  	94.541505 
4357.269692  	94.565030 
4358.234117  	94.609561 
4359.198541  	94.579808 
4360.162966  	94.571345 
4361.127390  	94.564033 
4362.091814  	94.556822 
4363.056239  	94.538784 
4364.020663  	94.586280 
4364.985088  	94.601059 
4365.949512  	94.510109 
4366.913937  	94.477370 
4367.878361  	94.511003 
4368.842786  	94.531850 
4369.807210  	94.562170 
4370.771635  	94.594928 
4371.736059  	94.552674 
4372.700484  	94.501380 
4373.664908  	94.537117 
4374.629332  	94.551477 
4375.593757  	94.546870 
4376.558181  	94.543537 
4377.522606  	94.537332 
4378.487030  	94.498863 
4379.451455  	94.501800 
4380.415879  	94.506018 
4381.380304  	94.484678 
4382.344728  	94.533012 
4383.309153  	94.555570 
4384.273577  	94.510157 
4385.238001  	94.480979 
4386.202426  	94.491599 
4387.166850  	94.475717 
4388.131275  	94.519449 
4389.095699  	94.494483 
4390.060124  	94.484579 
4391.024548  	94.517585 
4391.988973  	94.570430 
4392.953397  	94.573077 
4393.917822  	94.548988 
4394.882246  	94.515483 
4395.846670  	94.500999 
4396.811095  	94.471524 
4397.775519  	94.478518 
4398.739944  	94.513467 
4399.704368  	94.538140 
4400.668793  	94.543238 
4401.633217  	94.487403 
4402.597642  	94.480764 
4403.562066  	94.516709 
4404.526491  	94.506843 
4405.490915  	94.486499 
4406.455339  	94.452162 
4407.419764  	94.462470 
4408.384188  	94.476206 
4409.348613  	94.536165 
4410.313037  	94.550004 
4411.277462  	94.479383 
4412.241886  	94.461520 
4413.206311  	94.515454 
4414.170735  	94.536354 
4415.135160  	94.523442 
4416.099584  	94.500960 
4417.064008  	94.413622 
4418.028433  	94.368259 
4418.992857  	94.452834 
4419.957282  	94.447704 
4420.921706  	94.429706 
4421.886131  	94.455318 
4422.850555  	94.423352 
4423.814980  	94.398041 
4424.779404  	94.390065 
4425.743829  	94.365897 
4426.708253  	94.431280 
4427.672677  	94.424299 
4428.637102  	94.416914 
4429.601526  	94.477257 
4430.565951  	94.484529 
4431.530375  	94.440113 
4432.494800  	94.420828 
4433.459224  	94.393547 
4434.423649  	94.376648 
4435.388073  	94.425017 
4436.352498  	94.470593 
4437.316922  	94.503525 
4438.281347  	94.539690 
4439.245771  	94.467703 
4440.210195  	94.469024 
4441.174620  	94.492443 
4442.139044  	94.446117 
4443.103469  	94.443797 
4444.067893  	94.455293 
4445.032318  	94.483123 
4445.996742  	94.467062 
4446.961167  	94.374011 
4447.925591  	94.311449 
4448.890016  	94.314305 
4449.854440  	94.329121 
4450.818864  	94.403327 
4451.783289  	94.468612 
4452.747713  	94.390118 
4453.712138  	94.362939 
4454.676562  	94.382603 
4455.640987  	94.414643 
4456.605411  	94.474460 
4457.569836  	94.483788 
4458.534260  	94.380163 
4459.498685  	94.312028 
4460.463109  	94.331320 
4461.427533  	94.388363 
4462.391958  	94.385221 
4463.356382  	94.352238 
4464.320807  	94.364733 
4465.285231  	94.354807 
4466.249656  	94.344959 
4467.214080  	94.409747 
4468.178505  	94.446214 
4469.142929  	94.459737 
4470.107354  	94.470434 
4471.071778  	94.457934 
4472.036202  	94.442317 
4473.000627  	94.475325 
4473.965051  	94.434904 
4474.929476  	94.377364 
4475.893900  	94.445927 
4476.858325  	94.473602 
4477.822749  	94.466729 
4478.787174  	94.467593 
4479.751598  	94.440478 
4480.716023  	94.454647 
4481.680447  	94.447664 
4482.644871  	94.414327 
4483.609296  	94.408658 
4484.573720  	94.473518 
4485.538145  	94.479382 
4486.502569  	94.440469 
4487.466994  	94.440839 
4488.431418  	94.529377 
4489.395843  	94.511405 
4490.360267  	94.522929 
4491.324692  	94.543556 
4492.289116  	94.531754 
4493.253541  	94.530719 
4494.217965  	94.524255 
4495.182389  	94.460740 
4496.146814  	94.395372 
4497.111238  	94.425191 
4498.075663  	94.524349 
4499.040087  	94.534805 
4500.004512  	94.503785 
4500.968936  	94.467799 
4501.933361  	94.432701 
4502.897785  	94.477473 
4503.862210  	94.517858 
4504.826634  	94.574362 
4505.791058  	94.578334 
4506.755483  	94.547512 
4507.719907  	94.553923 
4508.684332  	94.558676 
4509.648756  	94.516386 
4510.613181  	94.449629 
4511.577605  	94.524301 
4512.542030  	94.586331 
4513.506454  	94.568010 
4514.470879  	94.543065 
4515.435303  	94.447500 
4516.399727  	94.417402 
4517.364152  	94.387612 
4518.328576  	94.413596 
4519.293001  	94.455916 
4520.257425  	94.477618 
4521.221850  	94.455698 
4522.186274  	94.486922 
4523.150699  	94.466440 
4524.115123  	94.397165 
4525.079548  	94.428156 
4526.043972  	94.450560 
4527.008396  	94.418442 
4527.972821  	94.407584 
4528.937245  	94.450897 
4529.901670  	94.429861 
4530.866094  	94.427827 
4531.830519  	94.454956 
4532.794943  	94.394950 
4533.759368  	94.401286 
4534.723792  	94.469737 
4535.688217  	94.458210 
4536.652641  	94.475803 
4537.617065  	94.489247 
4538.581490  	94.541181 
4539.545914  	94.552573 
4540.510339  	94.526117 
4541.474763  	94.440634 
4542.439188  	94.416574 
4543.403612  	94.384613 
4544.368037  	94.365041 
4545.332461  	94.382164 
4546.296886  	94.445024 
4547.261310  	94.431713 
4548.225734  	94.490136 
4549.190159  	94.554204 
4550.154583  	94.550176 
4551.119008  	94.463178 
4552.083432  	94.470532 
4553.047857  	94.510884 
4554.012281  	94.506543 
4554.976706  	94.487610 
4555.941130  	94.495356 
4556.905555  	94.457994 
4557.869979  	94.470329 
4558.834404  	94.522500 
4559.798828  	94.482859 
4560.763252  	94.417617 
4561.727677  	94.414796 
4562.692101  	94.423803 
4563.656526  	94.552618 
4564.620950  	94.557659 
4565.585375  	94.383554 
4566.549799  	94.368849 
4567.514224  	94.434243 
4568.478648  	94.478024 
4569.443073  	94.517007 
4570.407497  	94.509870 
4571.371921  	94.511139 
4572.336346  	94.441487 
4573.300770  	94.377966 
4574.265195  	94.389424 
4575.229619  	94.420906 
4576.194044  	94.419124 
4577.158468  	94.459930 
4578.122893  	94.483853 
4579.087317  	94.486166 
4580.051742  	94.464241 
4581.016166  	94.506027 
4581.980590  	94.539457 
4582.945015  	94.547348 
4583.909439  	94.509842 
4584.873864  	94.454847 
4585.838288  	94.415762 
4586.802713  	94.475632 
4587.767137  	94.450266 
4588.731562  	94.410433 
4589.695986  	94.468047 
4590.660411  	94.499553 
4591.624835  	94.418678 
4592.589259  	94.405983 
4593.553684  	94.479540 
4594.518108  	94.461470 
4595.482533  	94.371980 
4596.446957  	94.401428 
4597.411382  	94.398413 
4598.375806  	94.391109 
4599.340231  	94.487682 
4600.304655  	94.440381 
4601.269080  	94.351074 
4602.233504  	94.400369 
4603.197928  	94.445178 
4604.162353  	94.467735 
4605.126777  	94.447368 
4606.091202  	94.467903 
4607.055626  	94.463018 
4608.020051  	94.422439 
4608.984475  	94.421072 
4609.948900  	94.444902 
4610.913324  	94.432231 
4611.877749  	94.440475 
4612.842173  	94.463503 
4613.806598  	94.475737 
4614.771022  	94.473328 
4615.735446  	94.500483 
4616.699871  	94.496140 
4617.664295  	94.428170 
4618.628720  	94.400787 
4619.593144  	94.429613 
4620.557569  	94.477528 
4621.521993  	94.437015 
4622.486418  	94.434690 
4623.450842  	94.475822 
4624.415267  	94.440027 
4625.379691  	94.480758 
4626.344115  	94.501318 
4627.308540  	94.489545 
4628.272964  	94.427592 
4629.237389  	94.392408 
4630.201813  	94.349781 
4631.166238  	94.370136 
4632.130662  	94.391313 
4633.095087  	94.330008 
4634.059511  	94.348279 
4635.023936  	94.416481 
4635.988360  	94.421622 
4636.952784  	94.393896 
4637.917209  	94.363331 
4638.881633  	94.358825 
4639.846058  	94.366612 
4640.810482  	94.387343 
4641.774907  	94.384543 
4642.739331  	94.328054 
4643.703756  	94.331523 
4644.668180  	94.455002 
4645.632605  	94.390588 
4646.597029  	94.350707 
4647.561453  	94.351705 
4648.525878  	94.348644 
4649.490302  	94.377591 
4650.454727  	94.388087 
4651.419151  	94.359067 
4652.383576  	94.347188 
4653.348000  	94.379652 
4654.312425  	94.445796 
4655.276849  	94.442094 
4656.241274  	94.404230 
4657.205698  	94.397636 
4658.170122  	94.390422 
4659.134547  	94.370079 
4660.098971  	94.318302 
4661.063396  	94.441872 
4662.027820  	94.506437 
4662.992245  	94.405905 
4663.956669  	94.379925 
4664.921094  	94.391174 
4665.885518  	94.422264 
4666.849943  	94.456142 
4667.814367  	94.348154 
4668.778791  	94.323984 
4669.743216  	94.419318 
4670.707640  	94.453388 
4671.672065  	94.393875 
4672.636489  	94.347294 
4673.600914  	94.397619 
4674.565338  	94.446889 
4675.529763  	94.442222 
4676.494187  	94.482432 
4677.458612  	94.542851 
4678.423036  	94.558576 
4679.387461  	94.572789 
4680.351885  	94.510889 
4681.316309  	94.397735 
4682.280734  	94.322609 
4683.245158  	94.343439 
4684.209583  	94.336135 
4685.174007  	94.337447 
4686.138432  	94.341334 
4687.102856  	94.366056 
4688.067281  	94.404685 
4689.031705  	94.391694 
4689.996130  	94.382633 
4690.960554  	94.450726 
4691.924978  	94.414739 
4692.889403  	94.320109 
4693.853827  	94.308962 
4694.818252  	94.357824 
4695.782676  	94.387217 
4696.747101  	94.363535 
4697.711525  	94.368483 
4698.675950  	94.391878 
4699.640374  	94.337313 