##TITLE=No Description
##DATA TYPE=INFRARED SPECTRUM
##XUNITS=1/CM
##YUNITS=%T
400.236149  	112.485223 
401.200574  	93.920827 
402.164998  	74.402451 
403.129423  	61.321716 
404.093847  	73.517058 
405.058272  	78.924696 
406.022696  	82.211984 
406.987120  	78.819177 
407.951545  	70.371968 
408.915969  	67.061092 
409.880394  	79.151949 
410.844818  	96.784095 
411.809243  	96.666721 
412.773667  	86.722897 
413.738092  	83.811280 
414.702516  	77.724104 
415.666941  	75.318728 
416.631365  	82.191099 
417.595789  	85.858093 
418.560214  	82.488145 
419.524638  	76.062047 
420.489063  	80.123962 
421.453487  	81.638216 
422.417912  	81.860082 
423.382336  	81.907751 
424.346761  	82.772334 
425.311185  	81.929857 
426.275610  	83.170521 
427.240034  	83.498869 
428.204458  	81.288352 
429.168883  	80.733001 
430.133307  	83.167762 
431.097732  	82.354179 
432.062156  	80.332797 
433.026581  	78.098528 
433.991005  	76.851231 
434.955430  	77.377695 
435.919854  	78.222616 
436.884279  	78.240221 
437.848703  	78.698750 
438.813127  	80.017939 
439.777552  	81.473810 
440.741976  	82.050082 
441.706401  	81.104225 
442.670825  	81.470967 
443.635250  	80.680004 
444.599674  	82.025972 
445.564099  	84.362901 
446.528523  	83.357791 
447.492948  	84.107310 
448.457372  	85.802434 
449.421796  	84.568012 
450.386221  	83.884196 
451.350645  	84.323016 
452.315070  	83.022962 
453.279494  	83.249145 
454.243919  	84.813724 
455.208343  	85.054840 
456.172768  	84.142555 
457.137192  	83.878098 
458.101617  	83.030975 
459.066041  	83.363741 
460.030466  	84.120714 
460.994890  	84.566884 
461.959314  	84.200648 
462.923739  	83.411742 
463.888163  	83.080104 
464.852588  	83.414837 
465.817012  	84.123048 
466.781437  	84.154214 
467.745861  	83.304034 
468.710286  	82.923010 
469.674710  	82.197806 
470.639135  	81.546031 
471.603559  	81.666100 
472.567983  	81.958990 
473.532408  	82.563689 
474.496832  	82.539511 
475.461257  	82.817992 
476.425681  	82.651431 
477.390106  	83.430580 
478.354530  	84.283620 
479.318955  	83.531949 
480.283379  	83.193499 
481.247804  	83.488160 
482.212228  	82.805630 
483.176652  	82.983705 
484.141077  	82.975475 
485.105501  	82.545689 
486.069926  	82.244641 
487.034350  	83.181827 
487.998775  	83.981315 
488.963199  	83.941804 
489.927624  	83.795747 
490.892048  	83.127756 
491.856473  	82.523365 
492.820897  	83.066855 
493.785321  	82.970585 
494.749746  	82.225955 
495.714170  	82.188825 
496.678595  	81.774779 
497.643019  	81.425474 
498.607444  	81.202024 
499.571868  	80.291736 
500.536293  	80.104454 
501.500717  	79.335909 
502.465142  	78.397779 
503.429566  	79.211453 
504.393990  	79.683897 
505.358415  	79.635629 
506.322839  	78.739431 
507.287264  	78.759512 
508.251688  	80.587165 
509.216113  	81.765880 
510.180537  	82.159259 
511.144962  	82.887214 
512.109386  	83.823629 
513.073811  	84.326164 
514.038235  	84.292821 
515.002660  	83.724077 
515.967084  	83.157035 
516.931508  	82.718789 
517.895933  	83.043917 
518.860357  	83.205174 
519.824782  	83.351654 
520.789206  	84.063094 
521.753631  	84.524857 
522.718055  	84.257723 
523.682480  	83.868863 
524.646904  	83.839607 
525.611329  	83.521366 
526.575753  	83.660349 
527.540177  	84.342086 
528.504602  	84.823767 
529.469026  	84.782369 
530.433451  	84.347238 
531.397875  	84.219763 
532.362300  	84.576859 
533.326724  	85.251303 
534.291149  	85.141425 
535.255573  	85.170855 
536.219998  	85.532446 
537.184422  	86.056513 
538.148846  	85.721186 
539.113271  	85.797672 
540.077695  	85.757996 
541.042120  	85.984503 
542.006544  	86.359890 
542.970969  	86.325187 
543.935393  	86.112778 
544.899818  	86.118436 
545.864242  	86.327268 
546.828667  	86.459088 
547.793091  	85.944047 
548.757515  	85.834621 
549.721940  	86.197899 
550.686364  	86.385249 
551.650789  	86.718628 
552.615213  	86.403755 
553.579638  	86.389285 
554.544062  	86.591018 
555.508487  	86.583891 
556.472911  	86.500668 
557.437336  	86.173906 
558.401760  	86.161915 
559.366184  	86.413279 
560.330609  	86.272016 
561.295033  	86.289241 
562.259458  	86.550386 
563.223882  	86.365933 
564.188307  	86.441360 
565.152731  	86.821521 
566.117156  	86.785151 
567.081580  	86.402944 
568.046005  	86.226633 
569.010429  	86.132615 
569.974853  	86.243129 
570.939278  	86.223946 
571.903702  	86.125629 
572.868127  	86.109064 
573.832551  	86.057542 
574.796976  	86.214536 
575.761400  	85.917701 
576.725825  	86.033267 
577.690249  	86.171577 
578.654674  	86.287813 
579.619098  	86.445174 
580.583523  	86.103774 
581.547947  	86.177187 
582.512371  	86.435705 
583.476796  	86.440846 
584.441220  	86.307213 
585.405645  	86.371944 
586.370069  	86.806611 
587.334494  	86.877748 
588.298918  	86.722374 
589.263343  	86.467842 
590.227767  	86.373703 
591.192192  	86.021723 
592.156616  	85.906761 
593.121040  	86.402024 
594.085465  	86.635511 
595.049889  	86.567738 
596.014314  	86.584843 
596.978738  	86.669567 
597.943163  	86.792745 
598.907587  	86.623143 
599.872012  	85.967027 
600.836436  	85.966286 
601.800861  	86.158230 
602.765285  	86.124380 
603.729709  	86.157459 
604.694134  	86.381543 
605.658558  	86.603927 
606.622983  	86.535118 
607.587407  	86.404199 
608.551832  	86.467283 
609.516256  	86.536174 
610.480681  	86.386164 
611.445105  	86.197984 
612.409530  	86.209630 
613.373954  	86.233902 
614.338378  	85.956142 
615.302803  	85.693356 
616.267227  	85.602145 
617.231652  	85.813526 
618.196076  	86.024981 
619.160501  	86.106270 
620.124925  	86.191043 
621.089350  	86.406839 
622.053774  	86.172970 
623.018199  	86.199440 
623.982623  	85.888402 
624.947047  	85.595312 
625.911472  	85.197968 
626.875896  	85.204476 
627.840321  	85.203867 
628.804745  	85.149373 
629.769170  	84.703458 
630.733594  	84.263893 
631.698019  	84.113453 
632.662443  	84.161340 
633.626868  	84.455706 
634.591292  	85.045381 
635.555717  	85.081196 
636.520141  	85.272984 
637.484565  	85.444339 
638.448990  	85.588132 
639.413414  	85.446612 
640.377839  	85.282278 
641.342263  	85.302347 
642.306688  	85.106594 
643.271112  	85.068229 
644.235537  	85.109285 
645.199961  	85.109696 
646.164386  	85.211382 
647.128810  	85.217904 
648.093234  	84.995678 
649.057659  	84.904645 
650.022083  	84.834206 
650.986508  	84.716771 
651.950932  	84.588566 
652.915357  	84.476483 
653.879781  	84.412405 
654.844206  	84.257837 
655.808630  	84.147828 
656.773055  	84.097829 
657.737479  	84.190542 
658.701903  	83.998611 
659.666328  	83.790623 
660.630752  	83.854571 
661.595177  	83.858386 
662.559601  	83.735133 
663.524026  	83.583355 
664.488450  	83.491584 
665.452875  	83.265804 
666.417299  	83.097603 
667.381724  	83.302698 
668.346148  	83.238510 
669.310572  	82.506020 
670.274997  	82.344527 
671.239421  	82.322550 
672.203846  	82.286068 
673.168270  	82.126959 
674.132695  	81.758891 
675.097119  	81.452970 
676.061544  	81.113495 
677.025968  	80.762511 
677.990393  	80.506587 
678.954817  	80.379296 
679.919241  	80.249447 
680.883666  	80.120260 
681.848090  	80.008006 
682.812515  	80.023397 
683.776939  	79.907305 
684.741364  	79.611838 
685.705788  	79.391487 
686.670213  	79.362343 
687.634637  	79.028984 
688.599062  	78.645971 
689.563486  	78.337335 
690.527910  	78.042254 
691.492335  	77.595837 
692.456759  	77.167496 
693.421184  	76.572077 
694.385608  	75.964837 
695.350033  	75.262543 
696.314457  	74.554684 
697.278882  	73.650269 
698.243306  	72.538868 
699.207731  	71.483585 
700.172155  	70.620540 
701.136580  	69.653201 
702.101004  	68.778191 
703.065428  	68.024141 
704.029853  	67.376197 
704.994277  	66.587997 
705.958702  	65.708894 
706.923126  	64.706688 
707.887551  	63.733787 
708.851975  	62.782253 
709.816400  	61.635811 
710.780824  	60.352791 
711.745249  	59.100909 
712.709673  	57.774934 
713.674097  	56.266479 
714.638522  	54.708159 
715.602946  	53.149058 
716.567371  	51.531495 
717.531795  	50.014730 
718.496220  	48.464010 
719.460644  	47.118742 
720.425069  	46.254894 
721.389493  	45.882041 
722.353918  	45.890142 
723.318342  	46.490010 
724.282766  	47.903965 
725.247191  	49.943494 
726.211615  	52.263756 
727.176040  	54.732869 
728.140464  	57.185860 
729.104889  	59.661147 
730.069313  	62.130630 
731.033738  	64.681502 
731.998162  	67.179316 
732.962587  	69.830510 
733.927011  	72.436227 
734.891435  	75.019152 
735.855860  	77.555509 
736.820284  	79.981218 
737.784709  	82.227547 
738.749133  	84.192434 
739.713558  	85.891089 
740.677982  	87.349005 
741.642407  	88.473467 
742.606831  	89.403768 
743.571256  	90.059606 
744.535680  	90.458379 
745.500104  	90.828106 
746.464529  	91.212690 
747.428953  	91.444192 
748.393378  	91.507319 
749.357802  	91.414801 
750.322227  	91.416799 
751.286651  	91.458758 
752.251076  	91.507467 
753.215500  	91.497020 
754.179925  	91.451688 
755.144349  	91.442048 
756.108774  	91.457958 
757.073198  	91.406779 
758.037622  	91.310137 
759.002047  	91.143568 
759.966471  	91.102570 
760.930896  	91.051126 
761.895320  	90.966976 
762.859745  	90.925071 
763.824169  	90.923558 
764.788594  	90.760081 
765.753018  	90.577694 
766.717443  	90.501191 
767.681867  	90.372537 
768.646291  	90.186144 
769.610716  	90.087534 
770.575140  	89.934303 
771.539565  	89.865561 
772.503989  	89.639229 
773.468414  	89.446882 
774.432838  	89.331388 
775.397263  	89.209592 
776.361687  	89.020264 
777.326112  	88.919788 
778.290536  	88.791575 
779.254960  	88.795744 
780.219385  	88.792282 
781.183809  	89.040820 
782.148234  	88.574835 
783.112658  	88.008315 
784.077083  	87.675140 
785.041507  	87.343282 
786.005932  	87.043535 
786.970356  	86.696011 
787.934781  	86.407438 
788.899205  	86.031811 
789.863629  	85.751401 
790.828054  	85.400214 
791.792478  	84.913176 
792.756903  	84.719068 
793.721327  	84.958147 
794.685752  	85.310978 
795.650176  	85.920551 
796.614601  	86.649757 
797.579025  	87.180190 
798.543450  	87.377452 
799.507874  	87.526800 
800.472298  	87.692451 
801.436723  	87.769165 
802.401147  	87.705492 
803.365572  	87.567329 
804.329996  	87.520161 
805.294421  	87.456196 
806.258845  	87.475444 
807.223270  	87.553513 
808.187694  	87.551313 
809.152119  	87.548902 
810.116543  	87.514922 
811.080967  	87.522795 
812.045392  	87.478550 
813.009816  	87.364361 
813.974241  	87.330098 
814.938665  	87.440420 
815.903090  	87.483180 
816.867514  	87.419120 
817.831939  	87.361936 
818.796363  	87.327064 
819.760788  	87.251996 
820.725212  	87.227572 
821.689637  	87.135018 
822.654061  	86.964439 
823.618485  	86.834005 
824.582910  	86.709696 
825.547334  	86.491854 
826.511759  	86.291331 
827.476183  	86.122554 
828.440608  	85.956009 
829.405032  	85.744925 
830.369457  	85.551089 
831.333881  	85.373456 
832.298306  	85.174606 
833.262730  	84.827731 
834.227154  	84.499126 
835.191579  	84.214879 
836.156003  	83.867252 
837.120428  	83.501457 
838.084852  	83.113614 
839.049277  	82.763263 
840.013701  	82.415980 
840.978126  	81.964079 
841.942550  	81.554290 
842.906975  	81.125507 
843.871399  	80.606706 
844.835823  	80.061310 
845.800248  	79.742725 
846.764672  	79.662186 
847.729097  	79.701443 
848.693521  	79.822588 
849.657946  	80.139689 
850.622370  	80.646166 
851.586795  	81.108311 
852.551219  	81.382893 
853.515644  	81.645941 
854.480068  	81.888022 
855.444492  	82.042379 
856.408917  	82.154177 
857.373341  	82.340294 
858.337766  	82.505561 
859.302190  	82.637108 
860.266615  	82.693220 
861.231039  	82.654541 
862.195464  	82.555505 
863.159888  	82.272588 
864.124313  	81.877535 
865.088737  	81.432504 
866.053161  	80.766320 
867.017586  	79.637999 
867.982010  	78.112431 
868.946435  	76.241620 
869.910859  	73.923817 
870.875284  	71.557082 
871.839708  	70.202007 
872.804133  	70.913174 
873.768557  	73.327514 
874.732982  	75.874046 
875.697406  	77.874081 
876.661831  	79.377412 
877.626255  	80.588645 
878.590679  	81.678719 
879.555104  	82.651255 
880.519528  	83.482419 
881.483953  	84.160376 
882.448377  	84.741808 
883.412802  	85.316572 
884.377226  	85.897170 
885.341651  	86.347399 
886.306075  	86.579652 
887.270500  	86.789634 
888.234924  	87.049350 
889.199348  	87.097276 
890.163773  	87.052666 
891.128197  	87.106327 
892.092622  	87.143621 
893.057046  	87.034953 
894.021471  	86.897525 
894.985895  	86.888588 
895.950320  	86.828713 
896.914744  	86.742749 
897.879169  	86.767456 
898.843593  	86.792146 
899.808017  	86.879800 
900.772442  	86.920963 
901.736866  	86.919093 
902.701291  	87.104362 
903.665715  	87.329801 
904.630140  	87.452732 
905.594564  	87.577667 
906.558989  	87.753805 
907.523413  	87.950714 
908.487838  	88.037921 
909.452262  	88.142088 
910.416686  	88.376020 
911.381111  	88.530154 
912.345535  	88.530992 
913.309960  	88.552646 
914.274384  	88.607200 
915.238809  	88.647568 
916.203233  	88.642077 
917.167658  	88.654149 
918.132082  	88.682844 
919.096507  	88.708513 
920.060931  	88.718819 
921.025355  	88.702460 
921.989780  	88.610693 
922.954204  	88.541530 
923.918629  	88.465178 
924.883053  	88.427459 
925.847478  	88.405587 
926.811902  	88.326641 
927.776327  	88.276178 
928.740751  	88.224771 
929.705176  	88.202111 
930.669600  	88.139064 
931.634024  	88.085306 
932.598449  	88.058549 
933.562873  	87.997780 
934.527298  	87.939634 
935.491722  	87.785998 
936.456147  	87.685250 
937.420571  	87.653750 
938.384996  	87.499955 
939.349420  	87.336979 
940.313845  	87.274482 
941.278269  	87.224751 
942.242694  	87.129559 
943.207118  	87.003357 
944.171542  	86.897451 
945.135967  	86.769122 
946.100391  	86.634789 
947.064816  	86.509551 
948.029240  	86.387235 
948.993665  	86.234598 
949.958089  	86.053555 
950.922514  	85.909307 
951.886938  	85.783127 
952.851363  	85.540294 
953.815787  	85.281682 
954.780211  	85.095131 
955.744636  	84.934867 
956.709060  	84.745498 
957.673485  	84.465111 
958.637909  	84.131064 
959.602334  	83.793763 
960.566758  	83.464274 
961.531183  	83.129469 
962.495607  	82.760559 
963.460032  	82.415894 
964.424456  	82.059828 
965.388880  	81.622481 
966.353305  	81.205567 
967.317729  	80.896222 
968.282154  	80.578573 
969.246578  	80.283015 
970.211003  	80.114613 
971.175427  	80.090560 
972.139852  	80.192409 
973.104276  	80.396215 
974.068701  	80.699553 
975.033125  	81.031066 
975.997549  	81.391037 
976.961974  	81.753482 
977.926398  	82.121212 
978.890823  	82.419888 
979.855247  	82.620309 
980.819672  	82.805495 
981.784096  	82.989830 
982.748521  	83.123369 
983.712945  	83.182342 
984.677370  	83.172053 
985.641794  	83.144419 
986.606218  	83.107777 
987.570643  	83.080350 
988.535067  	83.042226 
989.499492  	83.058776 
990.463916  	83.050922 
991.428341  	83.044010 
992.392765  	83.007311 
993.357190  	82.949242 
994.321614  	82.908209 
995.286039  	82.818315 
996.250463  	82.696233 
997.214888  	82.504661 
998.179312  	82.319283 
999.143736  	82.106100 
1000.108161  	81.854829 
1001.072585  	81.631015 
1002.037010  	81.463712 
1003.001434  	81.204969 
1003.965859  	80.858893 
1004.930283  	80.495284 
1005.894708  	80.047108 
1006.859132  	79.517201 
1007.823557  	78.891561 
1008.787981  	78.158472 
1009.752405  	77.315354 
1010.716830  	76.226371 
1011.681254  	74.891081 
1012.645679  	73.300133 
1013.610103  	71.444697 
1014.574528  	69.461318 
1015.538952  	67.669312 
1016.503377  	66.494128 
1017.467801  	66.065171 
1018.432226  	66.286694 
1019.396650  	67.114063 
1020.361074  	68.328695 
1021.325499  	69.582565 
1022.289923  	70.730879 
1023.254348  	71.958573 
1024.218772  	73.450960 
1025.183197  	75.173704 
1026.147621  	76.897320 
1027.112046  	78.404942 
1028.076470  	79.446244 
1029.040895  	79.996744 
1030.005319  	80.223638 
1030.969743  	80.271228 
1031.934168  	80.285482 
1032.898592  	80.235910 
1033.863017  	80.045897 
1034.827441  	79.807645 
1035.791866  	79.613544 
1036.756290  	79.434030 
1037.720715  	79.284654 
1038.685139  	79.117519 
1039.649564  	79.002661 
1040.613988  	78.905474 
1041.578412  	78.751820 
1042.542837  	78.616075 
1043.507261  	78.578691 
1044.471686  	78.536944 
1045.436110  	78.477537 
1046.400535  	78.504274 
1047.364959  	78.549384 
1048.329384  	78.533844 
1049.293808  	78.572719 
1050.258233  	78.648288 
1051.222657  	78.708107 
1052.187081  	78.709248 
1053.151506  	78.686345 
1054.115930  	78.694979 
1055.080355  	78.670320 
1056.044779  	78.557515 
1057.009204  	78.394202 
1057.973628  	78.269924 
1058.938053  	78.090995 
1059.902477  	77.815814 
1060.866902  	77.512395 
1061.831326  	77.280100 
1062.795751  	77.008885 
1063.760175  	76.628638 
1064.724599  	76.198809 
1065.689024  	75.794141 
1066.653448  	75.347074 
1067.617873  	74.812354 
1068.582297  	74.237261 
1069.546722  	73.679378 
1070.511146  	73.054887 
1071.475571  	72.357657 
1072.439995  	71.630746 
1073.404420  	70.845090 
1074.368844  	69.922308 
1075.333268  	68.940205 
1076.297693  	67.940667 
1077.262117  	66.914933 
1078.226542  	65.916293 
1079.190966  	64.965533 
1080.155391  	63.981178 
1081.119815  	63.094085 
1082.084240  	62.308291 
1083.048664  	61.582813 
1084.013089  	60.969444 
1084.977513  	60.441785 
1085.941937  	59.889196 
1086.906362  	59.392732 
1087.870786  	59.006108 
1088.835211  	58.664500 
1089.799635  	58.321097 
1090.764060  	57.978177 
1091.728484  	57.707702 
1092.692909  	57.495338 
1093.657333  	57.280360 
1094.621758  	57.089789 
1095.586182  	57.011810 
1096.550606  	57.016761 
1097.515031  	57.104683 
1098.479455  	57.252423 
1099.443880  	57.462751 
1100.408304  	57.768673 
1101.372729  	58.131687 
1102.337153  	58.570881 
1103.301578  	59.114173 
1104.266002  	59.655249 
1105.230427  	60.162029 
1106.194851  	60.721345 
1107.159275  	61.333952 
1108.123700  	61.931414 
1109.088124  	62.435686 
1110.052549  	62.863170 
1111.016973  	63.250300 
1111.981398  	63.545097 
1112.945822  	63.766110 
1113.910247  	63.985525 
1114.874671  	64.117845 
1115.839096  	64.101055 
1116.803520  	63.971028 
1117.767945  	63.847746 
1118.732369  	63.842066 
1119.696793  	63.920800 
1120.661218  	64.017628 
1121.625642  	64.174553 
1122.590067  	64.460011 
1123.554491  	64.819804 
1124.518916  	65.211898 
1125.483340  	65.715781 
1126.447765  	66.330120 
1127.412189  	66.982218 
1128.376614  	67.711631 
1129.341038  	68.536046 
1130.305462  	69.467888 
1131.269887  	70.490530 
1132.234311  	71.530095 
1133.198736  	72.644442 
1134.163160  	73.810850 
1135.127585  	74.928767 
1136.092009  	76.066628 
1137.056434  	77.190265 
1138.020858  	78.281798 
1138.985283  	79.265087 
1139.949707  	80.116985 
1140.914131  	80.956388 
1141.878556  	81.740096 
1142.842980  	82.395602 
1143.807405  	83.062109 
1144.771829  	83.725558 
1145.736254  	84.293731 
1146.700678  	84.786028 
1147.665103  	85.210828 
1148.629527  	85.648328 
1149.593952  	86.063725 
1150.558376  	86.421961 
1151.522800  	86.705088 
1152.487225  	86.936271 
1153.451649  	87.160398 
1154.416074  	87.400731 
1155.380498  	87.597258 
1156.344923  	87.728334 
1157.309347  	87.849952 
1158.273772  	87.943174 
1159.238196  	87.954572 
1160.202621  	88.000645 
1161.167045  	88.078323 
1162.131469  	88.109378 
1163.095894  	88.070687 
1164.060318  	88.022540 
1165.024743  	87.974254 
1165.989167  	87.864448 
1166.953592  	87.692514 
1167.918016  	87.461099 
1168.882441  	87.159224 
1169.846865  	86.841532 
1170.811290  	86.531364 
1171.775714  	86.262632 
1172.740138  	86.099623 
1173.704563  	85.939205 
1174.668987  	85.822541 
1175.633412  	85.904215 
1176.597836  	86.053661 
1177.562261  	86.169483 
1178.526685  	86.295226 
1179.491110  	86.477090 
1180.455534  	86.660052 
1181.419959  	86.824784 
1182.384383  	86.942695 
1183.348808  	87.027303 
1184.313232  	87.105829 
1185.277656  	87.130391 
1186.242081  	87.088713 
1187.206505  	87.037491 
1188.170930  	86.980711 
1189.135354  	86.820233 
1190.099779  	86.639795 
1191.064203  	86.506065 
1192.028628  	86.307533 
1192.993052  	85.988259 
1193.957477  	85.640112 
1194.921901  	85.319865 
1195.886325  	84.993469 
1196.850750  	84.634101 
1197.815174  	84.257832 
1198.779599  	83.901321 
1199.744023  	83.583252 
1200.708448  	83.182964 
1201.672872  	82.754586 
1202.637297  	82.388168 
1203.601721  	82.005815 
1204.566146  	81.598329 
1205.530570  	81.178268 
1206.494994  	80.790581 
1207.459419  	80.402523 
1208.423843  	79.981068 
1209.388268  	79.538171 
1210.352692  	79.128076 
1211.317117  	78.664333 
1212.281541  	78.123066 
1213.245966  	77.630906 
1214.210390  	77.108970 
1215.174815  	76.476928 
1216.139239  	75.812333 
1217.103663  	75.132558 
1218.068088  	74.432296 
1219.032512  	73.645039 
1219.996937  	72.849078 
1220.961361  	72.122543 
1221.925786  	71.458273 
1222.890210  	70.793527 
1223.854635  	70.116502 
1224.819059  	69.414224 
1225.783484  	68.769825 
1226.747908  	68.101649 
1227.712332  	67.302980 
1228.676757  	66.412107 
1229.641181  	65.424394 
1230.605606  	64.364600 
1231.570030  	63.256593 
1232.534455  	62.163872 
1233.498879  	61.091901 
1234.463304  	60.012787 
1235.427728  	59.010204 
1236.392153  	58.123454 
1237.356577  	57.335445 
1238.321002  	56.658913 
1239.285426  	56.132648 
1240.249850  	55.760368 
1241.214275  	55.504678 
1242.178699  	55.335850 
1243.143124  	55.265493 
1244.107548  	55.302464 
1245.071973  	55.431822 
1246.036397  	55.575205 
1247.000822  	55.773319 
1247.965246  	56.071792 
1248.929671  	56.359403 
1249.894095  	56.600224 
1250.858519  	56.883664 
1251.822944  	57.206508 
1252.787368  	57.499544 
1253.751793  	57.757982 
1254.716217  	58.022331 
1255.680642  	58.285087 
1256.645066  	58.512905 
1257.609491  	58.711279 
1258.573915  	58.921524 
1259.538340  	59.103314 
1260.502764  	59.292012 
1261.467188  	59.709669 
1262.431613  	60.176800 
1263.396037  	60.617702 
1264.360462  	61.109364 
1265.324886  	61.650570 
1266.289311  	62.249433 
1267.253735  	62.920522 
1268.218160  	63.587024 
1269.182584  	64.232310 
1270.147009  	64.910198 
1271.111433  	65.626432 
1272.075857  	66.284598 
1273.040282  	67.039934 
1274.004706  	67.722548 
1274.969131  	68.355395 
1275.933555  	68.959822 
1276.897980  	69.548546 
1277.862404  	70.133036 
1278.826829  	70.667944 
1279.791253  	71.176837 
1280.755678  	71.759016 
1281.720102  	72.353449 
1282.684526  	72.917676 
1283.648951  	73.453297 
1284.613375  	73.982407 
1285.577800  	74.535163 
1286.542224  	75.017463 
1287.506649  	75.383436 
1288.471073  	75.921021 
1289.435498  	76.617507 
1290.399922  	77.211980 
1291.364347  	77.835904 
1292.328771  	78.506667 
1293.293195  	79.124056 
1294.257620  	79.759181 
1295.222044  	80.368691 
1296.186469  	80.906975 
1297.150893  	81.535130 
1298.115318  	82.279797 
1299.079742  	82.902719 
1300.044167  	83.518988 
1301.008591  	84.102716 
1301.973016  	84.608663 
1302.937440  	85.037942 
1303.901865  	85.439944 
1304.866289  	85.792676 
1305.830713  	86.117206 
1306.795138  	86.391366 
1307.759562  	86.595994 
1308.723987  	86.873841 
1309.688411  	87.295877 
1310.652836  	87.593532 
1311.617260  	87.701304 
1312.581685  	87.519687 
1313.546109  	87.765618 
1314.510534  	88.106775 
1315.474958  	88.460829 
1316.439382  	88.557099 
1317.403807  	88.568303 
1318.368231  	88.671694 
1319.332656  	88.672491 
1320.297080  	89.140339 
1321.261505  	89.532129 
1322.225929  	89.814695 
1323.190354  	89.918823 
1324.154778  	90.043109 
1325.119203  	90.120810 
1326.083627  	90.115194 
1327.048051  	90.068617 
1328.012476  	89.913954 
1328.976900  	89.597662 
1329.941325  	89.140111 
1330.905749  	88.617371 
1331.870174  	87.870308 
1332.834598  	86.833723 
1333.799023  	85.610182 
1334.763447  	84.243559 
1335.727872  	82.614665 
1336.692296  	80.707674 
1337.656720  	79.357512 
1338.621145  	77.840199 
1339.585569  	76.578881 
1340.549994  	76.808213 
1341.514418  	78.388024 
1342.478843  	79.762917 
1343.443267  	80.947705 
1344.407692  	82.363569 
1345.372116  	83.840526 
1346.336541  	85.250157 
1347.300965  	86.501208 
1348.265389  	87.511099 
1349.229814  	88.248173 
1350.194238  	89.000963 
1351.158663  	89.630698 
1352.123087  	90.074729 
1353.087512  	90.423788 
1354.051936  	90.499561 
1355.016361  	90.398850 
1355.980785  	90.754652 
1356.945210  	90.953110 
1357.909634  	90.877960 
1358.874059  	90.947023 
1359.838483  	90.960009 
1360.802907  	90.245629 
1361.767332  	89.623947 
1362.731756  	88.599156 
1363.696181  	88.516287 
1364.660605  	89.781978 
1365.625030  	89.909566 
1366.589454  	89.698789 
1367.553879  	89.248036 
1368.518303  	88.514454 
1369.482728  	88.445921 
1370.447152  	88.859212 
1371.411576  	88.858289 
1372.376001  	88.704296 
1373.340425  	87.965956 
1374.304850  	87.415607 
1375.269274  	87.954440 
1376.233699  	88.916908 
1377.198123  	89.134046 
1378.162548  	88.893960 
1379.126972  	89.033667 
1380.091397  	89.232540 
1381.055821  	89.432957 
1382.020245  	89.462102 
1382.984670  	89.442591 
1383.949094  	89.431043 
1384.913519  	89.375860 
1385.877943  	88.892687 
1386.842368  	87.747984 
1387.806792  	87.490567 
1388.771217  	88.665239 
1389.735641  	89.139268 
1390.700066  	89.058442 
1391.664490  	89.085401 
1392.628914  	89.055274 
1393.593339  	88.375435 
1394.557763  	86.939347 
1395.522188  	86.601433 
1396.486612  	87.192024 
1397.451037  	86.967489 
1398.415461  	86.016610 
1399.379886  	85.448608 
1400.344310  	85.817769 
1401.308735  	85.790770 
1402.273159  	85.029524 
1403.237583  	84.043849 
1404.202008  	82.491230 
1405.166432  	80.632567 
1406.130857  	80.068419 
1407.095281  	79.666095 
1408.059706  	78.939524 
1409.024130  	78.618592 
1409.988555  	78.652772 
1410.952979  	79.305669 
1411.917404  	80.348399 
1412.881828  	82.157769 
1413.846252  	83.944532 
1414.810677  	85.462993 
1415.775101  	86.391875 
1416.739526  	86.921916 
1417.703950  	87.296879 
1418.668375  	87.329126 
1419.632799  	87.473866 
1420.597224  	89.900505 
1421.561648  	90.905793 
1422.526073  	91.159316 
1423.490497  	90.309378 
1424.454922  	90.090082 
1425.419346  	91.358921 
1426.383770  	91.826572 
1427.348195  	91.805966 
1428.312619  	91.511092 
1429.277044  	90.962610 
1430.241468  	90.517734 
1431.205893  	90.972589 
1432.170317  	90.926999 
1433.134742  	90.581851 
1434.099166  	90.704269 
1435.063591  	90.433163 
1436.028015  	88.966563 
1436.992439  	87.867403 
1437.956864  	89.445183 
1438.921288  	90.196560 
1439.885713  	90.296552 
1440.850137  	90.270843 
1441.814562  	90.213713 
1442.778986  	90.188290 
1443.743411  	90.086398 
1444.707835  	89.955237 
1445.672260  	89.806381 
1446.636684  	89.538320 
1447.601108  	88.591837 
1448.565533  	88.441510 
1449.529957  	89.302105 
1450.494382  	89.449894 
1451.458806  	88.917605 
1452.423231  	88.441429 
1453.387655  	88.852494 
1454.352080  	88.436653 
1455.316504  	87.220326 
1456.280929  	86.215340 
1457.245353  	85.368729 
1458.209777  	85.634676 
1459.174202  	86.749235 
1460.138626  	88.417567 
1461.103051  	89.342995 
1462.067475  	89.557450 
1463.031900  	89.593487 
1463.996324  	89.149978 
1464.960749  	88.204324 
1465.925173  	88.797672 
1466.889598  	89.356645 
1467.854022  	89.233327 
1468.818446  	89.002472 
1469.782871  	88.506376 
1470.747295  	87.598464 
1471.711720  	85.750647 
1472.676144  	84.729835 
1473.640569  	85.778340 
1474.604993  	87.747990 
1475.569418  	88.103334 
1476.533842  	87.813754 
1477.498267  	89.389349 
1478.462691  	90.372983 
1479.427116  	90.693997 
1480.391540  	90.633805 
1481.355964  	90.259418 
1482.320389  	90.959719 
1483.284813  	91.644824 
1484.249238  	91.941600 
1485.213662  	91.901774 
1486.178087  	91.392572 
1487.142511  	90.821904 
1488.106936  	91.007374 
1489.071360  	90.059954 
1490.035785  	88.614534 
1491.000209  	90.101397 
1491.964633  	92.016006 
1492.929058  	92.818444 
1493.893482  	92.898143 
1494.857907  	92.504561 
1495.822331  	91.349951 
1496.786756  	90.700657 
1497.751180  	91.262429 
1498.715605  	90.587801 
1499.680029  	90.553059 
1500.644454  	90.721800 
1501.608878  	89.834272 
1502.573302  	89.181087 
1503.537727  	88.770506 
1504.502151  	87.704761 
1505.466576  	85.720628 
1506.431000  	82.203236 
1507.395425  	81.740286 
1508.359849  	84.553669 
1509.324274  	86.795505 
1510.288698  	88.566335 
1511.253123  	90.152755 
1512.217547  	90.188088 
1513.181971  	91.103551 
1514.146396  	91.641077 
1515.110820  	90.660060 
1516.075245  	89.536994 
1517.039669  	88.146058 
1518.004094  	90.049641 
1518.968518  	91.489292 
1519.932943  	90.479655 
1520.897367  	87.872353 
1521.861792  	88.185803 
1522.826216  	89.680215 
1523.790640  	90.817837 
1524.755065  	90.360519 
1525.719489  	89.833805 
1526.683914  	90.501835 
1527.648338  	90.134501 
1528.612763  	90.591278 
1529.577187  	91.781334 
1530.541612  	92.165187 
1531.506036  	91.334929 
1532.470461  	90.767635 
1533.434885  	89.785587 
1534.399309  	90.137303 
1535.363734  	91.193551 
1536.328158  	91.782729 
1537.292583  	91.913799 
1538.257007  	90.757532 
1539.221432  	87.979960 
1540.185856  	87.647171 
1541.150281  	89.032198 
1542.114705  	89.065369 
1543.079130  	89.137735 
1544.043554  	89.245647 
1545.007979  	88.865313 
1545.972403  	90.097491 
1546.936827  	91.696038 
1547.901252  	92.019633 
1548.865676  	91.408037 
1549.830101  	89.454689 
1550.794525  	90.023904 
1551.758950  	91.660354 
1552.723374  	91.738605 
1553.687799  	90.806868 
1554.652223  	89.733091 
1555.616648  	90.810993 
1556.581072  	91.022529 
1557.545496  	89.721988 
1558.509921  	85.717908 
1559.474345  	85.052180 
1560.438770  	88.110339 
1561.403194  	90.783538 
1562.367619  	91.681810 
1563.332043  	91.905561 
1564.296468  	91.455132 
1565.260892  	91.055378 
1566.225317  	91.680419 
1567.189741  	91.903174 
1568.154165  	91.441269 
1569.118590  	89.981755 
1570.083014  	89.618578 
1571.047439  	91.028695 
1572.011863  	91.362362 
1572.976288  	91.223734 
1573.940712  	91.023893 
1574.905137  	90.490755 
1575.869561  	89.232216 
1576.833986  	88.408077 
1577.798410  	89.343580 
1578.762834  	90.063003 
1579.727259  	90.423206 
1580.691683  	90.735507 
1581.656108  	90.999884 
1582.620532  	91.215270 
1583.584957  	91.443604 
1584.549381  	91.703946 
1585.513806  	91.872743 
1586.478230  	92.018670 
1587.442655  	92.137152 
1588.407079  	92.205457 
1589.371503  	92.092979 
1590.335928  	92.030742 
1591.300352  	92.085429 
1592.264777  	92.125846 
1593.229201  	92.146228 
1594.193626  	91.866432 
1595.158050  	91.760715 
1596.122475  	91.883312 
1597.086899  	91.959101 
1598.051324  	92.063589 
1599.015748  	92.010253 
1599.980173  	91.954824 
1600.944597  	91.739939 
1601.909021  	91.586111 
1602.873446  	91.305959 
1603.837870  	91.273477 
1604.802295  	91.470610 
1605.766719  	91.388807 
1606.731144  	90.968458 
1607.695568  	90.767068 
1608.659993  	90.722961 
1609.624417  	90.319976 
1610.588842  	90.558184 
1611.553266  	90.696726 
1612.517690  	90.588271 
1613.482115  	90.556259 
1614.446539  	90.486166 
1615.410964  	90.096809 
1616.375388  	89.071561 
1617.339813  	88.971830 
1618.304237  	90.054368 
1619.268662  	90.487017 
1620.233086  	90.560116 
1621.197511  	90.563126 
1622.161935  	90.154490 
1623.126359  	89.139198 
1624.090784  	89.254593 
1625.055208  	90.222650 
1626.019633  	90.432816 
1626.984057  	90.149598 
1627.948482  	89.590795 
1628.912906  	90.027956 
1629.877331  	90.361865 
1630.841755  	90.323488 
1631.806180  	90.250956 
1632.770604  	90.215587 
1633.735028  	89.911794 
1634.699453  	88.904956 
1635.663877  	87.019871 
1636.628302  	87.899030 
1637.592726  	88.134695 
1638.557151  	88.943030 
1639.521575  	89.456414 
1640.486000  	89.438971 
1641.450424  	89.437946 
1642.414849  	89.336811 
1643.379273  	89.340493 
1644.343697  	89.207677 
1645.308122  	88.342575 
1646.272546  	86.719812 
1647.236971  	86.046268 
1648.201395  	86.402884 
1649.165820  	87.827521 
1650.130244  	88.417783 
1651.094669  	88.106097 
1652.059093  	87.024973 
1653.023518  	83.726448 
1653.987942  	83.157453 
1654.952366  	85.605783 
1655.916791  	87.137593 
1656.881215  	87.448380 
1657.845640  	87.584137 
1658.810064  	87.647779 
1659.774489  	87.520973 
1660.738913  	87.019434 
1661.703338  	86.306736 
1662.667762  	85.433488 
1663.632187  	85.587830 
1664.596611  	85.891232 
1665.561036  	85.758334 
1666.525460  	85.501741 
1667.489884  	84.781656 
1668.454309  	83.198274 
1669.418733  	82.114726 
1670.383158  	82.764811 
1671.347582  	82.389770 
1672.312007  	82.439142 
1673.276431  	82.753383 
1674.240856  	82.144034 
1675.205280  	80.710556 
1676.169705  	80.701919 
1677.134129  	81.190484 
1678.098553  	80.943914 
1679.062978  	80.134573 
1680.027402  	78.437034 
1680.991827  	78.102649 
1681.956251  	78.441288 
1682.920676  	77.186928 
1683.885100  	73.689311 
1684.849525  	73.607545 
1685.813949  	76.558664 
1686.778374  	77.052169 
1687.742798  	76.284690 
1688.707222  	75.392323 
1689.671647  	75.080840 
1690.636071  	74.629068 
1691.600496  	74.407159 
1692.564920  	73.709214 
1693.529345  	72.653374 
1694.493769  	71.299743 
1695.458194  	69.235336 
1696.422618  	67.081605 
1697.387043  	66.837497 
1698.351467  	66.090121 
1699.315891  	64.613826 
1700.280316  	61.291184 
1701.244740  	60.808617 
1702.209165  	60.937543 
1703.173589  	60.076375 
1704.138014  	58.522962 
1705.102438  	57.144292 
1706.066863  	56.187231 
1707.031287  	55.233118 
1707.995712  	55.049266 
1708.960136  	54.708837 
1709.924560  	53.951808 
1710.888985  	53.643525 
1711.853409  	53.834867 
1712.817834  	53.762123 
1713.782258  	53.486335 
1714.746683  	53.379596 
1715.711107  	54.429618 
1716.675532  	55.178860 
1717.639956  	55.058908 
1718.604381  	56.723761 
1719.568805  	59.416302 
1720.533230  	61.026873 
1721.497654  	62.185138 
1722.462078  	63.212883 
1723.426503  	64.015797 
1724.390927  	65.375981 
1725.355352  	66.692596 
1726.319776  	67.800749 
1727.284201  	68.902064 
1728.248625  	69.976639 
1729.213050  	70.362764 
1730.177474  	70.628141 
1731.141899  	72.617365 
1732.106323  	73.755525 
1733.070747  	73.485204 
1734.035172  	72.748375 
1734.999596  	75.990321 
1735.964021  	78.737438 
1736.928445  	80.019926 
1737.892870  	81.073733 
1738.857294  	81.759926 
1739.821719  	82.276405 
1740.786143  	84.336979 
1741.750568  	85.721892 
1742.714992  	85.791682 
1743.679416  	85.878932 
1744.643841  	87.537885 
1745.608265  	88.796203 
1746.572690  	89.110973 
1747.537114  	89.194658 
1748.501539  	89.315826 
1749.465963  	89.920036 
1750.430388  	90.470823 
1751.394812  	89.997203 
1752.359237  	91.508339 
1753.323661  	92.813640 
1754.288085  	93.453279 
1755.252510  	93.648815 
1756.216934  	93.008873 
1757.181359  	92.433637 
1758.145783  	93.190001 
1759.110208  	93.708170 
1760.074632  	93.943557 
1761.039057  	93.361423 
1762.003481  	92.423452 
1762.967906  	93.484901 
1763.932330  	94.217789 
1764.896754  	94.423308 
1765.861179  	94.514656 
1766.825603  	94.294782 
1767.790028  	93.263842 
1768.754452  	93.045713 
1769.718877  	94.105290 
1770.683301  	93.819110 
1771.647726  	92.686496 
1772.612150  	92.259667 
1773.576575  	93.394755 
1774.540999  	94.058803 
1775.505423  	93.684708 
1776.469848  	93.995073 
1777.434272  	94.679141 
1778.398697  	94.502261 
1779.363121  	94.170784 
1780.327546  	93.683863 
1781.291970  	93.586525 
1782.256395  	94.355582 
1783.220819  	94.703582 
1784.185244  	94.349994 
1785.149668  	93.781750 
1786.114093  	94.393116 
1787.078517  	94.792978 
1788.042941  	94.805274 
1789.007366  	94.744632 
1789.971790  	94.343946 
1790.936215  	93.322402 
1791.900639  	92.849132 
1792.865064  	92.815173 
1793.829488  	93.851873 
1794.793913  	94.274121 
1795.758337  	93.580491 
1796.722762  	93.609967 
1797.687186  	94.416734 
1798.651610  	94.444920 
1799.616035  	93.840267 
1800.580459  	93.799286 
1801.544884  	93.580689 
1802.509308  	93.388385 
1803.473733  	94.206641 
1804.438157  	94.717427 
1805.402582  	94.699802 
1806.367006  	94.663628 
1807.331431  	94.377331 
1808.295855  	94.262814 
1809.260279  	94.605877 
1810.224704  	94.133229 
1811.189128  	93.737569 
1812.153553  	94.074835 
1813.117977  	94.421272 
1814.082402  	94.794131 
1815.046826  	94.847084 
1816.011251  	94.865971 
1816.975675  	94.564300 
1817.940100  	94.379397 
1818.904524  	94.706083 
1819.868948  	94.835637 
1820.833373  	94.784174 
1821.797797  	94.692126 
1822.762222  	94.507225 
1823.726646  	94.495735 
1824.691071  	93.865835 
1825.655495  	93.197803 
1826.619920  	94.272860 
1827.584344  	94.727984 
1828.548769  	94.252077 
1829.513193  	92.970423 
1830.477617  	92.997107 
1831.442042  	94.292810 
1832.406466  	94.676762 
1833.370891  	94.532121 
1834.335315  	94.770247 
1835.299740  	94.994543 
1836.264164  	94.794176 
1837.228589  	94.289847 
1838.193013  	94.546461 
1839.157438  	94.915852 
1840.121862  	95.001726 
1841.086287  	94.976123 
1842.050711  	94.618864 
1843.015135  	94.243708 
1843.979560  	93.370079 
1844.943984  	93.201639 
1845.908409  	94.160349 
1846.872833  	94.473788 
1847.837258  	94.080448 
1848.801682  	94.372045 
1849.766107  	95.018344 
1850.730531  	95.248817 
1851.694956  	95.260687 
1852.659380  	95.165774 
1853.623804  	95.204200 
1854.588229  	95.234910 
1855.552653  	95.236931 
1856.517078  	95.243635 
1857.481502  	95.203549 
1858.445927  	95.007735 
1859.410351  	94.975630 
1860.374776  	95.065841 
1861.339200  	95.019430 
1862.303625  	95.096447 
1863.268049  	95.239846 
1864.232473  	95.211765 
1865.196898  	95.190371 
1866.161322  	94.858355 
1867.125747  	94.376351 
1868.090171  	93.769760 
1869.054596  	93.375164 
1870.019020  	93.961900 
1870.983445  	94.695841 
1871.947869  	95.190236 
1872.912294  	95.512033 
1873.876718  	95.539329 
1874.841142  	95.490193 
1875.805567  	95.431181 
1876.769991  	95.360743 
1877.734416  	95.380403 
1878.698840  	95.345955 
1879.663265  	95.231247 
1880.627689  	95.255218 
1881.592114  	95.270794 
1882.556538  	95.316096 
1883.520963  	95.405209 
1884.485387  	95.248021 
1885.449811  	95.099952 
1886.414236  	95.350850 
1887.378660  	95.425115 
1888.343085  	95.191411 
1889.307509  	94.429100 
1890.271934  	94.352700 
1891.236358  	95.010903 
1892.200783  	95.249497 
1893.165207  	95.332103 
1894.129632  	95.180996 
1895.094056  	94.697552 
1896.058480  	94.874946 
1897.022905  	95.297090 
1897.987329  	95.328455 
1898.951754  	95.290962 
1899.916178  	95.320814 
1900.880603  	95.287619 
1901.845027  	95.141940 
1902.809452  	95.256943 
1903.773876  	95.361489 
1904.738301  	95.271999 
1905.702725  	95.220586 
1906.667150  	95.189540 
1907.631574  	94.859247 
1908.595998  	94.701412 
1909.560423  	94.563191 
1910.524847  	94.591164 
1911.489272  	95.171944 
1912.453696  	95.283123 
1913.418121  	95.266826 
1914.382545  	95.242969 
1915.346970  	95.255096 
1916.311394  	95.198664 
1917.275819  	94.812824 
1918.240243  	94.068550 
1919.204667  	94.561206 
1920.169092  	95.050838 
1921.133516  	95.143422 
1922.097941  	94.564017 
1923.062365  	93.796315 
1924.026790  	94.523091 
1924.991214  	95.177002 
1925.955639  	95.177184 
1926.920063  	95.211281 
1927.884488  	95.180022 
1928.848912  	95.237382 
1929.813336  	95.356550 
1930.777761  	95.331560 
1931.742185  	95.218111 
1932.706610  	95.326279 
1933.671034  	95.342756 
1934.635459  	95.355244 
1935.599883  	95.301237 
1936.564308  	95.233259 
1937.528732  	95.104387 
1938.493157  	95.147839 
1939.457581  	95.269855 
1940.422005  	95.179382 
1941.386430  	94.785870 
1942.350854  	93.799823 
1943.315279  	93.845774 
1944.279703  	94.778650 
1945.244128  	94.757368 
1946.208552  	94.679328 
1947.172977  	94.763049 
1948.137401  	94.962451 
1949.101826  	94.893350 
1950.066250  	95.028387 
1951.030674  	95.056145 
1951.995099  	94.979938 
1952.959523  	94.973154 
1953.923948  	94.802057 
1954.888372  	94.700559 
1955.852797  	94.902927 
1956.817221  	94.974669 
1957.781646  	95.023075 
1958.746070  	95.067790 
1959.710495  	95.086734 
1960.674919  	94.914159 
1961.639344  	94.799472 
1962.603768  	94.638608 
1963.568192  	94.738647 
1964.532617  	95.087178 
1965.497041  	95.232241 
1966.461466  	95.019925 
1967.425890  	94.585219 
1968.390315  	95.074655 
1969.354739  	95.437415 
1970.319164  	95.084805 
1971.283588  	95.108708 
1972.248013  	95.249523 
1973.212437  	95.357902 
1974.176861  	95.147340 
1975.141286  	95.175909 
1976.105710  	95.638625 
1977.070135  	95.852019 
1978.034559  	95.435441 
1978.998984  	95.020435 
1979.963408  	94.810439 
1980.927833  	94.936746 
1981.892257  	95.105884 
1982.856682  	95.275288 
1983.821106  	95.335841 
1984.785530  	95.404884 
1985.749955  	95.345963 
1986.714379  	95.279854 
1987.678804  	95.135120 
1988.643228  	94.895057 
1989.607653  	95.151919 
1990.572077  	95.241930 
1991.536502  	94.647462 
1992.500926  	94.291213 
1993.465351  	94.698147 
1994.429775  	95.136700 
1995.394199  	95.244554 
1996.358624  	95.347608 
1997.323048  	95.229205 
1998.287473  	94.998312 
1999.251897  	95.176052 
2000.216322  	95.519667 
2001.180746  	95.715868 
2002.145171  	95.744333 
2003.109595  	95.959159 
2004.074020  	96.247032 
2005.038444  	96.261249 
2006.002868  	96.002787 
2006.967293  	95.819775 
2007.931717  	95.569289 
2008.896142  	95.633138 
2009.860566  	95.894085 
2010.824991  	95.739170 
2011.789415  	95.557075 
2012.753840  	95.529350 
2013.718264  	95.497132 
2014.682689  	95.351511 
2015.647113  	95.489643 
2016.611537  	95.433672 
2017.575962  	95.345526 
2018.540386  	95.296201 
2019.504811  	95.509727 
2020.469235  	95.886010 
2021.433660  	96.160165 
2022.398084  	96.116300 
2023.362509  	96.073544 
2024.326933  	96.040114 
2025.291358  	95.964984 
2026.255782  	95.886107 
2027.220207  	95.783440 
2028.184631  	95.734614 
2029.149055  	96.144627 
2030.113480  	96.408896 
2031.077904  	96.417405 
2032.042329  	95.940544 
2033.006753  	95.739216 
2033.971178  	95.983924 
2034.935602  	95.962279 
2035.900027  	95.805518 
2036.864451  	95.892528 
2037.828876  	95.830406 
2038.793300  	95.868442 
2039.757724  	95.611869 
2040.722149  	95.220424 
2041.686573  	94.949246 
2042.650998  	95.201980 
2043.615422  	95.309142 
2044.579847  	95.554024 
2045.544271  	95.640420 
2046.508696  	95.669167 
2047.473120  	95.790031 
2048.437545  	95.816078 
2049.401969  	95.739455 
2050.366393  	95.585930 
2051.330818  	95.455972 
2052.295242  	95.693257 
2053.259667  	95.845514 
2054.224091  	95.557258 
2055.188516  	95.250686 
2056.152940  	95.345751 
2057.117365  	95.306040 
2058.081789  	95.328848 
2059.046214  	95.317983 
2060.010638  	95.299561 
2060.975062  	95.266138 
2061.939487  	95.284772 
2062.903911  	95.273331 
2063.868336  	95.115640 
2064.832760  	94.840941 
2065.797185  	95.011514 
2066.761609  	95.247566 
2067.726034  	95.257427 
2068.690458  	95.322215 
2069.654883  	95.401682 
2070.619307  	95.397199 
2071.583731  	95.348867 
2072.548156  	95.178621 
2073.512580  	94.977647 
2074.477005  	94.855648 
2075.441429  	95.103561 
2076.405854  	95.190595 
2077.370278  	95.118158 
2078.334703  	95.121037 
2079.299127  	95.125185 
2080.263552  	95.136116 
2081.227976  	95.123861 
2082.192401  	95.050501 
2083.156825  	95.007258 
2084.121249  	95.088187 
2085.085674  	95.273378 
2086.050098  	95.235421 
2087.014523  	94.990618 
2087.978947  	94.929029 
2088.943372  	95.029477 
2089.907796  	95.037548 
2090.872221  	95.057319 
2091.836645  	95.275409 
2092.801070  	95.359979 
2093.765494  	95.328523 
2094.729918  	95.219404 
2095.694343  	95.103838 
2096.658767  	95.097666 
2097.623192  	95.080011 
2098.587616  	95.081527 
2099.552041  	95.142954 
2100.516465  	95.133837 
2101.480890  	95.137063 
2102.445314  	95.076831 
2103.409739  	94.967860 
2104.374163  	94.960166 
2105.338587  	94.921719 
2106.303012  	94.878540 
2107.267436  	94.982919 
2108.231861  	95.010666 
2109.196285  	94.978798 
2110.160710  	95.030555 
2111.125134  	95.028145 
2112.089559  	95.023497 
2113.053983  	95.100186 
2114.018408  	95.069151 
2114.982832  	95.014514 
2115.947256  	94.944782 
2116.911681  	95.025908 
2117.876105  	95.184727 
2118.840530  	95.154661 
2119.804954  	95.193021 
2120.769379  	95.154744 
2121.733803  	95.187919 
2122.698228  	95.321971 
2123.662652  	95.339059 
2124.627077  	95.276019 
2125.591501  	95.345387 
2126.555925  	95.472858 
2127.520350  	95.465583 
2128.484774  	95.471420 
2129.449199  	95.595994 
2130.413623  	95.494340 
2131.378048  	95.402059 
2132.342472  	95.556659 
2133.306897  	95.616334 
2134.271321  	95.470554 
2135.235746  	95.223315 
2136.200170  	95.264063 
2137.164594  	95.660233 
2138.129019  	95.949480 
2139.093443  	95.718602 
2140.057868  	95.501222 
2141.022292  	95.689713 
2141.986717  	95.798068 
2142.951141  	95.655361 
2143.915566  	95.798893 
2144.879990  	95.723274 
2145.844415  	95.748979 
2146.808839  	95.760279 
2147.773264  	95.758515 
2148.737688  	95.918211 
2149.702112  	96.010976 
2150.666537  	95.955943 
2151.630961  	95.960596 
2152.595386  	96.153337 
2153.559810  	96.308490 
2154.524235  	96.488595 
2155.488659  	96.510850 
2156.453084  	96.679504 
2157.417508  	96.605741 
2158.381933  	96.226318 
2159.346357  	95.928680 
2160.310781  	95.569240 
2161.275206  	94.984706 
2162.239630  	95.157272 
2163.204055  	95.654583 
2164.168479  	95.738128 
2165.132904  	95.484134 
2166.097328  	95.490347 
2167.061753  	95.842784 
2168.026177  	95.754049 
2168.990602  	95.350585 
2169.955026  	95.440554 
2170.919450  	95.830436 
2171.883875  	95.818347 
2172.848299  	95.820732 
2173.812724  	95.959855 
2174.777148  	96.018958 
2175.741573  	95.801366 
2176.705997  	95.435501 
2177.670422  	95.569085 
2178.634846  	95.950027 
2179.599271  	95.964931 
2180.563695  	95.838831 
2181.528119  	95.906634 
2182.492544  	95.945759 
2183.456968  	95.521212 
2184.421393  	95.276988 
2185.385817  	95.628880 
2186.350242  	95.676820 
2187.314666  	95.404247 
2188.279091  	95.413955 
2189.243515  	95.322994 
2190.207940  	95.265767 
2191.172364  	95.532536 
2192.136788  	95.720710 
2193.101213  	95.800966 
2194.065637  	95.688408 
2195.030062  	95.341827 
2195.994486  	95.044460 
2196.958911  	95.243727 
2197.923335  	95.373298 
2198.887760  	95.443995 
2199.852184  	95.598777 
2200.816609  	95.589695 
2201.781033  	95.598124 
2202.745458  	95.622674 
2203.709882  	95.520549 
2204.674306  	95.339567 
2205.638731  	95.171753 
2206.603155  	95.174656 
2207.567580  	95.287423 
2208.532004  	95.367870 
2209.496429  	95.332606 
2210.460853  	95.316452 
2211.425278  	95.449857 
2212.389702  	95.327012 
2213.354127  	95.136747 
2214.318551  	95.191962 
2215.282975  	95.246337 
2216.247400  	95.269203 
2217.211824  	95.368632 
2218.176249  	95.419080 
2219.140673  	95.451991 
2220.105098  	95.319531 
2221.069522  	95.226867 
2222.033947  	95.359020 
2222.998371  	95.219970 
2223.962796  	95.101768 
2224.927220  	95.207136 
2225.891644  	95.162424 
2226.856069  	95.168337 
2227.820493  	95.127487 
2228.784918  	95.099488 
2229.749342  	95.238814 
2230.713767  	95.321509 
2231.678191  	95.204085 
2232.642616  	95.004603 
2233.607040  	95.137028 
2234.571465  	95.194886 
2235.535889  	95.105483 
2236.500313  	95.089000 
2237.464738  	95.067159 
2238.429162  	95.087816 
2239.393587  	95.062262 
2240.358011  	95.076652 
2241.322436  	95.332711 
2242.286860  	95.243325 
2243.251285  	95.038060 
2244.215709  	95.019726 
2245.180134  	94.919388 
2246.144558  	94.895178 
2247.108982  	95.009099 
2248.073407  	94.983635 
2249.037831  	94.947171 
2250.002256  	94.979661 
2250.966680  	95.130379 
2251.931105  	95.151253 
2252.895529  	95.048286 
2253.859954  	94.908446 
2254.824378  	94.942346 
2255.788803  	94.997042 
2256.753227  	95.005454 
2257.717651  	95.111274 
2258.682076  	95.043363 
2259.646500  	94.947941 
2260.610925  	94.894229 
2261.575349  	94.856867 
2262.539774  	94.880083 
2263.504198  	94.910297 
2264.468623  	94.887784 
2265.433047  	94.812756 
2266.397472  	94.844982 
2267.361896  	94.886245 
2268.326321  	94.903517 
2269.290745  	94.900897 
2270.255169  	94.857946 
2271.219594  	94.856701 
2272.184018  	94.893748 
2273.148443  	94.932240 
2274.112867  	94.880682 
2275.077292  	94.776852 
2276.041716  	94.704767 
2277.006141  	94.737766 
2277.970565  	94.756983 
2278.934990  	94.730727 
2279.899414  	94.729546 
2280.863838  	94.752469 
2281.828263  	94.687501 
2282.792687  	94.623470 
2283.757112  	94.646077 
2284.721536  	94.608556 
2285.685961  	94.552698 
2286.650385  	94.616917 
2287.614810  	94.649185 
2288.579234  	94.555433 
2289.543659  	94.498347 
2290.508083  	94.559888 
2291.472507  	94.569777 
2292.436932  	94.639504 
2293.401356  	94.624497 
2294.365781  	94.499926 
2295.330205  	94.522665 
2296.294630  	94.475104 
2297.259054  	94.494873 
2298.223479  	94.392596 
2299.187903  	94.357866 
2300.152328  	94.438625 
2301.116752  	94.463278 
2302.081176  	94.493085 
2303.045601  	94.400865 
2304.010025  	94.477860 
2304.974450  	94.321692 
2305.938874  	94.314510 
2306.903299  	94.241388 
2307.867723  	94.297264 
2308.832148  	94.202478 
2309.796572  	94.193096 
2310.760997  	94.169051 
2311.725421  	94.197321 
2312.689845  	94.376774 
2313.654270  	94.419020 
2314.618694  	94.472227 
2315.583119  	94.594316 
2316.547543  	94.643019 
2317.511968  	94.680491 
2318.476392  	94.642322 
2319.440817  	94.596806 
2320.405241  	94.569491 
2321.369666  	94.643852 
2322.334090  	94.789828 
2323.298515  	94.851329 
2324.262939  	94.831787 
2325.227363  	95.172911 
2326.191788  	95.499021 
2327.156212  	95.678222 
2328.120637  	95.731276 
2329.085061  	95.802503 
2330.049486  	95.815859 
2331.013910  	95.786818 
2331.978335  	95.894579 
2332.942759  	96.147232 
2333.907184  	96.307202 
2334.871608  	96.363359 
2335.836032  	96.481667 
2336.800457  	96.637790 
2337.764881  	96.637288 
2338.729306  	96.599910 
2339.693730  	96.554732 
2340.658155  	96.672206 
2341.622579  	96.712013 
2342.587004  	96.574573 
2343.551428  	96.380661 
2344.515853  	96.131121 
2345.480277  	95.960688 
2346.444701  	95.722499 
2347.409126  	95.453437 
2348.373550  	95.097696 
2349.337975  	94.968477 
2350.302399  	95.212541 
2351.266824  	95.620202 
2352.231248  	96.102392 
2353.195673  	96.336017 
2354.160097  	96.333916 
2355.124522  	96.398152 
2356.088946  	96.702051 
2357.053370  	96.928448 
2358.017795  	97.176737 
2358.982219  	97.209195 
2359.946644  	97.289916 
2360.911068  	97.285226 
2361.875493  	97.133180 
2362.839917  	97.058440 
2363.804342  	97.064133 
2364.768766  	96.934008 
2365.733191  	96.827079 
2366.697615  	96.654800 
2367.662039  	96.421967 
2368.626464  	96.226414 
2369.590888  	95.968819 
2370.555313  	95.663969 
2371.519737  	95.454888 
2372.484162  	95.294597 
2373.448586  	95.151548 
2374.413011  	95.006482 
2375.377435  	94.788681 
2376.341860  	94.571269 
2377.306284  	94.494878 
2378.270708  	94.437588 
2379.235133  	94.341614 
2380.199557  	94.342083 
2381.163982  	94.385460 
2382.128406  	94.426151 
2383.092831  	94.464830 
2384.057255  	94.516553 
2385.021680  	94.560784 
2385.986104  	94.660634 
2386.950529  	94.741698 
2387.914953  	94.813525 
2388.879378  	94.825253 
2389.843802  	94.847179 
2390.808226  	94.857403 
2391.772651  	94.836075 
2392.737075  	94.841191 
2393.701500  	94.867094 
2394.665924  	94.880690 
2395.630349  	94.880727 
2396.594773  	94.853787 
2397.559198  	94.864752 
2398.523622  	94.920946 
2399.488047  	94.947579 
2400.452471  	94.927592 
2401.416895  	94.901072 
2402.381320  	94.878979 
2403.345744  	94.894634 
2404.310169  	94.917204 
2405.274593  	94.908803 
2406.239018  	94.875079 
2407.203442  	94.837805 
2408.167867  	94.827488 
2409.132291  	94.884228 
2410.096716  	94.943303 
2411.061140  	94.880416 
2412.025564  	94.848835 
2412.989989  	94.849424 
2413.954413  	94.864814 
2414.918838  	94.912608 
2415.883262  	94.911425 
2416.847687  	94.862370 
2417.812111  	94.875009 
2418.776536  	94.887712 
2419.740960  	94.880201 
2420.705385  	94.890159 
2421.669809  	94.840411 
2422.634233  	94.846634 
2423.598658  	94.864453 
2424.563082  	94.847545 
2425.527507  	94.860600 
2426.491931  	94.884065 
2427.456356  	94.871415 
2428.420780  	94.947141 
2429.385205  	94.951489 
2430.349629  	94.900874 
2431.314054  	94.851420 
2432.278478  	94.891074 
2433.242902  	94.923829 
2434.207327  	94.904851 
2435.171751  	94.963858 
2436.136176  	94.989136 
2437.100600  	94.974592 
2438.065025  	94.905367 
2439.029449  	94.921974 
2439.993874  	94.914834 
2440.958298  	94.892240 
2441.922723  	94.830913 
2442.887147  	94.822774 
2443.851572  	94.932956 
2444.815996  	94.985524 
2445.780420  	94.912854 
2446.744845  	94.814702 
2447.709269  	94.875718 
2448.673694  	94.910181 
2449.638118  	94.856642 
2450.602543  	94.812882 
2451.566967  	94.786830 
2452.531392  	94.840618 
2453.495816  	94.885850 
2454.460241  	94.894727 
2455.424665  	94.871000 
2456.389089  	94.833099 
2457.353514  	94.859333 
2458.317938  	94.876299 
2459.282363  	94.891835 
2460.246787  	94.933146 
2461.211212  	94.913819 
2462.175636  	94.899601 
2463.140061  	94.897917 
2464.104485  	94.918842 
2465.068910  	94.926295 
2466.033334  	94.887611 
2466.997758  	94.908802 
2467.962183  	94.965611 
2468.926607  	94.941143 
2469.891032  	94.877153 
2470.855456  	94.891916 
2471.819881  	94.938053 
2472.784305  	94.959223 
2473.748730  	94.929962 
2474.713154  	94.957126 
2475.677579  	94.952069 
2476.642003  	94.899439 
2477.606427  	94.883058 
2478.570852  	94.944084 
2479.535276  	94.963738 
2480.499701  	94.932733 
2481.464125  	94.911507 
2482.428550  	94.939684 
2483.392974  	94.974111 
2484.357399  	94.986709 
2485.321823  	94.903591 
2486.286248  	94.805811 
2487.250672  	94.791778 
2488.215096  	94.853974 
2489.179521  	94.864359 
2490.143945  	94.824585 
2491.108370  	94.763328 
2492.072794  	94.782757 
2493.037219  	94.834747 
2494.001643  	94.858964 
2494.966068  	94.924951 
2495.930492  	94.973577 
2496.894917  	94.890849 
2497.859341  	94.829407 
2498.823765  	94.854064 
2499.788190  	94.905221 
2500.752614  	94.896263 
2501.717039  	94.827971 
2502.681463  	94.784084 
2503.645888  	94.794702 
2504.610312  	94.808173 
2505.574737  	94.824573 
2506.539161  	94.841818 
2507.503586  	94.872730 
2508.468010  	94.873159 
2509.432435  	94.811573 
2510.396859  	94.782290 
2511.361283  	94.811885 
2512.325708  	94.756953 
2513.290132  	94.725827 
2514.254557  	94.790515 
2515.218981  	94.833548 
2516.183406  	94.835274 
2517.147830  	94.875722 
2518.112255  	94.810389 
2519.076679  	94.762843 
2520.041104  	94.782556 
2521.005528  	94.762701 
2521.969952  	94.710423 
2522.934377  	94.709719 
2523.898801  	94.760969 
2524.863226  	94.802542 
2525.827650  	94.771405 
2526.792075  	94.756721 
2527.756499  	94.723549 
2528.720924  	94.775565 
2529.685348  	94.704684 
2530.649773  	94.625199 
2531.614197  	94.693832 
2532.578621  	94.776331 
2533.543046  	94.799342 
2534.507470  	94.805014 
2535.471895  	94.778653 
2536.436319  	94.734256 
2537.400744  	94.742085 
2538.365168  	94.708024 
2539.329593  	94.690406 
2540.294017  	94.691374 
2541.258442  	94.691815 
2542.222866  	94.699937 
2543.187290  	94.749950 
2544.151715  	94.797752 
2545.116139  	94.784375 
2546.080564  	94.732371 
2547.044988  	94.642781 
2548.009413  	94.617473 
2548.973837  	94.671170 
2549.938262  	94.697299 
2550.902686  	94.684058 
2551.867111  	94.678468 
2552.831535  	94.632333 
2553.795959  	94.638580 
2554.760384  	94.632082 
2555.724808  	94.585580 
2556.689233  	94.588460 
2557.653657  	94.620237 
2558.618082  	94.655696 
2559.582506  	94.729866 
2560.546931  	94.742006 
2561.511355  	94.673879 
2562.475780  	94.630615 
2563.440204  	94.626431 
2564.404629  	94.646826 
2565.369053  	94.680830 
2566.333477  	94.676990 
2567.297902  	94.730037 
2568.262326  	94.714694 
2569.226751  	94.614176 
2570.191175  	94.597315 
2571.155600  	94.652395 
2572.120024  	94.669474 
2573.084449  	94.691345 
2574.048873  	94.691408 
2575.013298  	94.639132 
2575.977722  	94.639186 
2576.942146  	94.681203 
2577.906571  	94.687752 
2578.870995  	94.684282 
2579.835420  	94.650248 
2580.799844  	94.630678 
2581.764269  	94.615011 
2582.728693  	94.636554 
2583.693118  	94.599544 
2584.657542  	94.577553 
2585.621967  	94.626517 
2586.586391  	94.608396 
2587.550815  	94.601110 
2588.515240  	94.636701 
2589.479664  	94.630233 
2590.444089  	94.607981 
2591.408513  	94.628921 
2592.372938  	94.640329 
2593.337362  	94.611817 
2594.301787  	94.589407 
2595.266211  	94.610474 
2596.230636  	94.646343 
2597.195060  	94.670004 
2598.159484  	94.674437 
2599.123909  	94.697223 
2600.088333  	94.741517 
2601.052758  	94.711770 
2602.017182  	94.663699 
2602.981607  	94.634678 
2603.946031  	94.631217 
2604.910456  	94.681678 
2605.874880  	94.720323 
2606.839305  	94.674620 
2607.803729  	94.631449 
2608.768153  	94.631691 
2609.732578  	94.640258 
2610.697002  	94.627990 
2611.661427  	94.640226 
2612.625851  	94.646841 
2613.590276  	94.670805 
2614.554700  	94.648660 
2615.519125  	94.616165 
2616.483549  	94.622109 
2617.447974  	94.581026 
2618.412398  	94.604524 
2619.376822  	94.629946 
2620.341247  	94.627930 
2621.305671  	94.587390 
2622.270096  	94.567879 
2623.234520  	94.597628 
2624.198945  	94.571087 
2625.163369  	94.592955 
2626.127794  	94.598869 
2627.092218  	94.561848 
2628.056643  	94.553489 
2629.021067  	94.553589 
2629.985492  	94.589347 
2630.949916  	94.628443 
2631.914340  	94.592268 
2632.878765  	94.560883 
2633.843189  	94.605123 
2634.807614  	94.596085 
2635.772038  	94.574830 
2636.736463  	94.561386 
2637.700887  	94.559416 
2638.665312  	94.570713 
2639.629736  	94.576252 
2640.594161  	94.589484 
2641.558585  	94.615740 
2642.523009  	94.604775 
2643.487434  	94.613744 
2644.451858  	94.650907 
2645.416283  	94.627390 
2646.380707  	94.598982 
2647.345132  	94.590948 
2648.309556  	94.627732 
2649.273981  	94.644235 
2650.238405  	94.652341 
2651.202830  	94.648458 
2652.167254  	94.616569 
2653.131678  	94.623252 
2654.096103  	94.651744 
2655.060527  	94.642898 
2656.024952  	94.635572 
2656.989376  	94.621293 
2657.953801  	94.605998 
2658.918225  	94.639392 
2659.882650  	94.643414 
2660.847074  	94.627872 
2661.811499  	94.653455 
2662.775923  	94.668119 
2663.740347  	94.691676 
2664.704772  	94.683743 
2665.669196  	94.707991 
2666.633621  	94.716454 
2667.598045  	94.695813 
2668.562470  	94.679309 
2669.526894  	94.682953 
2670.491319  	94.682964 
2671.455743  	94.712857 
2672.420168  	94.730581 
2673.384592  	94.714035 
2674.349016  	94.713268 
2675.313441  	94.721144 
2676.277865  	94.726483 
2677.242290  	94.723247 
2678.206714  	94.725999 
2679.171139  	94.718964 
2680.135563  	94.701508 
2681.099988  	94.706568 
2682.064412  	94.707173 
2683.028837  	94.706645 
2683.993261  	94.699196 
2684.957686  	94.692400 
2685.922110  	94.699800 
2686.886534  	94.668272 
2687.850959  	94.664444 
2688.815383  	94.706585 
2689.779808  	94.717263 
2690.744232  	94.698962 
2691.708657  	94.711224 
2692.673081  	94.725293 
2693.637506  	94.702788 
2694.601930  	94.712175 
2695.566355  	94.731440 
2696.530779  	94.716454 
2697.495203  	94.696387 
2698.459628  	94.695650 
2699.424052  	94.694038 
2700.388477  	94.654813 
2701.352901  	94.605946 
2702.317326  	94.626631 
2703.281750  	94.685364 
2704.246175  	94.704319 
2705.210599  	94.692075 
2706.175024  	94.687651 
2707.139448  	94.692936 
2708.103872  	94.671299 
2709.068297  	94.665777 
2710.032721  	94.666975 
2710.997146  	94.652566 
2711.961570  	94.661761 
2712.925995  	94.696840 
2713.890419  	94.704162 
2714.854844  	94.698665 
2715.819268  	94.713716 
2716.783693  	94.696895 
2717.748117  	94.680475 
2718.712541  	94.677649 
2719.676966  	94.684472 
2720.641390  	94.677579 
2721.605815  	94.674632 
2722.570239  	94.685056 
2723.534664  	94.685758 
2724.499088  	94.655551 
2725.463513  	94.661483 
2726.427937  	94.697493 
2727.392362  	94.700179 
2728.356786  	94.664976 
2729.321210  	94.638087 
2730.285635  	94.624731 
2731.250059  	94.608713 
2732.214484  	94.614778 
2733.178908  	94.627927 
2734.143333  	94.614723 
2735.107757  	94.601219 
2736.072182  	94.631221 
2737.036606  	94.644952 
2738.001031  	94.616908 
2738.965455  	94.589813 
2739.929879  	94.584303 
2740.894304  	94.592809 
2741.858728  	94.587376 
2742.823153  	94.571588 
2743.787577  	94.578455 
2744.752002  	94.583256 
2745.716426  	94.580133 
2746.680851  	94.569449 
2747.645275  	94.565243 
2748.609700  	94.577961 
2749.574124  	94.589806 
2750.538549  	94.585900 
2751.502973  	94.537148 
2752.467397  	94.527862 
2753.431822  	94.562159 
2754.396246  	94.559955 
2755.360671  	94.555432 
2756.325095  	94.575467 
2757.289520  	94.569948 
2758.253944  	94.583514 
2759.218369  	94.584962 
2760.182793  	94.559088 
2761.147218  	94.541795 
2762.111642  	94.534082 
2763.076066  	94.545230 
2764.040491  	94.582063 
2765.004915  	94.586492 
2765.969340  	94.587536 
2766.933764  	94.564372 
2767.898189  	94.537820 
2768.862613  	94.550289 
2769.827038  	94.557471 
2770.791462  	94.549687 
2771.755887  	94.543320 
2772.720311  	94.534394 
2773.684735  	94.526380 
2774.649160  	94.507722 
2775.613584  	94.502668 
2776.578009  	94.513236 
2777.542433  	94.507528 
2778.506858  	94.503327 
2779.471282  	94.521085 
2780.435707  	94.506254 
2781.400131  	94.497676 
2782.364556  	94.514102 
2783.328980  	94.510419 
2784.293404  	94.479550 
2785.257829  	94.474221 
2786.222253  	94.503445 
2787.186678  	94.534187 
2788.151102  	94.499424 
2789.115527  	94.499010 
2790.079951  	94.503102 
2791.044376  	94.490760 
2792.008800  	94.462085 
2792.973225  	94.439578 
2793.937649  	94.448096 
2794.902073  	94.440867 
2795.866498  	94.437505 
2796.830922  	94.454169 
2797.795347  	94.463940 
2798.759771  	94.450158 
2799.724196  	94.402767 
2800.688620  	94.388889 
2801.653045  	94.392971 
2802.617469  	94.402980 
2803.581894  	94.415935 
2804.546318  	94.423749 
2805.510743  	94.431051 
2806.475167  	94.406674 
2807.439591  	94.358148 
2808.404016  	94.347382 
2809.368440  	94.389683 
2810.332865  	94.400262 
2811.297289  	94.322297 
2812.261714  	94.295557 
2813.226138  	94.341227 
2814.190563  	94.357983 
2815.154987  	94.385337 
2816.119412  	94.369592 
2817.083836  	94.322536 
2818.048260  	94.328363 
2819.012685  	94.355721 
2819.977109  	94.375122 
2820.941534  	94.356915 
2821.905958  	94.333868 
2822.870383  	94.322713 
2823.834807  	94.337315 
2824.799232  	94.309026 
2825.763656  	94.305927 
2826.728081  	94.314558 
2827.692505  	94.297988 
2828.656929  	94.318025 
2829.621354  	94.347254 
2830.585778  	94.309018 
2831.550203  	94.249516 
2832.514627  	94.219504 
2833.479052  	94.210741 
2834.443476  	94.195321 
2835.407901  	94.190682 
2836.372325  	94.173807 
2837.336750  	94.151848 
2838.301174  	94.110901 
2839.265598  	94.070627 
2840.230023  	94.040188 
2841.194447  	93.990206 
2842.158872  	93.917442 
2843.123296  	93.825886 
2844.087721  	93.730073 
2845.052145  	93.623049 
2846.016570  	93.475524 
2846.980994  	93.292437 
2847.945419  	93.101074 
2848.909843  	92.946726 
2849.874267  	92.858840 
2850.838692  	92.895478 
2851.803116  	93.007382 
2852.767541  	93.107068 
2853.731965  	93.224077 
2854.696390  	93.346329 
2855.660814  	93.438132 
2856.625239  	93.519342 
2857.589663  	93.564078 
2858.554088  	93.598876 
2859.518512  	93.629913 
2860.482936  	93.668085 
2861.447361  	93.689620 
2862.411785  	93.709143 
2863.376210  	93.723204 
2864.340634  	93.722867 
2865.305059  	93.741128 
2866.269483  	93.754862 
2867.233908  	93.753223 
2868.198332  	93.739839 
2869.162757  	93.720954 
2870.127181  	93.740360 
2871.091606  	93.727080 
2872.056030  	93.703410 
2873.020454  	93.710098 
2873.984879  	93.714909 
2874.949303  	93.669450 
2875.913728  	93.650339 
2876.878152  	93.686024 
2877.842577  	93.661733 
2878.807001  	93.639301 
2879.771426  	93.644616 
2880.735850  	93.599895 
2881.700275  	93.588985 
2882.664699  	93.577702 
2883.629123  	93.530220 
2884.593548  	93.526017 
2885.557972  	93.510147 
2886.522397  	93.450644 
2887.486821  	93.442682 
2888.451246  	93.440586 
2889.415670  	93.420692 
2890.380095  	93.407513 
2891.344519  	93.365186 
2892.308944  	93.362738 
2893.273368  	93.373788 
2894.237792  	93.328884 
2895.202217  	93.241821 
2896.166641  	93.210652 
2897.131066  	93.176365 
2898.095490  	93.134256 
2899.059915  	93.123921 
2900.024339  	93.071096 
2900.988764  	93.006973 
2901.953188  	92.960586 
2902.917613  	92.910868 
2903.882037  	92.862777 
2904.846461  	92.816245 
2905.810886  	92.736187 
2906.775310  	92.693772 
2907.739735  	92.673338 
2908.704159  	92.600310 
2909.668584  	92.542250 
2910.633008  	92.508778 
2911.597433  	92.468548 
2912.561857  	92.411181 
2913.526282  	92.288815 
2914.490706  	92.145779 
2915.455130  	92.027777 
2916.419555  	91.981851 
2917.383979  	91.961914 
2918.348404  	91.989034 
2919.312828  	92.047775 
2920.277253  	92.102044 
2921.241677  	92.180794 
2922.206102  	92.298177 
2923.170526  	92.401755 
2924.134951  	92.499480 
2925.099375  	92.559600 
2926.063800  	92.624744 
2927.028224  	92.722932 
2927.992648  	92.830705 
2928.957073  	92.909458 
2929.921497  	92.941471 
2930.885922  	93.007021 
2931.850346  	93.102334 
2932.814771  	93.143587 
2933.779195  	93.135639 
2934.743620  	93.153637 
2935.708044  	93.182429 
2936.672469  	93.215741 
2937.636893  	93.278834 
2938.601317  	93.317972 
2939.565742  	93.327143 
2940.530166  	93.306540 
2941.494591  	93.304783 
2942.459015  	93.299697 
2943.423440  	93.269482 
2944.387864  	93.211483 
2945.352289  	93.174775 
2946.316713  	93.175594 
2947.281138  	93.189108 
2948.245562  	93.153124 
2949.209986  	93.064540 
2950.174411  	92.999110 
2951.138835  	93.004444 
2952.103260  	92.947769 
2953.067684  	92.863059 
2954.032109  	92.780306 
2954.996533  	92.735846 
2955.960958  	92.700391 
2956.925382  	92.679525 
2957.889807  	92.677547 
2958.854231  	92.627759 
2959.818655  	92.547835 
2960.783080  	92.519438 
2961.747504  	92.494211 
2962.711929  	92.484241 
2963.676353  	92.443728 
2964.640778  	92.366170 
2965.605202  	92.324477 
2966.569627  	92.285000 
2967.534051  	92.308260 
2968.498476  	92.371446 
2969.462900  	92.372479 
2970.427324  	92.386657 
2971.391749  	92.429145 
2972.356173  	92.482935 
2973.320598  	92.544953 
2974.285022  	92.605777 
2975.249447  	92.640869 
2976.213871  	92.699597 
2977.178296  	92.768998 
2978.142720  	92.803117 
2979.107145  	92.914484 
2980.071569  	93.081800 
2981.035993  	93.109736 
2982.000418  	93.145342 
2982.964842  	93.224158 
2983.929267  	93.240551 
2984.893691  	93.271486 
2985.858116  	93.326741 
2986.822540  	93.394702 
2987.786965  	93.431368 
2988.751389  	93.428151 
2989.715814  	93.469295 
2990.680238  	93.524204 
2991.644663  	93.547125 
2992.609087  	93.558128 
2993.573511  	93.585449 
2994.537936  	93.608236 
2995.502360  	93.642553 
2996.466785  	93.644611 
2997.431209  	93.645988 
2998.395634  	93.680866 
2999.360058  	93.672432 
3000.324483  	93.664285 
3001.288907  	93.687750 
3002.253332  	93.698523 
3003.217756  	93.666116 
3004.182180  	93.618351 
3005.146605  	93.612028 
3006.111029  	93.689716 
3007.075454  	93.730616 
3008.039878  	93.759472 
3009.004303  	93.817171 
3009.968727  	93.813137 
3010.933152  	93.798015 
3011.897576  	93.788069 
3012.862001  	93.721594 
3013.826425  	93.789710 
3014.790849  	93.906210 
3015.755274  	93.910717 
3016.719698  	93.921352 
3017.684123  	93.992331 
3018.648547  	94.020845 
3019.612972  	94.028418 
3020.577396  	94.052626 
3021.541821  	94.072493 
3022.506245  	94.070483 
3023.470670  	94.107220 
3024.435094  	94.174165 
3025.399518  	94.170452 
3026.363943  	94.176846 
3027.328367  	94.212253 
3028.292792  	94.238069 
3029.257216  	94.302852 
3030.221641  	94.286778 
3031.186065  	94.150811 
3032.150490  	94.096718 
3033.114914  	94.189726 
3034.079339  	94.198836 
3035.043763  	94.210260 
3036.008187  	94.262296 
3036.972612  	94.269769 
3037.937036  	94.241776 
3038.901461  	94.241066 
3039.865885  	94.254262 
3040.830310  	94.275454 
3041.794734  	94.245484 
3042.759159  	94.243252 
3043.723583  	94.304664 
3044.688008  	94.298799 
3045.652432  	94.251962 
3046.616857  	94.223774 
3047.581281  	94.197315 
3048.545705  	94.106104 
3049.510130  	94.053293 
3050.474554  	94.020205 
3051.438979  	93.976216 
3052.403403  	93.981222 
3053.367828  	93.992234 
3054.332252  	93.954138 
3055.296677  	93.935954 
3056.261101  	93.837514 
3057.225526  	93.831913 
3058.189950  	93.974228 
3059.154374  	94.023357 
3060.118799  	94.034311 
3061.083223  	94.074488 
3062.047648  	94.098839 
3063.012072  	94.062158 
3063.976497  	93.958322 
3064.940921  	93.872103 
3065.905346  	93.935101 
3066.869770  	93.915988 
3067.834195  	93.878409 
3068.798619  	93.938949 
3069.763043  	94.003568 
3070.727468  	94.040078 
3071.691892  	94.050108 
3072.656317  	94.009210 
3073.620741  	93.992014 
3074.585166  	94.011055 
3075.549590  	94.042297 
3076.514015  	94.044010 
3077.478439  	93.999938 
3078.442864  	93.992043 
3079.407288  	93.998090 
3080.371712  	94.002696 
3081.336137  	94.003560 
3082.300561  	93.946720 
3083.264986  	94.003073 
3084.229410  	94.059694 
3085.193835  	94.043359 
3086.158259  	94.063342 
3087.122684  	94.017150 
3088.087108  	93.987628 
3089.051533  	94.064267 
3090.015957  	94.089451 
3090.980381  	94.118106 
3091.944806  	94.172053 
3092.909230  	94.188242 
3093.873655  	94.142582 
3094.838079  	94.110045 
3095.802504  	94.086688 
3096.766928  	94.087968 
3097.731353  	94.134122 
3098.695777  	94.157062 
3099.660202  	94.097335 
3100.624626  	94.036348 
3101.589050  	94.032275 
3102.553475  	94.025626 
3103.517899  	93.998137 
3104.482324  	94.033019 
3105.446748  	94.073872 
3106.411173  	94.105263 
3107.375597  	94.113918 
3108.340022  	94.091277 
3109.304446  	94.091822 
3110.268871  	94.055962 
3111.233295  	94.056704 
3112.197720  	94.038383 
3113.162144  	94.058392 
3114.126568  	94.120156 
3115.090993  	94.118170 
3116.055417  	94.097332 
3117.019842  	94.184565 
3117.984266  	94.184783 
3118.948691  	94.062210 
3119.913115  	94.135977 
3120.877540  	94.230352 
3121.841964  	94.139618 
3122.806389  	94.074904 
3123.770813  	94.131624 
3124.735237  	94.143862 
3125.699662  	94.108892 
3126.664086  	94.120366 
3127.628511  	94.200730 
3128.592935  	94.214883 
3129.557360  	94.187147 
3130.521784  	94.193301 
3131.486209  	94.236521 
3132.450633  	94.177133 
3133.415058  	94.092271 
3134.379482  	94.216340 
3135.343906  	94.280067 
3136.308331  	94.242278 
3137.272755  	94.208846 
3138.237180  	94.221071 
3139.201604  	94.256949 
3140.166029  	94.267633 
3141.130453  	94.275095 
3142.094878  	94.214703 
3143.059302  	94.173254 
3144.023727  	94.229726 
3144.988151  	94.237324 
3145.952575  	94.204997 
3146.917000  	94.189646 
3147.881424  	94.250615 
3148.845849  	94.327274 
3149.810273  	94.300528 
3150.774698  	94.266561 
3151.739122  	94.242272 
3152.703547  	94.238263 
3153.667971  	94.238257 
3154.632396  	94.263980 
3155.596820  	94.284737 
3156.561244  	94.209117 
3157.525669  	94.219181 
3158.490093  	94.259135 
3159.454518  	94.268130 
3160.418942  	94.245690 
3161.383367  	94.214899 
3162.347791  	94.175348 
3163.312216  	94.156436 
3164.276640  	94.191953 
3165.241065  	94.238292 
3166.205489  	94.231679 
3167.169914  	94.221247 
3168.134338  	94.196824 
3169.098762  	94.225478 
3170.063187  	94.212611 
3171.027611  	94.169091 
3171.992036  	94.170985 
3172.956460  	94.190151 
3173.920885  	94.178485 
3174.885309  	94.173418 
3175.849734  	94.194797 
3176.814158  	94.184868 
3177.778583  	94.094887 
3178.743007  	94.093664 
3179.707431  	94.136794 
3180.671856  	94.144561 
3181.636280  	94.200113 
3182.600705  	94.184346 
3183.565129  	94.129960 
3184.529554  	94.086615 
3185.493978  	94.085428 
3186.458403  	94.159041 
3187.422827  	94.191459 
3188.387252  	94.170976 
3189.351676  	94.164888 
3190.316100  	94.175668 
3191.280525  	94.193165 
3192.244949  	94.212680 
3193.209374  	94.197819 
3194.173798  	94.141129 
3195.138223  	94.127089 
3196.102647  	94.106204 
3197.067072  	94.047402 
3198.031496  	93.987180 
3198.995921  	94.055000 
3199.960345  	94.103394 
3200.924769  	94.124178 
3201.889194  	94.181485 
3202.853618  	94.149477 
3203.818043  	94.087969 
3204.782467  	94.081913 
3205.746892  	94.059731 
3206.711316  	94.041608 
3207.675741  	94.073257 
3208.640165  	94.112517 
3209.604590  	94.053744 
3210.569014  	93.944080 
3211.533438  	93.994434 
3212.497863  	94.056345 
3213.462287  	94.020978 
3214.426712  	93.970014 
3215.391136  	94.018760 
3216.355561  	94.008420 
3217.319985  	94.004134 
3218.284410  	94.041356 
3219.248834  	94.031403 
3220.213259  	94.058860 
3221.177683  	94.106078 
3222.142107  	94.088219 
3223.106532  	94.060698 
3224.070956  	94.025832 
3225.035381  	94.033190 
3225.999805  	94.050432 
3226.964230  	93.978714 
3227.928654  	93.962211 
3228.893079  	94.035238 
3229.857503  	94.062904 
3230.821928  	94.034244 
3231.786352  	94.057795 
3232.750777  	93.995582 
3233.715201  	93.916057 
3234.679625  	93.922350 
3235.644050  	93.953012 
3236.608474  	93.968435 
3237.572899  	93.986896 
3238.537323  	94.037399 
3239.501748  	94.004449 
3240.466172  	93.937201 
3241.430597  	93.977303 
3242.395021  	94.040948 
3243.359446  	93.978571 
3244.323870  	93.897589 
3245.288294  	93.811487 
3246.252719  	93.806656 
3247.217143  	93.875092 
3248.181568  	93.913084 
3249.145992  	93.917950 
3250.110417  	93.929156 
3251.074841  	93.944104 
3252.039266  	93.956537 
3253.003690  	93.930271 
3253.968115  	93.815696 
3254.932539  	93.789972 
3255.896963  	93.835107 
3256.861388  	93.798081 
3257.825812  	93.816723 
3258.790237  	93.802903 
3259.754661  	93.745149 
3260.719086  	93.743467 
3261.683510  	93.802886 
3262.647935  	93.847194 
3263.612359  	93.877232 
3264.576784  	93.882237 
3265.541208  	93.855050 
3266.505632  	93.821867 
3267.470057  	93.819904 
3268.434481  	93.816787 
3269.398906  	93.771687 
3270.363330  	93.759451 
3271.327755  	93.758250 
3272.292179  	93.755481 
3273.256604  	93.754674 
3274.221028  	93.710828 
3275.185453  	93.747722 
3276.149877  	93.709858 
3277.114301  	93.692991 
3278.078726  	93.728140 
3279.043150  	93.684115 
3280.007575  	93.633632 
3280.971999  	93.618236 
3281.936424  	93.679325 
3282.900848  	93.711464 
3283.865273  	93.673256 
3284.829697  	93.699318 
3285.794122  	93.735502 
3286.758546  	93.704067 
3287.722971  	93.673685 
3288.687395  	93.728574 
3289.651819  	93.778360 
3290.616244  	93.708764 
3291.580668  	93.637776 
3292.545093  	93.611999 
3293.509517  	93.640250 
3294.473942  	93.669886 
3295.438366  	93.642332 
3296.402791  	93.656985 
3297.367215  	93.637380 
3298.331640  	93.636431 
3299.296064  	93.706686 
3300.260488  	93.704912 
3301.224913  	93.710119 
3302.189337  	93.822881 
3303.153762  	93.776902 
3304.118186  	93.714450 
3305.082611  	93.723372 
3306.047035  	93.725281 
3307.011460  	93.735064 
3307.975884  	93.679946 
3308.940309  	93.598005 
3309.904733  	93.646957 
3310.869157  	93.688457 
3311.833582  	93.703794 
3312.798006  	93.715715 
3313.762431  	93.702369 
3314.726855  	93.763301 
3315.691280  	93.770581 
3316.655704  	93.713239 
3317.620129  	93.687457 
3318.584553  	93.677516 
3319.548978  	93.691806 
3320.513402  	93.736015 
3321.477826  	93.733994 
3322.442251  	93.682806 
3323.406675  	93.689519 
3324.371100  	93.719097 
3325.335524  	93.705210 
3326.299949  	93.684137 
3327.264373  	93.630342 
3328.228798  	93.561448 
3329.193222  	93.525696 
3330.157647  	93.575521 
3331.122071  	93.606780 
3332.086495  	93.690636 
3333.050920  	93.713933 
3334.015344  	93.614588 
3334.979769  	93.570531 
3335.944193  	93.614856 
3336.908618  	93.536028 
3337.873042  	93.537110 
3338.837467  	93.605348 
3339.801891  	93.607228 
3340.766316  	93.639019 
3341.730740  	93.651818 
3342.695164  	93.617561 
3343.659589  	93.671857 
3344.624013  	93.800810 
3345.588438  	93.785835 
3346.552862  	93.679865 
3347.517287  	93.632174 
3348.481711  	93.691411 
3349.446136  	93.762461 
3350.410560  	93.782662 
3351.374985  	93.847157 
3352.339409  	93.895784 
3353.303834  	93.829252 
3354.268258  	93.793523 
3355.232682  	93.759596 
3356.197107  	93.646858 
3357.161531  	93.685813 
3358.125956  	93.834549 
3359.090380  	93.890893 
3360.054805  	93.776536 
3361.019229  	93.713769 
3361.983654  	93.694091 
3362.948078  	93.758168 
3363.912503  	93.773485 
3364.876927  	93.685456 
3365.841351  	93.725245 
3366.805776  	93.781622 
3367.770200  	93.701068 
3368.734625  	93.660980 
3369.699049  	93.806304 
3370.663474  	93.915004 
3371.627898  	93.948855 
3372.592323  	93.894698 
3373.556747  	93.851886 
3374.521172  	93.941713 
3375.485596  	93.966770 
3376.450020  	93.840762 
3377.414445  	93.777454 
3378.378869  	93.834612 
3379.343294  	93.906445 
3380.307718  	93.922383 
3381.272143  	93.976765 
3382.236567  	93.951828 
3383.200992  	93.881089 
3384.165416  	93.813439 
3385.129841  	93.764421 
3386.094265  	93.833004 
3387.058689  	93.913064 
3388.023114  	93.937280 
3388.987538  	93.958208 
3389.951963  	93.991768 
3390.916387  	93.950266 
3391.880812  	93.814143 
3392.845236  	93.587978 
3393.809661  	93.645124 
3394.774085  	93.901526 
3395.738510  	93.924733 
3396.702934  	93.854522 
3397.667358  	93.701286 
3398.631783  	93.804456 
3399.596207  	93.970333 
3400.560632  	93.925925 
3401.525056  	93.834059 
3402.489481  	93.904229 
3403.453905  	93.873799 
3404.418330  	93.811815 
3405.382754  	93.831316 
3406.347179  	93.860505 
3407.311603  	93.834917 
3408.276028  	93.854076 
3409.240452  	93.779002 
3410.204876  	93.679095 
3411.169301  	93.714215 
3412.133725  	93.778823 
3413.098150  	93.796840 
3414.062574  	93.786620 
3415.026999  	93.771043 
3415.991423  	93.670541 
3416.955848  	93.617012 
3417.920272  	93.633355 
3418.884697  	93.645061 
3419.849121  	93.407679 
3420.813545  	93.063500 
3421.777970  	93.034764 
3422.742394  	93.142951 
3423.706819  	93.295386 
3424.671243  	93.471869 
3425.635668  	93.541205 
3426.600092  	93.506763 
3427.564517  	93.510155 
3428.528941  	93.554767 
3429.493366  	93.583229 
3430.457790  	93.499171 
3431.422214  	93.426084 
3432.386639  	93.467325 
3433.351063  	93.545940 
3434.315488  	93.610181 
3435.279912  	93.603135 
3436.244337  	93.618704 
3437.208761  	93.620620 
3438.173186  	93.618205 
3439.137610  	93.639185 
3440.102035  	93.720761 
3441.066459  	93.752554 
3442.030883  	93.599335 
3442.995308  	93.357521 
3443.959732  	93.541358 
3444.924157  	93.683895 
3445.888581  	93.681838 
3446.853006  	93.317324 
3447.817430  	92.967438 
3448.781855  	93.504080 
3449.746279  	93.814483 
3450.710704  	93.848100 
3451.675128  	93.878428 
3452.639552  	93.907865 
3453.603977  	93.964301 
3454.568401  	93.981751 
3455.532826  	93.857899 
3456.497250  	93.854046 
3457.461675  	93.866138 
3458.426099  	93.819127 
3459.390524  	93.874809 
3460.354948  	93.961091 
3461.319373  	93.845640 
3462.283797  	93.689298 
3463.248221  	93.668400 
3464.212646  	93.846283 
3465.177070  	93.903583 
3466.141495  	93.900309 
3467.105919  	93.763000 
3468.070344  	93.896356 
3469.034768  	94.061060 
3469.999193  	94.062504 
3470.963617  	94.023851 
3471.928042  	94.043409 
3472.892466  	94.077440 
3473.856891  	94.057138 
3474.821315  	93.880959 
3475.785739  	93.902065 
3476.750164  	94.035994 
3477.714588  	94.104400 
3478.679013  	94.143337 
3479.643437  	94.130338 
3480.607862  	93.813700 
3481.572286  	93.605962 
3482.536711  	93.479821 
3483.501135  	93.795915 
3484.465560  	94.051371 
3485.429984  	93.982796 
3486.394408  	93.977744 
3487.358833  	93.966235 
3488.323257  	93.646148 
3489.287682  	93.654047 
3490.252106  	93.975070 
3491.216531  	94.058485 
3492.180955  	94.103553 
3493.145380  	94.178987 
3494.109804  	94.265906 
3495.074229  	94.136848 
3496.038653  	93.832111 
3497.003077  	93.669017 
3497.967502  	93.883807 
3498.931926  	94.085483 
3499.896351  	94.016685 
3500.860775  	93.901874 
3501.825200  	93.511609 
3502.789624  	93.070813 
3503.754049  	92.990664 
3504.718473  	93.353159 
3505.682898  	93.766305 
3506.647322  	94.084154 
3507.611746  	94.157044 
3508.576171  	93.814594 
3509.540595  	93.157698 
3510.505020  	93.371537 
3511.469444  	93.837782 
3512.433869  	93.910321 
3513.398293  	93.954852 
3514.362718  	94.084434 
3515.327142  	94.201572 
3516.291567  	94.156006 
3517.255991  	94.027488 
3518.220415  	93.978170 
3519.184840  	93.938940 
3520.149264  	93.988857 
3521.113689  	94.141231 
3522.078113  	93.947136 
3523.042538  	93.152391 
3524.006962  	92.703878 
3524.971387  	93.051627 
3525.935811  	93.245172 
3526.900236  	93.199245 
3527.864660  	92.989477 
3528.829085  	93.081707 
3529.793509  	93.322916 
3530.757933  	93.651962 
3531.722358  	93.678331 
3532.686782  	93.943111 
3533.651207  	94.141769 
3534.615631  	94.112177 
3535.580056  	93.804993 
3536.544480  	93.139665 
3537.508905  	93.379577 
3538.473329  	93.985365 
3539.437754  	93.973754 
3540.402178  	93.980745 
3541.366602  	94.032498 
3542.331027  	94.070843 
3543.295451  	93.746777 
3544.259876  	93.271736 
3545.224300  	92.421415 
3546.188725  	92.227240 
3547.153149  	92.300523 
3548.117574  	92.777912 
3549.081998  	93.635076 
3550.046423  	93.883374 
3551.010847  	93.794509 
3551.975271  	93.220762 
3552.939696  	92.896212 
3553.904120  	93.211980 
3554.868545  	93.624237 
3555.832969  	94.036623 
3556.797394  	93.998666 
3557.761818  	93.999727 
3558.726243  	94.068017 
3559.690667  	93.673810 
3560.655092  	93.195883 
3561.619516  	93.606248 
3562.583940  	93.616977 
3563.548365  	93.476111 
3564.512789  	93.387879 
3565.477214  	92.565268 
3566.441638  	90.416989 
3567.406063  	90.203073 
3568.370487  	90.550078 
3569.334912  	92.115679 
3570.299336  	93.396511 
3571.263761  	93.604429 
3572.228185  	93.919960 
3573.192609  	93.905187 
3574.157034  	93.814034 
3575.121458  	93.800072 
3576.085883  	93.950494 
3577.050307  	93.850398 
3578.014732  	93.844026 
3578.979156  	93.952850 
3579.943581  	93.566267 
3580.908005  	93.495849 
3581.872430  	93.924687 
3582.836854  	93.937381 
3583.801278  	93.744849 
3584.765703  	93.801030 
3585.730127  	93.450598 
3586.694552  	91.905986 
3587.658976  	90.877822 
3588.623401  	91.083434 
3589.587825  	92.158044 
3590.552250  	93.576552 
3591.516674  	93.984806 
3592.481099  	93.905701 
3593.445523  	93.155080 
3594.409948  	93.101198 
3595.374372  	92.670312 
3596.338796  	92.549770 
3597.303221  	93.493633 
3598.267645  	93.589500 
3599.232070  	93.228914 
3600.196494  	93.269710 
3601.160919  	93.002491 
3602.125343  	93.295213 
3603.089768  	93.611583 
3604.054192  	93.980603 
3605.018617  	94.138224 
3605.983041  	93.944662 
3606.947465  	92.883442 
3607.911890  	92.274379 
3608.876314  	92.568120 
3609.840739  	92.267161 
3610.805163  	93.232862 
3611.769588  	93.283070 
3612.734012  	91.969866 
3613.698437  	91.977182 
3614.662861  	92.218868 
3615.627286  	92.305016 
3616.591710  	93.323707 
3617.556134  	92.812083 
3618.520559  	91.907372 
3619.484983  	91.835532 
3620.449408  	91.871205 
3621.413832  	92.602020 
3622.378257  	93.333321 
3623.342681  	93.808739 
3624.307106  	94.034998 
3625.271530  	93.990364 
3626.235955  	93.469744 
3627.200379  	93.209164 
3628.164803  	92.308213 
3629.129228  	89.444856 
3630.093652  	89.895614 
3631.058077  	92.377064 
3632.022501  	93.464641 
3632.986926  	93.645404 
3633.951350  	92.930966 
3634.915775  	93.184683 
3635.880199  	93.923001 
3636.844624  	94.056095 
3637.809048  	93.888929 
3638.773472  	93.802384 
3639.737897  	94.030296 
3640.702321  	94.067527 
3641.666746  	93.811946 
3642.631170  	93.357743 
3643.595595  	93.503156 
3644.560019  	93.902632 
3645.524444  	93.679706 
3646.488868  	92.540815 
3647.453293  	90.658291 
3648.417717  	90.755190 
3649.382142  	90.609066 
3650.346566  	89.722370 
3651.310990  	89.986894 
3652.275415  	92.097889 
3653.239839  	93.546310 
3654.204264  	93.996257 
3655.168688  	93.908275 
3656.133113  	92.960517 
3657.097537  	92.582110 
3658.061962  	93.724914 
3659.026386  	94.058829 
3659.990811  	93.950510 
3660.955235  	94.104992 
3661.919659  	94.381164 
3662.884084  	94.432313 
3663.848508  	94.407393 
3664.812933  	94.316316 
3665.777357  	94.321531 
3666.741782  	94.349780 
3667.706206  	94.278875 
3668.670631  	93.408035 
3669.635055  	92.179593 
3670.599480  	91.409296 
3671.563904  	91.770553 
3672.528328  	93.489879 
3673.492753  	93.909386 
3674.457177  	92.831728 
3675.421602  	89.870819 
3676.386026  	89.909657 
3677.350451  	91.965011 
3678.314875  	92.955796 
3679.279300  	93.025922 
3680.243724  	93.093307 
3681.208149  	93.984692 
3682.172573  	94.405212 
3683.136997  	94.377216 
3684.101422  	94.195300 
3685.065846  	94.095927 
3686.030271  	94.258496 
3686.994695  	94.137604 
3687.959120  	93.371397 
3688.923544  	92.272299 
3689.887969  	92.651274 
3690.852393  	92.137228 
3691.816818  	92.001777 
3692.781242  	93.665367 
3693.745666  	94.156489 
3694.710091  	94.217910 
3695.674515  	94.329032 
3696.638940  	94.232589 
3697.603364  	94.334497 
3698.567789  	94.521273 
3699.532213  	94.460327 
3700.496638  	94.487061 
3701.461062  	93.715576 
3702.425487  	92.975487 
3703.389911  	93.971984 
3704.354335  	94.445744 
3705.318760  	94.305925 
3706.283184  	94.297080 
3707.247609  	94.443591 
3708.212033  	94.410323 
3709.176458  	93.761991 
3710.140882  	93.015853 
3711.105307  	92.698209 
3712.069731  	91.678893 
3713.034156  	91.816188 
3713.998580  	93.274548 
3714.963005  	93.383149 
3715.927429  	93.706596 
3716.891853  	94.386096 
3717.856278  	94.468051 
3718.820702  	93.752527 
3719.785127  	93.431172 
3720.749551  	94.095329 
3721.713976  	93.712099 
3722.678400  	92.470629 
3723.642825  	93.047671 
3724.607249  	93.377491 
3725.571674  	92.652649 
3726.536098  	92.419018 
3727.500522  	92.668529 
3728.464947  	93.662689 
3729.429371  	94.364333 
3730.393796  	94.315747 
3731.358220  	93.869678 
3732.322645  	92.976055 
3733.287069  	92.974878 
3734.251494  	92.438916 
3735.215918  	89.326194 
3736.180343  	89.646607 
3737.144767  	91.279427 
3738.109191  	92.216449 
3739.073616  	92.780457 
3740.038040  	93.407427 
3741.002465  	93.018870 
3741.966889  	93.098035 
3742.931314  	93.742750 
3743.895738  	92.898638 
3744.860163  	89.543821 
3745.824587  	91.320209 
3746.789012  	92.605864 
3747.753436  	92.781642 
3748.717860  	92.749052 
3749.682285  	92.229471 
3750.646709  	91.845738 
3751.611134  	91.548062 
3752.575558  	90.367774 
3753.539983  	92.017148 
3754.504407  	93.158125 
3755.468832  	93.724803 
3756.433256  	93.491626 
3757.397681  	93.437103 
3758.362105  	93.650789 
3759.326529  	92.754615 
3760.290954  	92.285480 
3761.255378  	93.739304 
3762.219803  	94.199740 
3763.184227  	94.279722 
3764.148652  	94.301210 
3765.113076  	93.876545 
3766.077501  	92.934288 
3767.041925  	93.621118 
3768.006350  	94.304416 
3768.970774  	94.072669 
3769.935199  	93.063468 
3770.899623  	93.025351 
3771.864047  	93.868675 
3772.828472  	94.292164 
3773.792896  	94.477426 
3774.757321  	94.599722 
3775.721745  	94.663006 
3776.686170  	94.691381 
3777.650594  	94.578106 
3778.615019  	94.169157 
3779.579443  	93.297899 
3780.543868  	93.346096 
3781.508292  	94.218033 
3782.472716  	94.366946 
3783.437141  	94.406229 
3784.401565  	94.032466 
3785.365990  	93.541369 
3786.330414  	93.917476 
3787.294839  	94.295325 
3788.259263  	94.518181 
3789.223688  	94.571150 
3790.188112  	94.554151 
3791.152537  	94.658854 
3792.116961  	94.701694 
3793.081385  	94.702123 
3794.045810  	94.667227 
3795.010234  	94.504631 
3795.974659  	93.962462 
3796.939083  	93.120405 
3797.903508  	93.350798 
3798.867932  	93.900158 
3799.832357  	94.062751 
3800.796781  	93.191374 
3801.761206  	91.648231 
3802.725630  	91.970392 
3803.690054  	92.994508 
3804.654479  	94.027489 
3805.618903  	94.295165 
3806.583328  	93.619470 
3807.547752  	92.724259 
3808.512177  	93.712890 
3809.476601  	94.268013 
3810.441026  	94.396330 
3811.405450  	94.563369 
3812.369875  	94.635745 
3813.334299  	94.650487 
3814.298723  	94.514668 
3815.263148  	93.887115 
3816.227572  	92.448318 
3817.191997  	92.810177 
3818.156421  	93.761515 
3819.120846  	93.736064 
3820.085270  	93.107934 
3821.049695  	91.588515 
3822.014119  	91.267948 
3822.978544  	92.907205 
3823.942968  	93.640925 
3824.907392  	93.969465 
3825.871817  	93.952048 
3826.836241  	93.357821 
3827.800666  	93.356766 
3828.765090  	94.062364 
3829.729515  	94.445161 
3830.693939  	94.333084 
3831.658364  	93.522093 
3832.622788  	93.443234 
3833.587213  	94.139612 
3834.551637  	93.772773 
3835.516062  	93.103421 
3836.480486  	93.618753 
3837.444910  	93.142375 
3838.409335  	91.903417 
3839.373759  	92.435208 
3840.338184  	91.929572 
3841.302608  	92.070963 
3842.267033  	93.482767 
3843.231457  	93.566911 
3844.195882  	92.805875 
3845.160306  	93.665538 
3846.124731  	94.267902 
3847.089155  	94.408326 
3848.053579  	94.464313 
3849.018004  	94.215833 
3849.982428  	93.683129 
3850.946853  	93.675891 
3851.911277  	92.967763 
3852.875702  	91.213275 
3853.840126  	90.442068 
3854.804551  	90.728582 
3855.768975  	92.811132 
3856.733400  	93.058275 
3857.697824  	92.613855 
3858.662248  	93.661924 
3859.626673  	94.388206 
3860.591097  	94.371749 
3861.555522  	93.713344 
3862.519946  	93.054558 
3863.484371  	93.401510 
3864.448795  	92.712065 
3865.413220  	91.581893 
3866.377644  	92.966243 
3867.342069  	94.094645 
3868.306493  	94.108097 
3869.270917  	92.865954 
3870.235342  	90.754583 
3871.199766  	91.922726 
3872.164191  	93.285895 
3873.128615  	93.675004 
3874.093040  	92.463804 
3875.057464  	92.398105 
3876.021889  	94.018146 
3876.986313  	94.466488 
3877.950738  	94.561890 
3878.915162  	94.509527 
3879.879586  	93.529737 
3880.844011  	91.578224 
3881.808435  	92.657594 
3882.772860  	93.720664 
3883.737284  	93.492792 
3884.701709  	93.470253 
3885.666133  	92.621162 
3886.630558  	92.097157 
3887.594982  	93.719437 
3888.559407  	94.376672 
3889.523831  	94.444879 
3890.488256  	93.954821 
3891.452680  	92.631588 
3892.417104  	92.561793 
3893.381529  	93.602978 
3894.345953  	93.582663 
3895.310378  	93.889536 
3896.274802  	94.447965 
3897.239227  	94.488474 
3898.203651  	93.764910 
3899.168076  	92.641776 
3900.132500  	92.496823 
3901.096925  	93.252628 
3902.061349  	91.989573 
3903.025773  	91.959407 
3903.990198  	92.484594 
3904.954622  	91.947052 
3905.919047  	92.259956 
3906.883471  	93.104032 
3907.847896  	94.191132 
3908.812320  	94.503476 
3909.776745  	94.552787 
3910.741169  	94.609000 
3911.705594  	94.633693 
3912.670018  	94.574795 
3913.634442  	94.543285 
3914.598867  	94.613625 
3915.563291  	94.500579 
3916.527716  	93.539444 
3917.492140  	92.679875 
3918.456565  	93.564541 
3919.420989  	93.926075 
3920.385414  	93.246975 
3921.349838  	93.742192 
3922.314263  	94.436547 
3923.278687  	94.161792 
3924.243111  	93.347318 
3925.207536  	92.811748 
3926.171960  	93.541505 
3927.136385  	94.414384 
3928.100809  	94.463929 
3929.065234  	94.235201 
3930.029658  	93.908939 
3930.994083  	93.658570 
3931.958507  	93.233723 
3932.922932  	92.809438 
3933.887356  	93.589049 
3934.851780  	94.066794 
3935.816205  	94.413216 
3936.780629  	94.590442 
3937.745054  	94.500772 
3938.709478  	94.286893 
3939.673903  	94.426593 
3940.638327  	94.551501 
3941.602752  	94.407950 
3942.567176  	93.486834 
3943.531601  	92.958896 
3944.496025  	93.797259 
3945.460449  	94.272859 
3946.424874  	94.419990 
3947.389298  	93.844056 
3948.353723  	93.396458 
3949.318147  	93.642253 
3950.282572  	93.407940 
3951.246996  	93.789779 
3952.211421  	94.393002 
3953.175845  	94.320250 
3954.140270  	94.450548 
3955.104694  	94.589626 
3956.069119  	94.488694 
3957.033543  	94.293436 
3957.997967  	94.284255 
3958.962392  	94.366660 
3959.926816  	94.438683 
3960.891241  	94.419456 
3961.855665  	93.961247 
3962.820090  	93.885059 
3963.784514  	94.419814 
3964.748939  	94.478939 
3965.713363  	94.522584 
3966.677788  	94.643148 
3967.642212  	94.646009 
3968.606636  	94.467030 
3969.571061  	94.313846 
3970.535485  	94.418442 
3971.499910  	94.494850 
3972.464334  	94.329709 
3973.428759  	94.444829 
3974.393183  	94.500164 
3975.357608  	94.326965 
3976.322032  	94.194061 
3977.286457  	94.390016 
3978.250881  	94.657204 
3979.215305  	94.660294 
3980.179730  	94.569088 
3981.144154  	94.499156 
3982.108579  	94.463021 
3983.073003  	94.526621 
3984.037428  	94.688728 
3985.001852  	94.682286 
3985.966277  	94.592527 
3986.930701  	94.604886 
3987.895126  	94.605976 
3988.859550  	94.587222 
3989.823974  	94.479971 
3990.788399  	94.319619 
3991.752823  	94.439728 
3992.717248  	94.600142 
3993.681672  	94.579314 
3994.646097  	94.484830 
3995.610521  	94.380241 
3996.574946  	94.567574 
3997.539370  	94.660071 
3998.503795  	94.661365 
3999.468219  	94.672450 
4000.432643  	94.708401 
4001.397068  	94.699113 
4002.361492  	94.686403 
4003.325917  	94.632473 
4004.290341  	94.668505 
4005.254766  	94.732789 
4006.219190  	94.685305 
4007.183615  	94.614746 
4008.148039  	94.521519 
4009.112464  	94.393330 
4010.076888  	94.517453 
4011.041313  	94.586077 
4012.005737  	94.607010 
4012.970161  	94.592175 
4013.934586  	94.615945 
4014.899010  	94.624368 
4015.863435  	94.590897 
4016.827859  	94.581310 
4017.792284  	94.635196 
4018.756708  	94.678244 
4019.721133  	94.608986 
4020.685557  	94.583075 
4021.649982  	94.630975 
4022.614406  	94.678223 
4023.578830  	94.652090 
4024.543255  	94.581122 
4025.507679  	94.513919 
4026.472104  	94.577344 
4027.436528  	94.683094 
4028.400953  	94.631190 
4029.365377  	94.558547 
4030.329802  	94.577723 
4031.294226  	94.607514 
4032.258651  	94.619352 
4033.223075  	94.672040 
4034.187499  	94.683524 
4035.151924  	94.673706 
4036.116348  	94.660085 
4037.080773  	94.687088 
4038.045197  	94.710296 
4039.009622  	94.688781 
4039.974046  	94.661595 
4040.938471  	94.680962 
4041.902895  	94.665473 
4042.867320  	94.658299 
4043.831744  	94.580451 
4044.796168  	94.512108 
4045.760593  	94.484615 
4046.725017  	94.547398 
4047.689442  	94.597087 
4048.653866  	94.607768 
4049.618291  	94.610630 
4050.582715  	94.642706 
4051.547140  	94.632573 
4052.511564  	94.615493 
4053.475989  	94.631309 
4054.440413  	94.671648 
4055.404837  	94.657250 
4056.369262  	94.645170 
4057.333686  	94.624177 
4058.298111  	94.621053 
4059.262535  	94.655736 
4060.226960  	94.612729 
4061.191384  	94.517403 
4062.155809  	94.574276 
4063.120233  	94.650383 
4064.084658  	94.698803 
4065.049082  	94.701886 
4066.013506  	94.695359 
4066.977931  	94.672500 
4067.942355  	94.636876 
4068.906780  	94.628784 
4069.871204  	94.632927 
4070.835629  	94.624326 
4071.800053  	94.637077 
4072.764478  	94.604332 
4073.728902  	94.534390 
4074.693327  	94.542821 
4075.657751  	94.609484 
4076.622176  	94.598541 
4077.586600  	94.587888 
4078.551024  	94.588186 
4079.515449  	94.559769 
4080.479873  	94.591253 
4081.444298  	94.605940 
4082.408722  	94.555998 
4083.373147  	94.514103 
4084.337571  	94.503607 
4085.301996  	94.510577 
4086.266420  	94.517852 
4087.230845  	94.486884 
4088.195269  	94.470633 
4089.159693  	94.537751 
4090.124118  	94.579588 
4091.088542  	94.588040 
4092.052967  	94.607224 
4093.017391  	94.616410 
4093.981816  	94.592182 
4094.946240  	94.544291 
4095.910665  	94.543255 
4096.875089  	94.581037 
4097.839514  	94.567603 
4098.803938  	94.532804 
4099.768362  	94.572206 
4100.732787  	94.587225 
4101.697211  	94.558658 
4102.661636  	94.586349 
4103.626060  	94.624655 
4104.590485  	94.589302 
4105.554909  	94.550167 
4106.519334  	94.609626 
4107.483758  	94.607876 
4108.448183  	94.627081 
4109.412607  	94.639477 
4110.377031  	94.621318 
4111.341456  	94.615453 
4112.305880  	94.635336 
4113.270305  	94.626575 
4114.234729  	94.605219 
4115.199154  	94.622079 
4116.163578  	94.632612 
4117.128003  	94.618251 
4118.092427  	94.642626 
4119.056852  	94.613802 
4120.021276  	94.568984 
4120.985700  	94.599938 
4121.950125  	94.640184 
4122.914549  	94.618394 
4123.878974  	94.615307 
4124.843398  	94.599749 
4125.807823  	94.606697 
4126.772247  	94.633459 
4127.736672  	94.656846 
4128.701096  	94.652602 
4129.665521  	94.654240 
4130.629945  	94.642490 
4131.594370  	94.648498 
4132.558794  	94.659642 
4133.523218  	94.618973 
4134.487643  	94.625481 
4135.452067  	94.660884 
4136.416492  	94.629589 
4137.380916  	94.634891 
4138.345341  	94.593533 
4139.309765  	94.500633 
4140.274190  	94.506089 
4141.238614  	94.562045 
4142.203039  	94.587271 
4143.167463  	94.636147 
4144.131887  	94.604473 
4145.096312  	94.618229 
4146.060736  	94.661049 
4147.025161  	94.657500 
4147.989585  	94.612159 
4148.954010  	94.563468 
4149.918434  	94.616452 
4150.882859  	94.675826 
4151.847283  	94.659247 
4152.811708  	94.626871 
4153.776132  	94.643759 
4154.740556  	94.674256 
4155.704981  	94.669774 
4156.669405  	94.646591 
4157.633830  	94.645675 
4158.598254  	94.645520 
4159.562679  	94.634208 
4160.527103  	94.643916 
4161.491528  	94.649592 
4162.455952  	94.656978 
4163.420377  	94.682490 
4164.384801  	94.673504 
4165.349225  	94.637179 
4166.313650  	94.633051 
4167.278074  	94.614288 
4168.242499  	94.643512 
4169.206923  	94.692131 
4170.171348  	94.697320 
4171.135772  	94.652924 
4172.100197  	94.629125 
4173.064621  	94.646889 
4174.029046  	94.692444 
4174.993470  	94.670472 
4175.957894  	94.672596 
4176.922319  	94.669713 
4177.886743  	94.637535 
4178.851168  	94.605088 
4179.815592  	94.563564 
4180.780017  	94.579701 
4181.744441  	94.669011 
4182.708866  	94.676054 
4183.673290  	94.627986 
4184.637715  	94.645855 
4185.602139  	94.673785 
4186.566563  	94.657217 
4187.530988  	94.654564 
4188.495412  	94.658109 
4189.459837  	94.688838 
4190.424261  	94.701742 
4191.388686  	94.668275 
4192.353110  	94.683035 
4193.317535  	94.699221 
4194.281959  	94.658723 
4195.246384  	94.664621 
4196.210808  	94.648026 
4197.175233  	94.610988 
4198.139657  	94.598499 
4199.104081  	94.643447 
4200.068506  	94.654494 
4201.032930  	94.670343 
4201.997355  	94.693779 
4202.961779  	94.688763 
4203.926204  	94.637475 
4204.890628  	94.625295 
4205.855053  	94.650968 
4206.819477  	94.640896 
4207.783902  	94.649525 
4208.748326  	94.672697 
4209.712750  	94.697360 
4210.677175  	94.692988 
4211.641599  	94.670910 
4212.606024  	94.646418 
4213.570448  	94.682237 
4214.534873  	94.723867 
4215.499297  	94.663346 
4216.463722  	94.635350 
4217.428146  	94.567881 
4218.392571  	94.599455 
4219.356995  	94.672117 
4220.321419  	94.725311 
4221.285844  	94.791574 
4222.250268  	94.770903 
4223.214693  	94.608114 
4224.179117  	94.583734 
4225.143542  	94.643085 
4226.107966  	94.696574 
4227.072391  	94.688669 
4228.036815  	94.608499 
4229.001240  	94.577218 
4229.965664  	94.568819 
4230.930088  	94.617132 
4231.894513  	94.687705 
4232.858937  	94.674701 
4233.823362  	94.690641 
4234.787786  	94.713925 
4235.752211  	94.683064 
4236.716635  	94.697986 
4237.681060  	94.747915 
4238.645484  	94.724753 
4239.609909  	94.684187 
4240.574333  	94.640119 
4241.538757  	94.647313 
4242.503182  	94.686171 
4243.467606  	94.688140 
4244.432031  	94.607463 
4245.396455  	94.608235 
4246.360880  	94.653646 
4247.325304  	94.619611 
4248.289729  	94.620442 
4249.254153  	94.668732 
4250.218578  	94.718195 
4251.183002  	94.713518 
4252.147427  	94.687510 
4253.111851  	94.707670 
4254.076275  	94.628726 
4255.040700  	94.589633 
4256.005124  	94.624184 
4256.969549  	94.729478 
4257.933973  	94.754501 
4258.898398  	94.678679 
4259.862822  	94.628092 
4260.827247  	94.564107 
4261.791671  	94.561118 
4262.756096  	94.664118 
4263.720520  	94.645006 
4264.684944  	94.590643 
4265.649369  	94.595989 
4266.613793  	94.606021 
4267.578218  	94.569265 
4268.542642  	94.614058 
4269.507067  	94.650098 
4270.471491  	94.662974 
4271.435916  	94.656537 
4272.400340  	94.640567 
4273.364765  	94.647864 
4274.329189  	94.679980 
4275.293613  	94.659196 
4276.258038  	94.647006 
4277.222462  	94.621689 
4278.186887  	94.588946 
4279.151311  	94.576214 
4280.115736  	94.591563 
4281.080160  	94.631115 
4282.044585  	94.629838 
4283.009009  	94.564272 
4283.973434  	94.552228 
4284.937858  	94.591779 
4285.902282  	94.587793 
4286.866707  	94.593987 
4287.831131  	94.645303 
4288.795556  	94.660485 
4289.759980  	94.631881 
4290.724405  	94.593909 
4291.688829  	94.632161 
4292.653254  	94.668166 
4293.617678  	94.716971 
4294.582103  	94.750995 
4295.546527  	94.691877 
4296.510951  	94.657040 
4297.475376  	94.685276 
4298.439800  	94.678144 
4299.404225  	94.654628 
4300.368649  	94.597006 
4301.333074  	94.555057 
4302.297498  	94.541106 
4303.261923  	94.556593 
4304.226347  	94.623336 
4305.190772  	94.721300 
4306.155196  	94.699983 
4307.119620  	94.665101 
4308.084045  	94.609724 
4309.048469  	94.641145 
4310.012894  	94.701323 
4310.977318  	94.687348 
4311.941743  	94.638257 
4312.906167  	94.667867 
4313.870592  	94.711424 
4314.835016  	94.708094 
4315.799441  	94.665658 
4316.763865  	94.644419 
4317.728290  	94.653851 
4318.692714  	94.720381 
4319.657138  	94.730922 
4320.621563  	94.694817 
4321.585987  	94.659812 
4322.550412  	94.655622 
4323.514836  	94.662200 
4324.479261  	94.670281 
4325.443685  	94.640706 
4326.408110  	94.663670 
4327.372534  	94.661438 
4328.336959  	94.640391 
4329.301383  	94.635463 
4330.265807  	94.680041 
4331.230232  	94.729845 
4332.194656  	94.674060 
4333.159081  	94.694861 
4334.123505  	94.744226 
4335.087930  	94.693352 
4336.052354  	94.676891 
4337.016779  	94.738248 
4337.981203  	94.763453 
4338.945628  	94.753995 
4339.910052  	94.712808 
4340.874476  	94.694189 
4341.838901  	94.711382 
4342.803325  	94.647949 
4343.767750  	94.612625 
4344.732174  	94.670278 
4345.696599  	94.697117 
4346.661023  	94.627327 
4347.625448  	94.554541 
4348.589872  	94.603555 
4349.554297  	94.679431 
4350.518721  	94.705188 
4351.483145  	94.733349 
4352.447570  	94.725798 
4353.411994  	94.702319 
4354.376419  	94.623818 
4355.340843  	94.589524 
4356.305268  	94.667947 
4357.269692  	94.719294 
4358.234117  	94.768408 
4359.198541  	94.731373 
4360.162966  	94.673272 
4361.127390  	94.659059 
4362.091814  	94.682768 
4363.056239  	94.671872 
4364.020663  	94.698249 
4364.985088  	94.691050 
4365.949512  	94.647635 
4366.913937  	94.656185 
4367.878361  	94.634111 
4368.842786  	94.675636 
4369.807210  	94.770969 
4370.771635  	94.766462 
4371.736059  	94.699680 
4372.700484  	94.709692 
4373.664908  	94.734812 
4374.629332  	94.705668 
4375.593757  	94.656901 
4376.558181  	94.636490 
4377.522606  	94.633505 
4378.487030  	94.624980 
4379.451455  	94.653473 
4380.415879  	94.651962 
4381.380304  	94.645299 
4382.344728  	94.674910 
4383.309153  	94.682705 
4384.273577  	94.642364 
4385.238001  	94.665315 
4386.202426  	94.720563 
4387.166850  	94.708397 
4388.131275  	94.681111 
4389.095699  	94.652295 
4390.060124  	94.645754 
4391.024548  	94.625817 
4391.988973  	94.711279 
4392.953397  	94.792017 
4393.917822  	94.737699 
4394.882246  	94.579626 
4395.846670  	94.522497 
4396.811095  	94.575618 
4397.775519  	94.687782 
4398.739944  	94.747657 
4399.704368  	94.715651 
4400.668793  	94.734033 
4401.633217  	94.648801 
4402.597642  	94.607030 
4403.562066  	94.674707 
4404.526491  	94.706421 
4405.490915  	94.704401 
4406.455339  	94.688188 
4407.419764  	94.641354 
4408.384188  	94.657701 
4409.348613  	94.707372 
4410.313037  	94.690162 
4411.277462  	94.697948 
4412.241886  	94.722262 
4413.206311  	94.758144 
4414.170735  	94.759086 
4415.135160  	94.714873 
4416.099584  	94.667966 
4417.064008  	94.600126 
4418.028433  	94.541404 
4418.992857  	94.586073 
4419.957282  	94.616813 
4420.921706  	94.645285 
4421.886131  	94.617354 
4422.850555  	94.622602 
4423.814980  	94.645833 
4424.779404  	94.651557 
4425.743829  	94.639037 
4426.708253  	94.596220 
4427.672677  	94.512655 
4428.637102  	94.544018 
4429.601526  	94.611374 
4430.565951  	94.621822 
4431.530375  	94.596173 
4432.494800  	94.533526 
4433.459224  	94.510647 
4434.423649  	94.542413 
4435.388073  	94.597182 
4436.352498  	94.714173 
4437.316922  	94.767320 
4438.281347  	94.749695 
4439.245771  	94.639626 
4440.210195  	94.645709 
4441.174620  	94.670312 
4442.139044  	94.650468 
4443.103469  	94.657521 
4444.067893  	94.676406 
4445.032318  	94.668622 
4445.996742  	94.666749 
4446.961167  	94.640512 
4447.925591  	94.568609 
4448.890016  	94.485789 
4449.854440  	94.458376 
4450.818864  	94.538720 
4451.783289  	94.627276 
4452.747713  	94.608990 
4453.712138  	94.597413 
4454.676562  	94.581118 
4455.640987  	94.573155 
4456.605411  	94.601710 
4457.569836  	94.621086 
4458.534260  	94.577861 
4459.498685  	94.553581 
4460.463109  	94.519386 
4461.427533  	94.585581 
4462.391958  	94.616416 
4463.356382  	94.585927 
4464.320807  	94.596653 
4465.285231  	94.637807 
4466.249656  	94.635905 
4467.214080  	94.602756 
4468.178505  	94.605340 
4469.142929  	94.648595 
4470.107354  	94.683884 
4471.071778  	94.643754 
4472.036202  	94.680483 
4473.000627  	94.759331 
4473.965051  	94.653537 
4474.929476  	94.596053 
4475.893900  	94.640850 
4476.858325  	94.663442 
4477.822749  	94.651155 
4478.787174  	94.663223 
4479.751598  	94.665899 
4480.716023  	94.645505 
4481.680447  	94.628437 
4482.644871  	94.645055 
4483.609296  	94.664421 
4484.573720  	94.697571 
4485.538145  	94.677154 
4486.502569  	94.672874 
4487.466994  	94.695361 
4488.431418  	94.741867 
4489.395843  	94.644595 
4490.360267  	94.587250 
4491.324692  	94.683434 
4492.289116  	94.729462 
4493.253541  	94.707463 
4494.217965  	94.697769 
4495.182389  	94.663226 
4496.146814  	94.628723 
4497.111238  	94.646405 
4498.075663  	94.769599 
4499.040087  	94.802230 
4500.004512  	94.684608 
4500.968936  	94.624576 
4501.933361  	94.627471 
4502.897785  	94.696976 
4503.862210  	94.783522 
4504.826634  	94.778264 
4505.791058  	94.757468 
4506.755483  	94.723283 
4507.719907  	94.693207 
4508.684332  	94.735245 
4509.648756  	94.775307 
4510.613181  	94.777234 
4511.577605  	94.743064 
4512.542030  	94.690544 
4513.506454  	94.736181 
4514.470879  	94.714606 
4515.435303  	94.680055 
4516.399727  	94.711087 
4517.364152  	94.651127 
4518.328576  	94.640913 
4519.293001  	94.727811 
4520.257425  	94.706478 
4521.221850  	94.617228 
4522.186274  	94.676512 
4523.150699  	94.693296 
4524.115123  	94.631779 
4525.079548  	94.673021 
4526.043972  	94.697902 
4527.008396  	94.639809 
4527.972821  	94.552857 
4528.937245  	94.566367 
4529.901670  	94.598801 
4530.866094  	94.662645 
4531.830519  	94.710264 
4532.794943  	94.639194 
4533.759368  	94.631765 
4534.723792  	94.691236 
4535.688217  	94.650867 
4536.652641  	94.700106 
4537.617065  	94.734618 
4538.581490  	94.750848 
4539.545914  	94.765966 
4540.510339  	94.760335 
4541.474763  	94.640086 
4542.439188  	94.626027 
4543.403612  	94.679101 
4544.368037  	94.643103 
4545.332461  	94.610203 
4546.296886  	94.679801 
4547.261310  	94.707550 
4548.225734  	94.680312 
4549.190159  	94.685148 
4550.154583  	94.725961 
4551.119008  	94.667740 
4552.083432  	94.694316 
4553.047857  	94.712042 
4554.012281  	94.739736 
4554.976706  	94.743962 
4555.941130  	94.677373 
4556.905555  	94.630372 
4557.869979  	94.668598 
4558.834404  	94.716818 
4559.798828  	94.692868 
4560.763252  	94.569265 
4561.727677  	94.518245 
4562.692101  	94.568576 
4563.656526  	94.663514 
4564.620950  	94.687087 
4565.585375  	94.651808 
4566.549799  	94.705436 
4567.514224  	94.761005 
4568.478648  	94.720954 
4569.443073  	94.694618 
4570.407497  	94.712179 
4571.371921  	94.745342 
4572.336346  	94.690726 
4573.300770  	94.674423 
4574.265195  	94.598394 
4575.229619  	94.592457 
4576.194044  	94.624285 
4577.158468  	94.661980 
4578.122893  	94.662069 
4579.087317  	94.632054 
4580.051742  	94.631751 
4581.016166  	94.721127 
4581.980590  	94.736901 
4582.945015  	94.731019 
4583.909439  	94.720617 
4584.873864  	94.731180 
4585.838288  	94.712492 
4586.802713  	94.655809 
4587.767137  	94.568596 
4588.731562  	94.611573 
4589.695986  	94.650569 
4590.660411  	94.655244 
4591.624835  	94.646532 
4592.589259  	94.631060 
4593.553684  	94.641719 
4594.518108  	94.560566 
4595.482533  	94.498679 
4596.446957  	94.581966 
4597.411382  	94.557437 
4598.375806  	94.581256 
4599.340231  	94.643974 
4600.304655  	94.665010 
4601.269080  	94.727705 
4602.233504  	94.720960 
4603.197928  	94.653792 
4604.162353  	94.667334 
4605.126777  	94.673492 
4606.091202  	94.704486 
4607.055626  	94.736418 
4608.020051  	94.752842 
4608.984475  	94.726901 
4609.948900  	94.651496 
4610.913324  	94.615648 
4611.877749  	94.633867 
4612.842173  	94.641536 
4613.806598  	94.667383 
4614.771022  	94.635406 
4615.735446  	94.675424 
4616.699871  	94.657949 
4617.664295  	94.560701 
4618.628720  	94.543462 
4619.593144  	94.548557 
4620.557569  	94.655669 
4621.521993  	94.660858 
4622.486418  	94.608936 
4623.450842  	94.642359 
4624.415267  	94.609715 
4625.379691  	94.653136 
4626.344115  	94.675083 
4627.308540  	94.712727 
4628.272964  	94.713086 
4629.237389  	94.684907 
4630.201813  	94.632894 
4631.166238  	94.686743 
4632.130662  	94.732849 
4633.095087  	94.596286 
4634.059511  	94.546177 
4635.023936  	94.696851 
4635.988360  	94.748423 
4636.952784  	94.693841 
4637.917209  	94.676471 
4638.881633  	94.585473 
4639.846058  	94.534101 
4640.810482  	94.624114 
4641.774907  	94.627527 
4642.739331  	94.529874 
4643.703756  	94.608468 
4644.668180  	94.726359 
4645.632605  	94.654874 
4646.597029  	94.635525 
4647.561453  	94.621053 
4648.525878  	94.674667 
4649.490302  	94.746214 
4650.454727  	94.733969 
4651.419151  	94.648811 
4652.383576  	94.590991 
4653.348000  	94.649555 
4654.312425  	94.693727 
4655.276849  	94.706769 
4656.241274  	94.668874 
4657.205698  	94.643374 
4658.170122  	94.659401 
4659.134547  	94.664575 
4660.098971  	94.573376 
4661.063396  	94.638753 
4662.027820  	94.750188 
4662.992245  	94.687073 
4663.956669  	94.599388 
4664.921094  	94.643904 
4665.885518  	94.715614 
4666.849943  	94.642066 
4667.814367  	94.536293 
4668.778791  	94.610402 
4669.743216  	94.645625 
4670.707640  	94.632127 
4671.672065  	94.619792 
4672.636489  	94.589207 
4673.600914  	94.584102 
4674.565338  	94.610931 
4675.529763  	94.605454 
4676.494187  	94.637094 
4677.458612  	94.707788 
4678.423036  	94.793073 
4679.387461  	94.788885 
4680.351885  	94.719618 
4681.316309  	94.677602 
4682.280734  	94.667039 
4683.245158  	94.663639 
4684.209583  	94.682324 
4685.174007  	94.637762 
4686.138432  	94.616012 
4687.102856  	94.656215 
4688.067281  	94.654728 
4689.031705  	94.612736 
4689.996130  	94.677983 
4690.960554  	94.705140 
4691.924978  	94.617205 
4692.889403  	94.552844 
4693.853827  	94.532682 
4694.818252  	94.587991 
4695.782676  	94.599104 
4696.747101  	94.584152 
4697.711525  	94.637485 
4698.675950  	94.680240 
4699.640374  	94.599636 