##TITLE=No Description
##DATA TYPE=INFRARED SPECTRUM
##XUNITS=1/CM
##YUNITS=%T
400.236149  	124.350656 
401.200574  	88.761802 
402.164998  	67.284259 
403.129423  	65.138188 
404.093847  	66.062496 
405.058272  	71.997004 
406.022696  	97.310646 
406.987120  	107.254276 
407.951545  	97.639730 
408.915969  	89.390647 
409.880394  	90.234314 
410.844818  	92.125796 
411.809243  	91.720034 
412.773667  	94.217418 
413.738092  	89.946427 
414.702516  	77.326782 
415.666941  	75.721216 
416.631365  	83.958326 
417.595789  	91.789694 
418.560214  	99.545012 
419.524638  	89.341892 
420.489063  	86.004409 
421.453487  	84.536663 
422.417912  	82.646399 
423.382336  	84.601032 
424.346761  	84.928454 
425.311185  	80.717202 
426.275610  	82.697747 
427.240034  	84.196652 
428.204458  	84.370555 
429.168883  	83.959571 
430.133307  	83.357601 
431.097732  	81.258316 
432.062156  	78.520047 
433.026581  	77.981374 
433.991005  	79.647605 
434.955430  	80.052278 
435.919854  	79.672195 
436.884279  	77.927831 
437.848703  	80.057911 
438.813127  	82.150294 
439.777552  	82.413982 
440.741976  	81.312189 
441.706401  	81.075290 
442.670825  	82.414843 
443.635250  	83.704576 
444.599674  	83.836035 
445.564099  	83.372141 
446.528523  	83.152984 
447.492948  	83.818108 
448.457372  	85.578859 
449.421796  	85.922391 
450.386221  	85.899385 
451.350645  	85.522828 
452.315070  	84.331848 
453.279494  	84.307562 
454.243919  	84.921396 
455.208343  	85.039872 
456.172768  	84.480582 
457.137192  	84.071793 
458.101617  	83.520554 
459.066041  	83.957323 
460.030466  	83.978304 
460.994890  	84.285567 
461.959314  	84.341947 
462.923739  	84.601502 
463.888163  	84.213514 
464.852588  	83.640274 
465.817012  	83.909708 
466.781437  	84.174805 
467.745861  	83.790723 
468.710286  	83.237428 
469.674710  	82.583857 
470.639135  	82.671167 
471.603559  	82.030533 
472.567983  	81.989871 
473.532408  	83.802226 
474.496832  	84.035636 
475.461257  	83.400342 
476.425681  	82.984702 
477.390106  	83.632057 
478.354530  	84.390233 
479.318955  	83.080133 
480.283379  	81.973955 
481.247804  	82.864248 
482.212228  	82.987207 
483.176652  	83.512118 
484.141077  	84.229131 
485.105501  	83.421500 
486.069926  	82.910080 
487.034350  	83.574998 
487.998775  	83.592429 
488.963199  	83.464944 
489.927624  	83.635075 
490.892048  	82.929612 
491.856473  	81.472510 
492.820897  	81.948625 
493.785321  	82.233166 
494.749746  	81.600884 
495.714170  	81.240593 
496.678595  	80.749312 
497.643019  	80.683474 
498.607444  	80.769656 
499.571868  	79.637562 
500.536293  	78.874353 
501.500717  	78.417895 
502.465142  	78.363039 
503.429566  	78.992216 
504.393990  	78.898878 
505.358415  	78.290613 
506.322839  	77.428800 
507.287264  	77.976027 
508.251688  	79.511200 
509.216113  	80.879396 
510.180537  	81.687137 
511.144962  	82.343421 
512.109386  	83.063810 
513.073811  	83.357913 
514.038235  	83.414994 
515.002660  	83.543883 
515.967084  	83.143578 
516.931508  	82.533601 
517.895933  	83.026755 
518.860357  	83.223314 
519.824782  	82.571640 
520.789206  	83.053155 
521.753631  	83.939087 
522.718055  	84.580367 
523.682480  	84.103792 
524.646904  	83.786028 
525.611329  	83.672910 
526.575753  	83.728903 
527.540177  	84.476856 
528.504602  	84.744910 
529.469026  	84.579330 
530.433451  	84.645617 
531.397875  	84.961003 
532.362300  	85.240469 
533.326724  	85.416465 
534.291149  	85.433078 
535.255573  	85.667422 
536.219998  	86.061296 
537.184422  	86.431899 
538.148846  	85.824795 
539.113271  	85.858952 
540.077695  	86.140847 
541.042120  	86.607872 
542.006544  	86.903028 
542.970969  	86.859871 
543.935393  	86.557602 
544.899818  	86.408940 
545.864242  	86.494273 
546.828667  	86.656792 
547.793091  	86.291874 
548.757515  	86.481359 
549.721940  	86.992233 
550.686364  	86.944782 
551.650789  	86.969850 
552.615213  	86.700019 
553.579638  	86.947394 
554.544062  	87.098307 
555.508487  	86.973015 
556.472911  	87.035875 
557.437336  	86.917313 
558.401760  	86.968754 
559.366184  	87.286819 
560.330609  	87.171667 
561.295033  	87.036799 
562.259458  	87.167815 
563.223882  	86.826171 
564.188307  	86.766457 
565.152731  	87.266925 
566.117156  	87.277366 
567.081580  	86.709261 
568.046005  	86.603312 
569.010429  	86.670111 
569.974853  	86.726096 
570.939278  	86.823525 
571.903702  	86.915100 
572.868127  	86.924415 
573.832551  	86.760809 
574.796976  	86.771023 
575.761400  	86.226799 
576.725825  	86.484876 
577.690249  	86.813806 
578.654674  	86.714631 
579.619098  	86.692714 
580.583523  	86.435459 
581.547947  	86.796223 
582.512371  	87.068616 
583.476796  	86.892821 
584.441220  	86.699937 
585.405645  	86.778898 
586.370069  	87.138327 
587.334494  	87.093502 
588.298918  	87.139916 
589.263343  	87.126285 
590.227767  	87.032496 
591.192192  	86.585855 
592.156616  	86.269241 
593.121040  	86.889016 
594.085465  	87.230257 
595.049889  	87.173421 
596.014314  	87.176779 
596.978738  	86.983708 
597.943163  	86.893786 
598.907587  	86.963098 
599.872012  	86.614058 
600.836436  	86.644997 
601.800861  	86.948679 
602.765285  	86.997419 
603.729709  	86.771526 
604.694134  	86.660282 
605.658558  	86.756212 
606.622983  	86.899916 
607.587407  	86.835375 
608.551832  	86.840301 
609.516256  	86.898317 
610.480681  	86.754840 
611.445105  	86.563101 
612.409530  	86.654680 
613.373954  	87.044523 
614.338378  	86.905645 
615.302803  	86.170568 
616.267227  	85.855229 
617.231652  	86.089045 
618.196076  	86.191568 
619.160501  	86.261587 
620.124925  	86.228669 
621.089350  	86.189812 
622.053774  	86.278487 
623.018199  	86.333987 
623.982623  	85.916738 
624.947047  	85.724313 
625.911472  	85.626446 
626.875896  	85.706618 
627.840321  	85.547915 
628.804745  	85.422632 
629.769170  	84.987973 
630.733594  	84.231958 
631.698019  	83.903817 
632.662443  	84.145967 
633.626868  	84.484492 
634.591292  	84.958418 
635.555717  	85.048460 
636.520141  	85.363015 
637.484565  	85.607702 
638.448990  	85.687680 
639.413414  	85.520530 
640.377839  	85.377832 
641.342263  	85.319094 
642.306688  	85.219580 
643.271112  	85.229311 
644.235537  	85.225768 
645.199961  	85.094725 
646.164386  	85.235525 
647.128810  	85.216319 
648.093234  	85.116400 
649.057659  	84.998574 
650.022083  	85.036485 
650.986508  	84.898427 
651.950932  	84.697511 
652.915357  	84.571683 
653.879781  	84.401957 
654.844206  	84.276801 
655.808630  	84.276057 
656.773055  	84.212330 
657.737479  	84.193855 
658.701903  	84.044581 
659.666328  	83.936158 
660.630752  	83.819548 
661.595177  	83.677328 
662.559601  	83.627701 
663.524026  	83.490911 
664.488450  	83.317629 
665.452875  	83.201926 
666.417299  	83.139344 
667.381724  	83.497370 
668.346148  	83.255700 
669.310572  	82.290365 
670.274997  	82.111065 
671.239421  	82.052793 
672.203846  	81.921731 
673.168270  	81.705127 
674.132695  	81.314639 
675.097119  	80.956416 
676.061544  	80.610837 
677.025968  	80.351070 
677.990393  	79.943839 
678.954817  	79.539748 
679.919241  	79.358643 
680.883666  	79.311153 
681.848090  	79.192896 
682.812515  	79.158492 
683.776939  	79.011720 
684.741364  	78.800993 
685.705788  	78.513333 
686.670213  	78.300852 
687.634637  	77.902253 
688.599062  	77.468123 
689.563486  	77.067388 
690.527910  	76.599408 
691.492335  	76.045717 
692.456759  	75.473636 
693.421184  	74.815089 
694.385608  	74.246685 
695.350033  	73.481977 
696.314457  	72.512130 
697.278882  	71.433278 
698.243306  	70.273935 
699.207731  	69.127931 
700.172155  	67.981871 
701.136580  	66.721514 
702.101004  	65.719923 
703.065428  	64.833620 
704.029853  	63.818183 
704.994277  	62.736021 
705.958702  	61.726763 
706.923126  	60.636310 
707.887551  	59.437332 
708.851975  	58.110366 
709.816400  	56.580112 
710.780824  	55.056768 
711.745249  	53.517589 
712.709673  	51.741525 
713.674097  	49.906982 
714.638522  	48.044733 
715.602946  	46.033805 
716.567371  	43.948681 
717.531795  	41.894055 
718.496220  	39.998561 
719.460644  	38.641392 
720.425069  	37.733942 
721.389493  	37.338889 
722.353918  	37.450218 
723.318342  	38.199935 
724.282766  	39.634062 
725.247191  	42.047293 
726.211615  	44.974611 
727.176040  	47.974567 
728.140464  	50.877764 
729.104889  	53.812367 
730.069313  	56.742237 
731.033738  	59.648379 
731.998162  	62.622323 
732.962587  	65.705721 
733.927011  	68.716125 
734.891435  	71.725228 
735.855860  	74.693943 
736.820284  	77.502344 
737.784709  	80.081888 
738.749133  	82.441044 
739.713558  	84.454092 
740.677982  	86.237357 
741.642407  	87.649412 
742.606831  	88.672089 
743.571256  	89.372581 
744.535680  	89.878853 
745.500104  	90.395130 
746.464529  	90.880495 
747.428953  	91.116561 
748.393378  	91.238712 
749.357802  	91.206845 
750.322227  	91.240600 
751.286651  	91.201178 
752.251076  	91.202083 
753.215500  	91.278151 
754.179925  	91.170944 
755.144349  	91.078131 
756.108774  	91.207522 
757.073198  	91.199331 
758.037622  	91.001232 
759.002047  	90.775309 
759.966471  	90.740816 
760.930896  	90.686854 
761.895320  	90.617953 
762.859745  	90.595095 
763.824169  	90.600208 
764.788594  	90.486942 
765.753018  	90.303189 
766.717443  	90.105937 
767.681867  	89.905296 
768.646291  	89.742235 
769.610716  	89.666190 
770.575140  	89.490618 
771.539565  	89.391046 
772.503989  	89.246360 
773.468414  	89.121957 
774.432838  	88.993555 
775.397263  	88.882332 
776.361687  	88.631882 
777.326112  	88.425369 
778.290536  	88.299270 
779.254960  	88.380715 
780.219385  	87.822998 
781.183809  	87.755268 
782.148234  	87.779788 
783.112658  	87.540452 
784.077083  	87.031049 
785.041507  	86.666238 
786.005932  	86.577652 
786.970356  	86.111855 
787.934781  	85.491459 
788.899205  	85.074029 
789.863629  	84.703718 
790.828054  	84.186530 
791.792478  	83.741500 
792.756903  	83.572022 
793.721327  	83.705745 
794.685752  	84.176525 
795.650176  	84.879323 
796.614601  	85.627796 
797.579025  	86.291697 
798.543450  	86.576313 
799.507874  	86.739255 
800.472298  	86.932838 
801.436723  	86.982996 
802.401147  	86.842291 
803.365572  	86.843226 
804.329996  	86.930679 
805.294421  	86.892245 
806.258845  	86.813277 
807.223270  	86.852575 
808.187694  	86.851881 
809.152119  	86.785909 
810.116543  	86.745013 
811.080967  	86.705467 
812.045392  	86.704733 
813.009816  	86.749749 
813.974241  	86.743895 
814.938665  	86.776780 
815.903090  	86.813030 
816.867514  	86.722284 
817.831939  	86.639628 
818.796363  	86.712192 
819.760788  	86.733342 
820.725212  	86.601939 
821.689637  	86.367942 
822.654061  	86.227559 
823.618485  	86.139774 
824.582910  	85.968427 
825.547334  	85.742340 
826.511759  	85.594427 
827.476183  	85.409379 
828.440608  	85.134712 
829.405032  	84.854555 
830.369457  	84.635759 
831.333881  	84.408221 
832.298306  	84.122649 
833.262730  	83.779645 
834.227154  	83.450433 
835.191579  	83.129011 
836.156003  	82.719152 
837.120428  	82.266168 
838.084852  	81.761205 
839.049277  	81.292794 
840.013701  	80.853299 
840.978126  	80.362599 
841.942550  	79.908803 
842.906975  	79.265828 
843.871399  	78.570645 
844.835823  	77.989614 
845.800248  	77.599240 
846.764672  	77.350817 
847.729097  	77.358681 
848.693521  	77.551277 
849.657946  	77.943923 
850.622370  	78.497526 
851.586795  	79.016790 
852.551219  	79.340175 
853.515644  	79.651580 
854.480068  	79.960260 
855.444492  	80.161065 
856.408917  	80.329832 
857.373341  	80.524202 
858.337766  	80.691795 
859.302190  	80.819895 
860.266615  	80.881222 
861.231039  	80.863851 
862.195464  	80.753559 
863.159888  	80.502442 
864.124313  	80.109157 
865.088737  	79.436229 
866.053161  	78.481919 
867.017586  	77.241829 
867.982010  	75.574762 
868.946435  	73.241817 
869.910859  	70.311665 
870.875284  	67.336744 
871.839708  	65.721036 
872.804133  	66.650145 
873.768557  	69.585137 
874.732982  	72.768887 
875.697406  	75.286759 
876.661831  	77.131630 
877.626255  	78.567419 
878.590679  	79.732545 
879.555104  	80.843041 
880.519528  	81.877947 
881.483953  	82.707974 
882.448377  	83.455617 
883.412802  	84.173959 
884.377226  	84.782670 
885.341651  	85.264379 
886.306075  	85.645371 
887.270500  	85.965135 
888.234924  	86.236033 
889.199348  	86.314577 
890.163773  	86.280676 
891.128197  	86.285831 
892.092622  	86.306825 
893.057046  	86.271558 
894.021471  	86.187871 
894.985895  	86.172406 
895.950320  	86.127677 
896.914744  	86.046318 
897.879169  	86.003002 
898.843593  	86.005943 
899.808017  	86.074865 
900.772442  	86.153753 
901.736866  	86.228693 
902.701291  	86.439816 
903.665715  	86.651975 
904.630140  	86.795256 
905.594564  	86.942489 
906.558989  	87.173103 
907.523413  	87.443559 
908.487838  	87.638463 
909.452262  	87.764734 
910.416686  	87.938918 
911.381111  	88.101426 
912.345535  	88.158818 
913.309960  	88.232454 
914.274384  	88.308262 
915.238809  	88.349636 
916.203233  	88.334273 
917.167658  	88.344793 
918.132082  	88.398910 
919.096507  	88.440864 
920.060931  	88.460681 
921.025355  	88.491437 
921.989780  	88.443943 
922.954204  	88.355914 
923.918629  	88.294801 
924.883053  	88.262873 
925.847478  	88.239847 
926.811902  	88.190800 
927.776327  	88.108392 
928.740751  	88.049587 
929.705176  	88.064693 
930.669600  	88.008825 
931.634024  	87.890648 
932.598449  	87.821566 
933.562873  	87.770532 
934.527298  	87.698539 
935.491722  	87.542572 
936.456147  	87.437456 
937.420571  	87.466372 
938.384996  	87.374711 
939.349420  	87.182363 
940.313845  	87.100056 
941.278269  	87.059749 
942.242694  	86.970304 
943.207118  	86.810749 
944.171542  	86.680502 
945.135967  	86.591182 
946.100391  	86.413883 
947.064816  	86.227253 
948.029240  	86.103637 
948.993665  	85.977975 
949.958089  	85.800610 
950.922514  	85.616254 
951.886938  	85.477439 
952.851363  	85.240305 
953.815787  	84.926414 
954.780211  	84.711604 
955.744636  	84.590339 
956.709060  	84.370461 
957.673485  	84.018905 
958.637909  	83.647320 
959.602334  	83.290898 
960.566758  	82.935251 
961.531183  	82.543804 
962.495607  	82.134824 
963.460032  	81.749285 
964.424456  	81.323451 
965.388880  	80.797511 
966.353305  	80.317544 
967.317729  	79.954874 
968.282154  	79.560825 
969.246578  	79.186191 
970.211003  	78.954878 
971.175427  	78.892712 
972.139852  	78.951222 
973.104276  	79.172138 
974.068701  	79.603822 
975.033125  	80.089539 
975.997549  	80.527315 
976.961974  	80.984571 
977.926398  	81.482546 
978.890823  	81.935503 
979.855247  	82.278350 
980.819672  	82.575087 
981.784096  	82.852225 
982.748521  	83.042229 
983.712945  	83.149490 
984.677370  	83.182662 
985.641794  	83.183810 
986.606218  	83.135377 
987.570643  	83.070724 
988.535067  	83.036916 
989.499492  	83.083158 
990.463916  	83.124695 
991.428341  	83.137857 
992.392765  	83.131001 
993.357190  	83.101071 
994.321614  	83.073036 
995.286039  	83.005378 
996.250463  	82.893365 
997.214888  	82.710184 
998.179312  	82.510859 
999.143736  	82.301293 
1000.108161  	82.081185 
1001.072585  	81.804523 
1002.037010  	81.538280 
1003.001434  	81.224187 
1003.965859  	80.840615 
1004.930283  	80.393328 
1005.894708  	79.857390 
1006.859132  	79.205039 
1007.823557  	78.418524 
1008.787981  	77.530195 
1009.752405  	76.494527 
1010.716830  	75.201842 
1011.681254  	73.597519 
1012.645679  	71.656238 
1013.610103  	69.353285 
1014.574528  	66.837774 
1015.538952  	64.617233 
1016.503377  	63.149570 
1017.467801  	62.555266 
1018.432226  	62.833354 
1019.396650  	63.843397 
1020.361074  	65.242647 
1021.325499  	66.699752 
1022.289923  	68.036661 
1023.254348  	69.376556 
1024.218772  	71.040130 
1025.183197  	73.111738 
1026.147621  	75.298294 
1027.112046  	77.165534 
1028.076470  	78.443846 
1029.040895  	79.153331 
1030.005319  	79.486878 
1030.969743  	79.620643 
1031.934168  	79.689867 
1032.898592  	79.621054 
1033.863017  	79.412506 
1034.827441  	79.169421 
1035.791866  	78.920565 
1036.756290  	78.689231 
1037.720715  	78.485119 
1038.685139  	78.254933 
1039.649564  	78.034666 
1040.613988  	77.886716 
1041.578412  	77.709338 
1042.542837  	77.532040 
1043.507261  	77.498163 
1044.471686  	77.498323 
1045.436110  	77.453766 
1046.400535  	77.504942 
1047.364959  	77.612049 
1048.329384  	77.668246 
1049.293808  	77.745926 
1050.258233  	77.877471 
1051.222657  	77.985833 
1052.187081  	78.027588 
1053.151506  	78.063824 
1054.115930  	78.059630 
1055.080355  	78.015403 
1056.044779  	77.919789 
1057.009204  	77.756590 
1057.973628  	77.601728 
1058.938053  	77.414378 
1059.902477  	77.035411 
1060.866902  	76.607114 
1061.831326  	76.273802 
1062.795751  	75.882849 
1063.760175  	75.341260 
1064.724599  	74.731056 
1065.689024  	74.226954 
1066.653448  	73.683189 
1067.617873  	72.999128 
1068.582297  	72.246678 
1069.546722  	71.469998 
1070.511146  	70.681567 
1071.475571  	69.799733 
1072.439995  	68.862868 
1073.404420  	67.867839 
1074.368844  	66.781253 
1075.333268  	65.573883 
1076.297693  	64.342421 
1077.262117  	63.134136 
1078.226542  	61.902007 
1079.190966  	60.611609 
1080.155391  	59.345778 
1081.119815  	58.250354 
1082.084240  	57.295493 
1083.048664  	56.432929 
1084.013089  	55.656081 
1084.977513  	54.961775 
1085.941937  	54.285187 
1086.906362  	53.675024 
1087.870786  	53.207908 
1088.835211  	52.781555 
1089.799635  	52.351495 
1090.764060  	51.925742 
1091.728484  	51.602538 
1092.692909  	51.352490 
1093.657333  	51.104514 
1094.621758  	50.907517 
1095.586182  	50.809527 
1096.550606  	50.823828 
1097.515031  	50.911987 
1098.479455  	51.098247 
1099.443880  	51.370107 
1100.408304  	51.729496 
1101.372729  	52.154926 
1102.337153  	52.665538 
1103.301578  	53.269463 
1104.266002  	53.891809 
1105.230427  	54.519535 
1106.194851  	55.200044 
1107.159275  	55.933932 
1108.123700  	56.643296 
1109.088124  	57.239974 
1110.052549  	57.761245 
1111.016973  	58.195679 
1111.981398  	58.501425 
1112.945822  	58.775854 
1113.910247  	59.000004 
1114.874671  	59.090918 
1115.839096  	59.023038 
1116.803520  	58.817474 
1117.767945  	58.627030 
1118.732369  	58.538015 
1119.696793  	58.563170 
1120.661218  	58.639210 
1121.625642  	58.768615 
1122.590067  	59.006942 
1123.554491  	59.357488 
1124.518916  	59.807314 
1125.483340  	60.349319 
1126.447765  	60.959058 
1127.412189  	61.659733 
1128.376614  	62.466151 
1129.341038  	63.394352 
1130.305462  	64.477109 
1131.269887  	65.664639 
1132.234311  	66.881502 
1133.198736  	68.186726 
1134.163160  	69.565716 
1135.127585  	70.916285 
1136.092009  	72.260632 
1137.056434  	73.627521 
1138.020858  	74.939431 
1138.985283  	76.126732 
1139.949707  	77.191153 
1140.914131  	78.211225 
1141.878556  	79.190021 
1142.842980  	80.043635 
1143.807405  	80.868095 
1144.771829  	81.670032 
1145.736254  	82.368096 
1146.700678  	83.018950 
1147.665103  	83.591284 
1148.629527  	84.119982 
1149.593952  	84.605945 
1150.558376  	85.041830 
1151.522800  	85.433660 
1152.487225  	85.792932 
1153.451649  	86.112705 
1154.416074  	86.385632 
1155.380498  	86.605717 
1156.344923  	86.828279 
1157.309347  	87.032207 
1158.273772  	87.167929 
1159.238196  	87.205748 
1160.202621  	87.303083 
1161.167045  	87.418764 
1162.131469  	87.461734 
1163.095894  	87.452681 
1164.060318  	87.413961 
1165.024743  	87.311348 
1165.989167  	87.152722 
1166.953592  	86.932761 
1167.918016  	86.666742 
1168.882441  	86.332237 
1169.846865  	85.926112 
1170.811290  	85.531105 
1171.775714  	85.207778 
1172.740138  	84.984167 
1173.704563  	84.783267 
1174.668987  	84.646830 
1175.633412  	84.709861 
1176.597836  	84.831900 
1177.562261  	84.935126 
1178.526685  	85.075373 
1179.491110  	85.258715 
1180.455534  	85.435733 
1181.419959  	85.639973 
1182.384383  	85.808589 
1183.348808  	85.910780 
1184.313232  	86.020933 
1185.277656  	86.061975 
1186.242081  	86.011225 
1187.206505  	85.954244 
1188.170930  	85.911027 
1189.135354  	85.773698 
1190.099779  	85.579317 
1191.064203  	85.397153 
1192.028628  	85.149523 
1192.993052  	84.840194 
1193.957477  	84.511820 
1194.921901  	84.155279 
1195.886325  	83.765164 
1196.850750  	83.313194 
1197.815174  	82.870900 
1198.779599  	82.485595 
1199.744023  	82.096193 
1200.708448  	81.613266 
1201.672872  	81.141191 
1202.637297  	80.709575 
1203.601721  	80.263831 
1204.566146  	79.779863 
1205.530570  	79.324237 
1206.494994  	78.862646 
1207.459419  	78.368894 
1208.423843  	77.836952 
1209.388268  	77.312882 
1210.352692  	76.794789 
1211.317117  	76.232588 
1212.281541  	75.593945 
1213.245966  	74.991264 
1214.210390  	74.366772 
1215.174815  	73.628505 
1216.139239  	72.815890 
1217.103663  	71.976672 
1218.068088  	71.095766 
1219.032512  	70.169612 
1219.996937  	69.267115 
1220.961361  	68.405863 
1221.925786  	67.571837 
1222.890210  	66.752014 
1223.854635  	65.952377 
1224.819059  	65.128813 
1225.783484  	64.333423 
1226.747908  	63.496169 
1227.712332  	62.516246 
1228.676757  	61.445530 
1229.641181  	60.261203 
1230.605606  	58.998885 
1231.570030  	57.661918 
1232.534455  	56.311398 
1233.498879  	54.981130 
1234.463304  	53.684983 
1235.427728  	52.467075 
1236.392153  	51.384577 
1237.356577  	50.442465 
1238.321002  	49.641629 
1239.285426  	48.981863 
1240.249850  	48.516807 
1241.214275  	48.197785 
1242.178699  	47.951033 
1243.143124  	47.822362 
1244.107548  	47.817712 
1245.071973  	47.926276 
1246.036397  	48.093700 
1247.000822  	48.292450 
1247.965246  	48.560454 
1248.929671  	48.859345 
1249.894095  	49.147666 
1250.858519  	49.473126 
1251.822944  	49.797818 
1252.787368  	50.109173 
1253.751793  	50.414042 
1254.716217  	50.699040 
1255.680642  	50.971275 
1256.645066  	51.230498 
1257.609491  	51.479925 
1258.573915  	51.720842 
1259.538340  	51.975233 
1260.502764  	52.245595 
1261.467188  	52.671968 
1262.431613  	53.160939 
1263.396037  	53.698748 
1264.360462  	54.292942 
1265.324886  	54.954748 
1266.289311  	55.650358 
1267.253735  	56.394389 
1268.218160  	57.173486 
1269.182584  	57.945663 
1270.147009  	58.736321 
1271.111433  	59.592029 
1272.075857  	60.403259 
1273.040282  	61.293340 
1274.004706  	62.097969 
1274.969131  	62.839334 
1275.933555  	63.576945 
1276.897980  	64.300867 
1277.862404  	65.000100 
1278.826829  	65.683901 
1279.791253  	66.303752 
1280.755678  	66.968015 
1281.720102  	67.673796 
1282.684526  	68.344845 
1283.648951  	68.994404 
1284.613375  	69.637565 
1285.577800  	70.295453 
1286.542224  	70.888790 
1287.506649  	71.348834 
1288.471073  	71.988002 
1289.435498  	72.805459 
1290.399922  	73.524949 
1291.364347  	74.254932 
1292.328771  	75.037829 
1293.293195  	75.793026 
1294.257620  	76.545219 
1295.222044  	77.261384 
1296.186469  	77.921481 
1297.150893  	78.664795 
1298.115318  	79.545905 
1299.079742  	80.311094 
1300.044167  	81.069246 
1301.008591  	81.771878 
1301.973016  	82.387826 
1302.937440  	82.919163 
1303.901865  	83.408197 
1304.866289  	83.832278 
1305.830713  	84.228831 
1306.795138  	84.600741 
1307.759562  	84.893331 
1308.723987  	85.262992 
1309.688411  	85.781625 
1310.652836  	86.133120 
1311.617260  	86.296436 
1312.581685  	86.194228 
1313.546109  	86.517752 
1314.510534  	86.916696 
1315.474958  	87.340358 
1316.439382  	87.466915 
1317.403807  	87.532409 
1318.368231  	87.670739 
1319.332656  	87.687293 
1320.297080  	88.185341 
1321.261505  	88.595511 
1322.225929  	88.904462 
1323.190354  	89.025594 
1324.154778  	89.153916 
1325.119203  	89.266755 
1326.083627  	89.288183 
1327.048051  	89.232722 
1328.012476  	89.090532 
1328.976900  	88.801321 
1329.941325  	88.287639 
1330.905749  	87.678204 
1331.870174  	86.869203 
1332.834598  	85.708585 
1333.799023  	84.298012 
1334.763447  	82.737867 
1335.727872  	80.859654 
1336.692296  	78.627928 
1337.656720  	76.983839 
1338.621145  	75.209196 
1339.585569  	73.685365 
1340.549994  	73.725033 
1341.514418  	75.258473 
1342.478843  	76.714744 
1343.443267  	78.070861 
1344.407692  	79.727870 
1345.372116  	81.496344 
1346.336541  	83.221749 
1347.300965  	84.730609 
1348.265389  	85.934710 
1349.229814  	86.810584 
1350.194238  	87.722379 
1351.158663  	88.517462 
1352.123087  	89.045756 
1353.087512  	89.455599 
1354.051936  	89.577761 
1355.016361  	89.510693 
1355.980785  	89.955764 
1356.945210  	90.205627 
1357.909634  	90.104125 
1358.874059  	90.145099 
1359.838483  	90.143453 
1360.802907  	89.397580 
1361.767332  	88.740064 
1362.731756  	87.674875 
1363.696181  	87.619672 
1364.660605  	88.894161 
1365.625030  	88.979915 
1366.589454  	88.711467 
1367.553879  	88.176044 
1368.518303  	87.394700 
1369.482728  	87.331905 
1370.447152  	87.745686 
1371.411576  	87.724001 
1372.376001  	87.558445 
1373.340425  	86.798226 
1374.304850  	86.212578 
1375.269274  	86.785654 
1376.233699  	87.808393 
1377.198123  	88.030609 
1378.162548  	87.777406 
1379.126972  	87.900231 
1380.091397  	88.111084 
1381.055821  	88.323951 
1382.020245  	88.350412 
1382.984670  	88.297053 
1383.949094  	88.282840 
1384.913519  	88.238692 
1385.877943  	87.729081 
1386.842368  	86.546014 
1387.806792  	86.340283 
1388.771217  	87.551821 
1389.735641  	88.029375 
1390.700066  	87.941761 
1391.664490  	87.942522 
1392.628914  	87.912198 
1393.593339  	87.198218 
1394.557763  	85.665323 
1395.522188  	85.317344 
1396.486612  	85.920009 
1397.451037  	85.650231 
1398.415461  	84.630137 
1399.379886  	84.002858 
1400.344310  	84.302731 
1401.308735  	84.172986 
1402.273159  	83.274458 
1403.237583  	82.152874 
1404.202008  	80.427809 
1405.166432  	78.316942 
1406.130857  	77.516697 
1407.095281  	76.927062 
1408.059706  	76.038970 
1409.024130  	75.617960 
1409.988555  	75.652144 
1410.952979  	76.384998 
1411.917404  	77.646210 
1412.881828  	79.781516 
1413.846252  	81.868986 
1414.810677  	83.698626 
1415.775101  	84.902589 
1416.739526  	85.628836 
1417.703950  	86.196719 
1418.668375  	86.347551 
1419.632799  	86.683322 
1420.597224  	89.312819 
1421.561648  	90.380244 
1422.526073  	90.696096 
1423.490497  	89.823379 
1424.454922  	89.621178 
1425.419346  	90.964228 
1426.383770  	91.462036 
1427.348195  	91.419844 
1428.312619  	91.110877 
1429.277044  	90.515972 
1430.241468  	90.039838 
1431.205893  	90.543299 
1432.170317  	90.468727 
1433.134742  	90.054410 
1434.099166  	90.143725 
1435.063591  	89.831097 
1436.028015  	88.236723 
1436.992439  	87.113490 
1437.956864  	88.804267 
1438.921288  	89.530228 
1439.885713  	89.590136 
1440.850137  	89.548242 
1441.814562  	89.495372 
1442.778986  	89.470500 
1443.743411  	89.383101 
1444.707835  	89.247025 
1445.672260  	89.066669 
1446.636684  	88.753822 
1447.601108  	87.769237 
1448.565533  	87.650546 
1449.529957  	88.518087 
1450.494382  	88.654060 
1451.458806  	88.099768 
1452.423231  	87.615226 
1453.387655  	88.052755 
1454.352080  	87.617186 
1455.316504  	86.336827 
1456.280929  	85.323034 
1457.245353  	84.620054 
1458.209777  	84.870764 
1459.174202  	85.942623 
1460.138626  	87.682857 
1461.103051  	88.677231 
1462.067475  	88.925105 
1463.031900  	88.968324 
1463.996324  	88.471383 
1464.960749  	87.459305 
1465.925173  	88.049087 
1466.889598  	88.561614 
1467.854022  	88.393735 
1468.818446  	88.094190 
1469.782871  	87.466187 
1470.747295  	86.411484 
1471.711720  	84.493249 
1472.676144  	83.554120 
1473.640569  	84.685086 
1474.604993  	86.758098 
1475.569418  	87.099326 
1476.533842  	86.875061 
1477.498267  	88.596888 
1478.462691  	89.608232 
1479.427116  	89.942444 
1480.391540  	89.893461 
1481.355964  	89.508957 
1482.320389  	90.278116 
1483.284813  	91.025906 
1484.249238  	91.347024 
1485.213662  	91.301719 
1486.178087  	90.773823 
1487.142511  	90.217749 
1488.106936  	90.475140 
1489.071360  	89.452031 
1490.035785  	87.932666 
1491.000209  	89.520017 
1491.964633  	91.521755 
1492.929058  	92.337962 
1493.893482  	92.427787 
1494.857907  	91.991269 
1495.822331  	90.699916 
1496.786756  	90.052038 
1497.751180  	90.645904 
1498.715605  	89.923208 
1499.680029  	89.855623 
1500.644454  	89.926886 
1501.608878  	88.911239 
1502.573302  	88.160495 
1503.537727  	87.608966 
1504.502151  	86.352230 
1505.466576  	84.204647 
1506.431000  	80.685828 
1507.395425  	80.385507 
1508.359849  	83.329457 
1509.324274  	85.736364 
1510.288698  	87.692602 
1511.253123  	89.405122 
1512.217547  	89.501395 
1513.181971  	90.529838 
1514.146396  	91.111717 
1515.110820  	90.126329 
1516.075245  	88.926078 
1517.039669  	87.438406 
1518.004094  	89.481549 
1518.968518  	90.926326 
1519.932943  	89.850262 
1520.897367  	87.194564 
1521.861792  	87.514606 
1522.826216  	89.068058 
1523.790640  	90.265078 
1524.755065  	89.729545 
1525.719489  	89.198483 
1526.683914  	89.901277 
1527.648338  	89.524837 
1528.612763  	90.088016 
1529.577187  	91.355082 
1530.541612  	91.717830 
1531.506036  	90.806319 
1532.470461  	90.193037 
1533.434885  	89.168951 
1534.399309  	89.643472 
1535.363734  	90.713444 
1536.328158  	91.308359 
1537.292583  	91.474626 
1538.257007  	90.302294 
1539.221432  	87.391463 
1540.185856  	87.123833 
1541.150281  	88.560337 
1542.114705  	88.573648 
1543.079130  	88.634822 
1544.043554  	88.686142 
1545.007979  	88.257616 
1545.972403  	89.630516 
1546.936827  	91.282057 
1547.901252  	91.606929 
1548.865676  	90.966256 
1549.830101  	88.894325 
1550.794525  	89.485066 
1551.758950  	91.166978 
1552.723374  	91.239093 
1553.687799  	90.233836 
1554.652223  	89.114604 
1555.616648  	90.236022 
1556.581072  	90.438578 
1557.545496  	89.094854 
1558.509921  	85.009349 
1559.474345  	84.136472 
1560.438770  	87.252176 
1561.403194  	90.063400 
1562.367619  	90.985343 
1563.332043  	91.220411 
1564.296468  	90.739473 
1565.260892  	90.330208 
1566.225317  	90.961761 
1567.189741  	91.183842 
1568.154165  	90.680829 
1569.118590  	89.100693 
1570.083014  	88.714777 
1571.047439  	90.174443 
1572.011863  	90.487731 
1572.976288  	90.323195 
1573.940712  	90.086779 
1574.905137  	89.502145 
1575.869561  	88.116651 
1576.833986  	87.338748 
1577.798410  	88.292161 
1578.762834  	89.008724 
1579.727259  	89.397175 
1580.691683  	89.731962 
1581.656108  	90.020657 
1582.620532  	90.303692 
1583.584957  	90.559743 
1584.549381  	90.845509 
1585.513806  	91.040633 
1586.478230  	91.191052 
1587.442655  	91.296889 
1588.407079  	91.378904 
1589.371503  	91.270815 
1590.335928  	91.214805 
1591.300352  	91.277722 
1592.264777  	91.350732 
1593.229201  	91.346213 
1594.193626  	91.022046 
1595.158050  	90.943398 
1596.122475  	91.085181 
1597.086899  	91.161410 
1598.051324  	91.268637 
1599.015748  	91.214635 
1599.980173  	91.152049 
1600.944597  	90.894724 
1601.909021  	90.719508 
1602.873446  	90.426573 
1603.837870  	90.411839 
1604.802295  	90.633176 
1605.766719  	90.525127 
1606.731144  	90.057097 
1607.695568  	89.852468 
1608.659993  	89.801706 
1609.624417  	89.357533 
1610.588842  	89.603164 
1611.553266  	89.775126 
1612.517690  	89.654718 
1613.482115  	89.587174 
1614.446539  	89.503488 
1615.410964  	89.076607 
1616.375388  	87.983421 
1617.339813  	88.002414 
1618.304237  	89.137079 
1619.268662  	89.594464 
1620.233086  	89.708662 
1621.197511  	89.720743 
1622.161935  	89.281851 
1623.126359  	88.203802 
1624.090784  	88.331209 
1625.055208  	89.305257 
1626.019633  	89.527811 
1626.984057  	89.265805 
1627.948482  	88.684710 
1628.912906  	89.122341 
1629.877331  	89.482511 
1630.841755  	89.505428 
1631.806180  	89.435004 
1632.770604  	89.381154 
1633.735028  	89.009536 
1634.699453  	87.895871 
1635.663877  	86.012001 
1636.628302  	87.003007 
1637.592726  	87.229062 
1638.557151  	88.055153 
1639.521575  	88.535249 
1640.486000  	88.523213 
1641.450424  	88.529488 
1642.414849  	88.419165 
1643.379273  	88.443704 
1644.343697  	88.308216 
1645.308122  	87.325866 
1646.272546  	85.699330 
1647.236971  	85.038894 
1648.201395  	85.400335 
1649.165820  	86.877591 
1650.130244  	87.464379 
1651.094669  	87.114836 
1652.059093  	85.962544 
1653.023518  	82.465794 
1653.987942  	81.823109 
1654.952366  	84.450909 
1655.916791  	85.987494 
1656.881215  	86.262054 
1657.845640  	86.396425 
1658.810064  	86.425171 
1659.774489  	86.257480 
1660.738913  	85.681932 
1661.703338  	84.844720 
1662.667762  	83.857368 
1663.632187  	84.070169 
1664.596611  	84.308225 
1665.561036  	84.093218 
1666.525460  	83.763855 
1667.489884  	82.975849 
1668.454309  	81.248030 
1669.418733  	80.167669 
1670.383158  	80.755805 
1671.347582  	80.227066 
1672.312007  	80.193748 
1673.276431  	80.441015 
1674.240856  	79.717987 
1675.205280  	78.170483 
1676.169705  	78.206910 
1677.134129  	78.563377 
1678.098553  	78.160277 
1679.062978  	77.198228 
1680.027402  	75.330733 
1680.991827  	74.914950 
1681.956251  	75.134176 
1682.920676  	73.736868 
1683.885100  	70.163625 
1684.849525  	70.105103 
1685.813949  	72.978836 
1686.778374  	73.317765 
1687.742798  	72.414607 
1688.707222  	71.450874 
1689.671647  	71.030910 
1690.636071  	70.467601 
1691.600496  	70.095385 
1692.564920  	69.228163 
1693.529345  	67.966751 
1694.493769  	66.403073 
1695.458194  	64.072947 
1696.422618  	61.836303 
1697.387043  	61.338164 
1698.351467  	60.337481 
1699.315891  	58.611055 
1700.280316  	54.929901 
1701.244740  	54.257028 
1702.209165  	54.152420 
1703.173589  	53.073002 
1704.138014  	51.308765 
1705.102438  	49.717246 
1706.066863  	48.591533 
1707.031287  	47.498038 
1707.995712  	47.150351 
1708.960136  	46.651950 
1709.924560  	45.839565 
1710.888985  	45.534328 
1711.853409  	45.717740 
1712.817834  	45.681474 
1713.782258  	45.491280 
1714.746683  	45.562649 
1715.711107  	46.856010 
1716.675532  	47.735442 
1717.639956  	47.820176 
1718.604381  	49.901106 
1719.568805  	52.782860 
1720.533230  	54.559765 
1721.497654  	55.932763 
1722.462078  	57.162856 
1723.426503  	58.123121 
1724.390927  	59.729155 
1725.355352  	61.275407 
1726.319776  	62.586137 
1727.284201  	63.905785 
1728.248625  	65.240549 
1729.213050  	65.801429 
1730.177474  	66.296954 
1731.141899  	68.514392 
1732.106323  	69.788854 
1733.070747  	69.657274 
1734.035172  	69.103461 
1734.999596  	72.780080 
1735.964021  	75.706975 
1736.928445  	77.100562 
1737.892870  	78.381612 
1738.857294  	79.213225 
1739.821719  	79.862786 
1740.786143  	82.243047 
1741.750568  	83.784403 
1742.714992  	83.948642 
1743.679416  	84.216006 
1744.643841  	86.061749 
1745.608265  	87.426450 
1746.572690  	87.868756 
1747.537114  	88.091182 
1748.501539  	88.287525 
1749.465963  	89.001130 
1750.430388  	89.577022 
1751.394812  	89.065244 
1752.359237  	90.696354 
1753.323661  	92.074887 
1754.288085  	92.759645 
1755.252510  	92.952044 
1756.216934  	92.259488 
1757.181359  	91.661689 
1758.145783  	92.474356 
1759.110208  	93.064955 
1760.074632  	93.370106 
1761.039057  	92.714884 
1762.003481  	91.696837 
1762.967906  	92.847718 
1763.932330  	93.634539 
1764.896754  	93.861467 
1765.861179  	93.955921 
1766.825603  	93.760023 
1767.790028  	92.691843 
1768.754452  	92.494580 
1769.718877  	93.627895 
1770.683301  	93.311803 
1771.647726  	92.149759 
1772.612150  	91.722540 
1773.576575  	92.932582 
1774.540999  	93.584459 
1775.505423  	93.170459 
1776.469848  	93.491809 
1777.434272  	94.185631 
1778.398697  	94.011455 
1779.363121  	93.665436 
1780.327546  	93.148533 
1781.291970  	93.120145 
1782.256395  	93.932534 
1783.220819  	94.265630 
1784.185244  	93.878179 
1785.149668  	93.287431 
1786.114093  	93.909856 
1787.078517  	94.332145 
1788.042941  	94.310025 
1789.007366  	94.244360 
1789.971790  	93.895192 
1790.936215  	92.865659 
1791.900639  	92.341191 
1792.865064  	92.284711 
1793.829488  	93.389696 
1794.793913  	93.780676 
1795.758337  	93.060145 
1796.722762  	93.154173 
1797.687186  	94.017084 
1798.651610  	94.011722 
1799.616035  	93.364512 
1800.580459  	93.317511 
1801.544884  	93.066583 
1802.509308  	92.886790 
1803.473733  	93.761062 
1804.438157  	94.243098 
1805.402582  	94.259246 
1806.367006  	94.256888 
1807.331431  	93.920974 
1808.295855  	93.797849 
1809.260279  	94.154071 
1810.224704  	93.623407 
1811.189128  	93.186022 
1812.153553  	93.533728 
1813.117977  	93.950704 
1814.082402  	94.366877 
1815.046826  	94.413652 
1816.011251  	94.408598 
1816.975675  	94.098273 
1817.940100  	93.911680 
1818.904524  	94.279851 
1819.868948  	94.409192 
1820.833373  	94.335702 
1821.797797  	94.247533 
1822.762222  	94.004558 
1823.726646  	94.035475 
1824.691071  	93.457736 
1825.655495  	92.788023 
1826.619920  	93.855865 
1827.584344  	94.236991 
1828.548769  	93.749514 
1829.513193  	92.573420 
1830.477617  	92.654077 
1831.442042  	93.894571 
1832.406466  	94.282298 
1833.370891  	94.138391 
1834.335315  	94.402339 
1835.299740  	94.652711 
1836.264164  	94.483040 
1837.228589  	93.981479 
1838.193013  	94.232727 
1839.157438  	94.597986 
1840.121862  	94.657135 
1841.086287  	94.618206 
1842.050711  	94.234232 
1843.015135  	93.857352 
1843.979560  	92.992266 
1844.943984  	92.828708 
1845.908409  	93.853060 
1846.872833  	94.123842 
1847.837258  	93.638350 
1848.801682  	94.029152 
1849.766107  	94.711667 
1850.730531  	94.917634 
1851.694956  	94.933035 
1852.659380  	94.920659 
1853.623804  	94.976474 
1854.588229  	94.964131 
1855.552653  	94.977741 
1856.517078  	94.958266 
1857.481502  	94.888478 
1858.445927  	94.701965 
1859.410351  	94.672198 
1860.374776  	94.789865 
1861.339200  	94.693026 
1862.303625  	94.735644 
1863.268049  	94.952930 
1864.232473  	94.978044 
1865.196898  	94.934771 
1866.161322  	94.493689 
1867.125747  	94.069636 
1868.090171  	93.545638 
1869.054596  	93.075768 
1870.019020  	93.545939 
1870.983445  	94.332249 
1871.947869  	94.847769 
1872.912294  	95.167837 
1873.876718  	95.224684 
1874.841142  	95.186302 
1875.805567  	95.128988 
1876.769991  	95.113386 
1877.734416  	95.120020 
1878.698840  	95.036851 
1879.663265  	94.908961 
1880.627689  	94.990077 
1881.592114  	95.025494 
1882.556538  	95.071229 
1883.520963  	95.106629 
1884.485387  	94.989556 
1885.449811  	94.857380 
1886.414236  	95.057961 
1887.378660  	95.150136 
1888.343085  	94.888834 
1889.307509  	93.910925 
1890.271934  	93.847223 
1891.236358  	94.681086 
1892.200783  	94.968550 
1893.165207  	95.058768 
1894.129632  	94.907706 
1895.094056  	94.339961 
1896.058480  	94.497863 
1897.022905  	94.990138 
1897.987329  	95.018990 
1898.951754  	94.945495 
1899.916178  	94.968260 
1900.880603  	94.996371 
1901.845027  	94.852096 
1902.809452  	94.871968 
1903.773876  	94.938168 
1904.738301  	94.883427 
1905.702725  	94.973170 
1906.667150  	95.019446 
1907.631574  	94.629007 
1908.595998  	94.474624 
1909.560423  	94.390179 
1910.524847  	94.337370 
1911.489272  	94.811498 
1912.453696  	94.985662 
1913.418121  	94.960871 
1914.382545  	94.837977 
1915.346970  	94.902592 
1916.311394  	94.910549 
1917.275819  	94.406175 
1918.240243  	93.639431 
1919.204667  	94.360635 
1920.169092  	94.875729 
1921.133516  	94.737410 
1922.097941  	93.913097 
1923.062365  	93.305169 
1924.026790  	94.279381 
1924.991214  	94.905881 
1925.955639  	94.772693 
1926.920063  	94.796361 
1927.884488  	94.868985 
1928.848912  	94.942043 
1929.813336  	94.965294 
1930.777761  	94.982559 
1931.742185  	94.900301 
1932.706610  	94.813113 
1933.671034  	94.727769 
1934.635459  	94.796178 
1935.599883  	94.813541 
1936.564308  	94.860706 
1937.528732  	94.812583 
1938.493157  	94.842327 
1939.457581  	94.922244 
1940.422005  	94.807303 
1941.386430  	94.264541 
1942.350854  	93.153770 
1943.315279  	93.190066 
1944.279703  	94.238223 
1945.244128  	94.273926 
1946.208552  	94.307826 
1947.172977  	94.485894 
1948.137401  	94.458046 
1949.101826  	94.318093 
1950.066250  	94.616369 
1951.030674  	94.726213 
1951.995099  	94.582662 
1952.959523  	94.535111 
1953.923948  	94.452626 
1954.888372  	94.203085 
1955.852797  	94.295041 
1956.817221  	94.729105 
1957.781646  	94.793210 
1958.746070  	94.566095 
1959.710495  	94.713156 
1960.674919  	94.640397 
1961.639344  	94.284557 
1962.603768  	94.179704 
1963.568192  	94.426233 
1964.532617  	94.809239 
1965.497041  	94.889901 
1966.461466  	94.562521 
1967.425890  	94.109388 
1968.390315  	94.177347 
1969.354739  	94.569832 
1970.319164  	94.755595 
1971.283588  	94.874795 
1972.248013  	94.985576 
1973.212437  	95.238318 
1974.176861  	95.245388 
1975.141286  	95.197975 
1976.105710  	95.228045 
1977.070135  	95.514042 
1978.034559  	95.497380 
1978.998984  	94.691962 
1979.963408  	94.401586 
1980.927833  	94.548147 
1981.892257  	94.608368 
1982.856682  	94.909240 
1983.821106  	94.989184 
1984.785530  	94.971921 
1985.749955  	94.889891 
1986.714379  	95.007277 
1987.678804  	94.707417 
1988.643228  	94.326103 
1989.607653  	94.678425 
1990.572077  	94.873637 
1991.536502  	94.284066 
1992.500926  	94.063040 
1993.465351  	94.444726 
1994.429775  	94.874321 
1995.394199  	94.881561 
1996.358624  	94.929965 
1997.323048  	94.790062 
1998.287473  	94.658336 
1999.251897  	94.792044 
2000.216322  	95.125255 
2001.180746  	95.283596 
2002.145171  	95.156732 
2003.109595  	95.156806 
2004.074020  	95.405182 
2005.038444  	95.586870 
2006.002868  	95.486679 
2006.967293  	95.339915 
2007.931717  	95.207054 
2008.896142  	95.256444 
2009.860566  	95.459535 
2010.824991  	95.550031 
2011.789415  	95.540269 
2012.753840  	95.520919 
2013.718264  	95.089588 
2014.682689  	94.936003 
2015.647113  	95.348301 
2016.611537  	94.980591 
2017.575962  	94.798977 
2018.540386  	95.066687 
2019.504811  	95.443352 
2020.469235  	95.490876 
2021.433660  	95.403370 
2022.398084  	95.466428 
2023.362509  	95.377883 
2024.326933  	95.351829 
2025.291358  	95.387804 
2026.255782  	95.151935 
2027.220207  	95.007606 
2028.184631  	95.265648 
2029.149055  	95.967318 
2030.113480  	95.972587 
2031.077904  	95.587618 
2032.042329  	95.395481 
2033.006753  	95.599757 
2033.971178  	95.702798 
2034.935602  	95.544043 
2035.900027  	95.355529 
2036.864451  	95.460879 
2037.828876  	95.668332 
2038.793300  	95.487767 
2039.757724  	95.252700 
2040.722149  	95.189982 
2041.686573  	94.849039 
2042.650998  	94.908115 
2043.615422  	94.960794 
2044.579847  	95.164559 
2045.544271  	95.483989 
2046.508696  	95.579867 
2047.473120  	95.429715 
2048.437545  	95.470824 
2049.401969  	95.455724 
2050.366393  	95.060023 
2051.330818  	94.730818 
2052.295242  	95.128133 
2053.259667  	95.442113 
2054.224091  	95.092404 
2055.188516  	94.775908 
2056.152940  	94.870067 
2057.117365  	94.954837 
2058.081789  	94.984687 
2059.046214  	94.998444 
2060.010638  	94.877507 
2060.975062  	94.854542 
2061.939487  	94.992592 
2062.903911  	94.888959 
2063.868336  	94.714850 
2064.832760  	94.444370 
2065.797185  	94.613404 
2066.761609  	94.880833 
2067.726034  	94.906047 
2068.690458  	94.841645 
2069.654883  	94.898084 
2070.619307  	94.945563 
2071.583731  	94.970743 
2072.548156  	94.924217 
2073.512580  	94.872095 
2074.477005  	94.715227 
2075.441429  	94.809831 
2076.405854  	94.822021 
2077.370278  	94.621264 
2078.334703  	94.670908 
2079.299127  	94.814890 
2080.263552  	94.733713 
2081.227976  	94.706706 
2082.192401  	94.708030 
2083.156825  	94.638802 
2084.121249  	94.633566 
2085.085674  	94.786745 
2086.050098  	94.788122 
2087.014523  	94.720813 
2087.978947  	94.721532 
2088.943372  	94.747927 
2089.907796  	94.592963 
2090.872221  	94.619393 
2091.836645  	94.963549 
2092.801070  	95.049579 
2093.765494  	95.078582 
2094.729918  	95.039026 
2095.694343  	94.863997 
2096.658767  	94.669006 
2097.623192  	94.611314 
2098.587616  	94.629367 
2099.552041  	94.694400 
2100.516465  	94.782374 
2101.480890  	94.855443 
2102.445314  	94.797436 
2103.409739  	94.708715 
2104.374163  	94.714546 
2105.338587  	94.655671 
2106.303012  	94.630488 
2107.267436  	94.569455 
2108.231861  	94.517853 
2109.196285  	94.544473 
2110.160710  	94.608095 
2111.125134  	94.659970 
2112.089559  	94.645012 
2113.053983  	94.619800 
2114.018408  	94.675682 
2114.982832  	94.693388 
2115.947256  	94.528610 
2116.911681  	94.557906 
2117.876105  	94.757789 
2118.840530  	94.851679 
2119.804954  	94.816615 
2120.769379  	94.866872 
2121.733803  	94.978348 
2122.698228  	94.973253 
2123.662652  	94.877406 
2124.627077  	94.845014 
2125.591501  	94.949765 
2126.555925  	95.134716 
2127.520350  	95.163492 
2128.484774  	95.165130 
2129.449199  	95.327845 
2130.413623  	95.322093 
2131.378048  	95.202773 
2132.342472  	95.352716 
2133.306897  	95.459737 
2134.271321  	95.280784 
2135.235746  	95.161523 
2136.200170  	94.936069 
2137.164594  	95.119596 
2138.129019  	95.391120 
2139.093443  	95.506096 
2140.057868  	95.489796 
2141.022292  	95.351466 
2141.986717  	95.286436 
2142.951141  	95.429658 
2143.915566  	95.567023 
2144.879990  	95.474007 
2145.844415  	95.523197 
2146.808839  	95.640357 
2147.773264  	95.662456 
2148.737688  	95.634742 
2149.702112  	95.564622 
2150.666537  	95.590809 
2151.630961  	95.699060 
2152.595386  	95.932432 
2153.559810  	95.877592 
2154.524235  	95.833367 
2155.488659  	96.199147 
2156.453084  	96.588155 
2157.417508  	96.298820 
2158.381933  	96.007617 
2159.346357  	95.758683 
2160.310781  	95.567257 
2161.275206  	95.254972 
2162.239630  	95.428999 
2163.204055  	95.404337 
2164.168479  	95.325135 
2165.132904  	95.292337 
2166.097328  	95.374293 
2167.061753  	95.450949 
2168.026177  	95.142551 
2168.990602  	94.898033 
2169.955026  	95.161707 
2170.919450  	95.552341 
2171.883875  	95.430358 
2172.848299  	95.525191 
2173.812724  	95.579353 
2174.777148  	95.554606 
2175.741573  	95.486456 
2176.705997  	95.257235 
2177.670422  	95.324234 
2178.634846  	95.384651 
2179.599271  	95.222525 
2180.563695  	95.377678 
2181.528119  	95.558923 
2182.492544  	95.267856 
2183.456968  	95.056615 
2184.421393  	95.018266 
2185.385817  	95.344667 
2186.350242  	95.476496 
2187.314666  	95.183991 
2188.279091  	95.155301 
2189.243515  	95.133251 
2190.207940  	95.023126 
2191.172364  	95.203201 
2192.136788  	95.416049 
2193.101213  	95.548609 
2194.065637  	95.367023 
2195.030062  	94.982092 
2195.994486  	94.635579 
2196.958911  	94.878567 
2197.923335  	95.065015 
2198.887760  	95.149107 
2199.852184  	95.345298 
2200.816609  	95.354666 
2201.781033  	95.213525 
2202.745458  	95.090328 
2203.709882  	95.106754 
2204.674306  	95.135251 
2205.638731  	95.041293 
2206.603155  	95.061177 
2207.567580  	95.259018 
2208.532004  	95.293289 
2209.496429  	95.167195 
2210.460853  	94.996034 
2211.425278  	95.119512 
2212.389702  	95.079977 
2213.354127  	94.687987 
2214.318551  	94.568442 
2215.282975  	94.872446 
2216.247400  	95.144676 
2217.211824  	95.125699 
2218.176249  	95.049011 
2219.140673  	95.085636 
2220.105098  	94.964749 
2221.069522  	94.901025 
2222.033947  	95.028662 
2222.998371  	95.040940 
2223.962796  	94.928319 
2224.927220  	94.997305 
2225.891644  	94.948330 
2226.856069  	94.825995 
2227.820493  	94.889873 
2228.784918  	95.037880 
2229.749342  	95.026076 
2230.713767  	94.987522 
2231.678191  	94.831321 
2232.642616  	94.720562 
2233.607040  	94.971065 
2234.571465  	94.975304 
2235.535889  	94.891028 
2236.500313  	94.870377 
2237.464738  	94.892243 
2238.429162  	95.006641 
2239.393587  	94.827088 
2240.358011  	94.716750 
2241.322436  	94.962134 
2242.286860  	94.953020 
2243.251285  	94.786499 
2244.215709  	94.799675 
2245.180134  	94.650397 
2246.144558  	94.484456 
2247.108982  	94.600127 
2248.073407  	94.800503 
2249.037831  	94.858805 
2250.002256  	94.763633 
2250.966680  	94.801937 
2251.931105  	94.806777 
2252.895529  	94.743699 
2253.859954  	94.700441 
2254.824378  	94.645467 
2255.788803  	94.638635 
2256.753227  	94.684315 
2257.717651  	94.697313 
2258.682076  	94.623063 
2259.646500  	94.563087 
2260.610925  	94.520497 
2261.575349  	94.585753 
2262.539774  	94.617493 
2263.504198  	94.649811 
2264.468623  	94.667667 
2265.433047  	94.578253 
2266.397472  	94.511106 
2267.361896  	94.454032 
2268.326321  	94.550410 
2269.290745  	94.637473 
2270.255169  	94.688093 
2271.219594  	94.727637 
2272.184018  	94.689373 
2273.148443  	94.636107 
2274.112867  	94.651853 
2275.077292  	94.539954 
2276.041716  	94.439237 
2277.006141  	94.542185 
2277.970565  	94.614967 
2278.934990  	94.551154 
2279.899414  	94.419943 
2280.863838  	94.420111 
2281.828263  	94.439792 
2282.792687  	94.409178 
2283.757112  	94.339931 
2284.721536  	94.298136 
2285.685961  	94.318801 
2286.650385  	94.358754 
2287.614810  	94.299297 
2288.579234  	94.223367 
2289.543659  	94.204676 
2290.508083  	94.308498 
2291.472507  	94.296365 
2292.436932  	94.295119 
2293.401356  	94.285621 
2294.365781  	94.266722 
2295.330205  	94.336785 
2296.294630  	94.298833 
2297.259054  	94.262891 
2298.223479  	94.174858 
2299.187903  	94.158491 
2300.152328  	94.204390 
2301.116752  	94.234821 
2302.081176  	94.237748 
2303.045601  	94.136119 
2304.010025  	94.214312 
2304.974450  	94.055163 
2305.938874  	94.077075 
2306.903299  	94.020787 
2307.867723  	94.092523 
2308.832148  	94.001415 
2309.796572  	94.078284 
2310.760997  	94.113234 
2311.725421  	94.168707 
2312.689845  	94.217390 
2313.654270  	94.285748 
2314.618694  	94.312318 
2315.583119  	94.450708 
2316.547543  	94.509417 
2317.511968  	94.523942 
2318.476392  	94.502132 
2319.440817  	94.516533 
2320.405241  	94.513207 
2321.369666  	94.617672 
2322.334090  	94.711903 
2323.298515  	94.755414 
2324.262939  	94.730020 
2325.227363  	95.083392 
2326.191788  	95.460254 
2327.156212  	95.681224 
2328.120637  	95.693355 
2329.085061  	95.745095 
2330.049486  	95.937474 
2331.013910  	95.957483 
2331.978335  	96.005616 
2332.942759  	96.160653 
2333.907184  	96.309016 
2334.871608  	96.441309 
2335.836032  	96.626260 
2336.800457  	96.759241 
2337.764881  	96.773026 
2338.729306  	96.748813 
2339.693730  	96.676467 
2340.658155  	96.756037 
2341.622579  	96.808635 
2342.587004  	96.681558 
2343.551428  	96.522437 
2344.515853  	96.203955 
2345.480277  	95.925583 
2346.444701  	95.672347 
2347.409126  	95.428654 
2348.373550  	95.007882 
2349.337975  	94.823231 
2350.302399  	95.160747 
2351.266824  	95.648308 
2352.231248  	96.172424 
2353.195673  	96.447566 
2354.160097  	96.582138 
2355.124522  	96.788419 
2356.088946  	97.091537 
2357.053370  	97.142447 
2358.017795  	97.136594 
2358.982219  	97.300990 
2359.946644  	97.569512 
2360.911068  	97.570018 
2361.875493  	97.419929 
2362.839917  	97.252195 
2363.804342  	97.204974 
2364.768766  	97.228372 
2365.733191  	97.234771 
2366.697615  	97.089261 
2367.662039  	96.784810 
2368.626464  	96.347442 
2369.590888  	96.037081 
2370.555313  	95.781129 
2371.519737  	95.498159 
2372.484162  	95.280201 
2373.448586  	95.109121 
2374.413011  	94.965334 
2375.377435  	94.686175 
2376.341860  	94.492584 
2377.306284  	94.411965 
2378.270708  	94.303201 
2379.235133  	94.135581 
2380.199557  	94.129913 
2381.163982  	94.146249 
2382.128406  	94.187476 
2383.092831  	94.255499 
2384.057255  	94.273847 
2385.021680  	94.339968 
2385.986104  	94.429923 
2386.950529  	94.441103 
2387.914953  	94.487785 
2388.879378  	94.556817 
2389.843802  	94.622015 
2390.808226  	94.627703 
2391.772651  	94.578995 
2392.737075  	94.531190 
2393.701500  	94.587136 
2394.665924  	94.623360 
2395.630349  	94.611419 
2396.594773  	94.569061 
2397.559198  	94.575490 
2398.523622  	94.600412 
2399.488047  	94.625648 
2400.452471  	94.626057 
2401.416895  	94.626485 
2402.381320  	94.646970 
2403.345744  	94.683591 
2404.310169  	94.688464 
2405.274593  	94.623953 
2406.239018  	94.604378 
2407.203442  	94.635941 
2408.167867  	94.629462 
2409.132291  	94.601936 
2410.096716  	94.547237 
2411.061140  	94.544648 
2412.025564  	94.596328 
2412.989989  	94.637246 
2413.954413  	94.625838 
2414.918838  	94.674354 
2415.883262  	94.682432 
2416.847687  	94.649396 
2417.812111  	94.655800 
2418.776536  	94.643039 
2419.740960  	94.609570 
2420.705385  	94.580828 
2421.669809  	94.527168 
2422.634233  	94.544545 
2423.598658  	94.595707 
2424.563082  	94.645357 
2425.527507  	94.692478 
2426.491931  	94.702614 
2427.456356  	94.628120 
2428.420780  	94.614061 
2429.385205  	94.645275 
2430.349629  	94.681098 
2431.314054  	94.670737 
2432.278478  	94.649129 
2433.242902  	94.634431 
2434.207327  	94.658490 
2435.171751  	94.688902 
2436.136176  	94.724565 
2437.100600  	94.734811 
2438.065025  	94.662188 
2439.029449  	94.679949 
2439.993874  	94.717030 
2440.958298  	94.691917 
2441.922723  	94.639005 
2442.887147  	94.637730 
2443.851572  	94.752194 
2444.815996  	94.773552 
2445.780420  	94.746015 
2446.744845  	94.666970 
2447.709269  	94.626950 
2448.673694  	94.656678 
2449.638118  	94.638154 
2450.602543  	94.631903 
2451.566967  	94.639651 
2452.531392  	94.632803 
2453.495816  	94.604461 
2454.460241  	94.609110 
2455.424665  	94.668301 
2456.389089  	94.648313 
2457.353514  	94.624921 
2458.317938  	94.637577 
2459.282363  	94.668837 
2460.246787  	94.660078 
2461.211212  	94.601907 
2462.175636  	94.661604 
2463.140061  	94.714243 
2464.104485  	94.710556 
2465.068910  	94.687497 
2466.033334  	94.619605 
2466.997758  	94.623801 
2467.962183  	94.723387 
2468.926607  	94.692570 
2469.891032  	94.630908 
2470.855456  	94.659110 
2471.819881  	94.662620 
2472.784305  	94.685226 
2473.748730  	94.678471 
2474.713154  	94.710192 
2475.677579  	94.697966 
2476.642003  	94.642507 
2477.606427  	94.632584 
2478.570852  	94.634223 
2479.535276  	94.625344 
2480.499701  	94.622566 
2481.464125  	94.626449 
2482.428550  	94.674573 
2483.392974  	94.695576 
2484.357399  	94.688465 
2485.321823  	94.620914 
2486.286248  	94.557967 
2487.250672  	94.591157 
2488.215096  	94.641059 
2489.179521  	94.587714 
2490.143945  	94.576177 
2491.108370  	94.558714 
2492.072794  	94.568512 
2493.037219  	94.596412 
2494.001643  	94.644411 
2494.966068  	94.688075 
2495.930492  	94.689786 
2496.894917  	94.631394 
2497.859341  	94.606482 
2498.823765  	94.570591 
2499.788190  	94.566548 
2500.752614  	94.544401 
2501.717039  	94.574359 
2502.681463  	94.601438 
2503.645888  	94.569012 
2504.610312  	94.476894 
2505.574737  	94.441105 
2506.539161  	94.498108 
2507.503586  	94.604766 
2508.468010  	94.585837 
2509.432435  	94.528436 
2510.396859  	94.547404 
2511.361283  	94.594237 
2512.325708  	94.556152 
2513.290132  	94.521698 
2514.254557  	94.527721 
2515.218981  	94.529592 
2516.183406  	94.527129 
2517.147830  	94.558721 
2518.112255  	94.507327 
2519.076679  	94.480355 
2520.041104  	94.538073 
2521.005528  	94.498192 
2521.969952  	94.390421 
2522.934377  	94.427537 
2523.898801  	94.511719 
2524.863226  	94.523088 
2525.827650  	94.458911 
2526.792075  	94.454174 
2527.756499  	94.473826 
2528.720924  	94.500177 
2529.685348  	94.426733 
2530.649773  	94.450566 
2531.614197  	94.494791 
2532.578621  	94.485668 
2533.543046  	94.498846 
2534.507470  	94.521007 
2535.471895  	94.493888 
2536.436319  	94.480255 
2537.400744  	94.506648 
2538.365168  	94.471082 
2539.329593  	94.468171 
2540.294017  	94.440879 
2541.258442  	94.394347 
2542.222866  	94.432832 
2543.187290  	94.476220 
2544.151715  	94.486584 
2545.116139  	94.498494 
2546.080564  	94.498774 
2547.044988  	94.419799 
2548.009413  	94.398788 
2548.973837  	94.464658 
2549.938262  	94.493821 
2550.902686  	94.480564 
2551.867111  	94.464416 
2552.831535  	94.402354 
2553.795959  	94.411322 
2554.760384  	94.442993 
2555.724808  	94.440022 
2556.689233  	94.405810 
2557.653657  	94.390322 
2558.618082  	94.374363 
2559.582506  	94.446825 
2560.546931  	94.464493 
2561.511355  	94.410396 
2562.475780  	94.422922 
2563.440204  	94.444052 
2564.404629  	94.476143 
2565.369053  	94.491081 
2566.333477  	94.460895 
2567.297902  	94.462613 
2568.262326  	94.465279 
2569.226751  	94.386570 
2570.191175  	94.304923 
2571.155600  	94.325532 
2572.120024  	94.328374 
2573.084449  	94.359195 
2574.048873  	94.389542 
2575.013298  	94.340852 
2575.977722  	94.332454 
2576.942146  	94.397939 
2577.906571  	94.421003 
2578.870995  	94.397237 
2579.835420  	94.365444 
2580.799844  	94.391741 
2581.764269  	94.375895 
2582.728693  	94.366793 
2583.693118  	94.327038 
2584.657542  	94.307368 
2585.621967  	94.366084 
2586.586391  	94.371511 
2587.550815  	94.376570 
2588.515240  	94.427670 
2589.479664  	94.403819 
2590.444089  	94.324230 
2591.408513  	94.349365 
2592.372938  	94.416261 
2593.337362  	94.393468 
2594.301787  	94.327209 
2595.266211  	94.317704 
2596.230636  	94.380184 
2597.195060  	94.450319 
2598.159484  	94.441796 
2599.123909  	94.409950 
2600.088333  	94.398623 
2601.052758  	94.391270 
2602.017182  	94.369777 
2602.981607  	94.336505 
2603.946031  	94.358223 
2604.910456  	94.409216 
2605.874880  	94.413705 
2606.839305  	94.346370 
2607.803729  	94.314483 
2608.768153  	94.347017 
2609.732578  	94.355931 
2610.697002  	94.343770 
2611.661427  	94.325413 
2612.625851  	94.320722 
2613.590276  	94.381852 
2614.554700  	94.408356 
2615.519125  	94.366071 
2616.483549  	94.352299 
2617.447974  	94.364951 
2618.412398  	94.395687 
2619.376822  	94.385308 
2620.341247  	94.352580 
2621.305671  	94.331087 
2622.270096  	94.323476 
2623.234520  	94.343887 
2624.198945  	94.327523 
2625.163369  	94.337221 
2626.127794  	94.355189 
2627.092218  	94.364904 
2628.056643  	94.362129 
2629.021067  	94.332411 
2629.985492  	94.345434 
2630.949916  	94.397511 
2631.914340  	94.365717 
2632.878765  	94.304539 
2633.843189  	94.320869 
2634.807614  	94.327613 
2635.772038  	94.311386 
2636.736463  	94.297751 
2637.700887  	94.319660 
2638.665312  	94.345487 
2639.629736  	94.358337 
2640.594161  	94.401143 
2641.558585  	94.397739 
2642.523009  	94.358749 
2643.487434  	94.358197 
2644.451858  	94.381830 
2645.416283  	94.371122 
2646.380707  	94.359092 
2647.345132  	94.359358 
2648.309556  	94.386377 
2649.273981  	94.397336 
2650.238405  	94.422432 
2651.202830  	94.435474 
2652.167254  	94.435296 
2653.131678  	94.435023 
2654.096103  	94.422388 
2655.060527  	94.403441 
2656.024952  	94.406272 
2656.989376  	94.389562 
2657.953801  	94.386027 
2658.918225  	94.402135 
2659.882650  	94.405392 
2660.847074  	94.401646 
2661.811499  	94.445719 
2662.775923  	94.476091 
2663.740347  	94.461574 
2664.704772  	94.454424 
2665.669196  	94.490692 
2666.633621  	94.495964 
2667.598045  	94.488611 
2668.562470  	94.496240 
2669.526894  	94.474370 
2670.491319  	94.446379 
2671.455743  	94.496732 
2672.420168  	94.523908 
2673.384592  	94.496357 
2674.349016  	94.474868 
2675.313441  	94.473109 
2676.277865  	94.481258 
2677.242290  	94.502437 
2678.206714  	94.506765 
2679.171139  	94.494914 
2680.135563  	94.469032 
2681.099988  	94.468081 
2682.064412  	94.489677 
2683.028837  	94.499064 
2683.993261  	94.476865 
2684.957686  	94.461232 
2685.922110  	94.459268 
2686.886534  	94.465287 
2687.850959  	94.472283 
2688.815383  	94.498169 
2689.779808  	94.485674 
2690.744232  	94.467865 
2691.708657  	94.480734 
2692.673081  	94.473743 
2693.637506  	94.466888 
2694.601930  	94.509134 
2695.566355  	94.515799 
2696.530779  	94.483861 
2697.495203  	94.465467 
2698.459628  	94.485457 
2699.424052  	94.499999 
2700.388477  	94.475772 
2701.352901  	94.447372 
2702.317326  	94.458121 
2703.281750  	94.458922 
2704.246175  	94.461480 
2705.210599  	94.463244 
2706.175024  	94.461642 
2707.139448  	94.466096 
2708.103872  	94.475050 
2709.068297  	94.477546 
2710.032721  	94.468221 
2710.997146  	94.447489 
2711.961570  	94.432646 
2712.925995  	94.444057 
2713.890419  	94.473771 
2714.854844  	94.463299 
2715.819268  	94.464624 
2716.783693  	94.480177 
2717.748117  	94.482667 
2718.712541  	94.461169 
2719.676966  	94.447056 
2720.641390  	94.458041 
2721.605815  	94.461665 
2722.570239  	94.441088 
2723.534664  	94.437725 
2724.499088  	94.447141 
2725.463513  	94.452465 
2726.427937  	94.438921 
2727.392362  	94.424930 
2728.356786  	94.432009 
2729.321210  	94.428569 
2730.285635  	94.428509 
2731.250059  	94.409260 
2732.214484  	94.392330 
2733.178908  	94.400912 
2734.143333  	94.426295 
2735.107757  	94.446190 
2736.072182  	94.425281 
2737.036606  	94.420679 
2738.001031  	94.413751 
2738.965455  	94.387103 
2739.929879  	94.365493 
2740.894304  	94.371321 
2741.858728  	94.363029 
2742.823153  	94.356256 
2743.787577  	94.372583 
2744.752002  	94.410855 
2745.716426  	94.381820 
2746.680851  	94.349581 
2747.645275  	94.355623 
2748.609700  	94.345025 
2749.574124  	94.347758 
2750.538549  	94.363820 
2751.502973  	94.325299 
2752.467397  	94.332177 
2753.431822  	94.375244 
2754.396246  	94.379670 
2755.360671  	94.362890 
2756.325095  	94.374092 
2757.289520  	94.358039 
2758.253944  	94.351092 
2759.218369  	94.359866 
2760.182793  	94.361719 
2761.147218  	94.331385 
2762.111642  	94.316478 
2763.076066  	94.353600 
2764.040491  	94.389149 
2765.004915  	94.375754 
2765.969340  	94.360916 
2766.933764  	94.353747 
2767.898189  	94.347375 
2768.862613  	94.348025 
2769.827038  	94.340541 
2770.791462  	94.335242 
2771.755887  	94.313824 
2772.720311  	94.287879 
2773.684735  	94.318230 
2774.649160  	94.323129 
2775.613584  	94.319465 
2776.578009  	94.331841 
2777.542433  	94.339284 
2778.506858  	94.330557 
2779.471282  	94.303910 
2780.435707  	94.286118 
2781.400131  	94.272406 
2782.364556  	94.277505 
2783.328980  	94.299246 
2784.293404  	94.287357 
2785.257829  	94.274971 
2786.222253  	94.267239 
2787.186678  	94.286586 
2788.151102  	94.278124 
2789.115527  	94.296463 
2790.079951  	94.300238 
2791.044376  	94.297213 
2792.008800  	94.284856 
2792.973225  	94.260024 
2793.937649  	94.221117 
2794.902073  	94.186664 
2795.866498  	94.209451 
2796.830922  	94.220745 
2797.795347  	94.222784 
2798.759771  	94.240964 
2799.724196  	94.196575 
2800.688620  	94.143954 
2801.653045  	94.137598 
2802.617469  	94.166392 
2803.581894  	94.203652 
2804.546318  	94.206086 
2805.510743  	94.178819 
2806.475167  	94.164939 
2807.439591  	94.159039 
2808.404016  	94.163322 
2809.368440  	94.182010 
2810.332865  	94.194874 
2811.297289  	94.175752 
2812.261714  	94.170001 
2813.226138  	94.185647 
2814.190563  	94.188045 
2815.154987  	94.190651 
2816.119412  	94.177365 
2817.083836  	94.173453 
2818.048260  	94.192518 
2819.012685  	94.178960 
2819.977109  	94.201778 
2820.941534  	94.197297 
2821.905958  	94.198083 
2822.870383  	94.165200 
2823.834807  	94.136413 
2824.799232  	94.127555 
2825.763656  	94.142847 
2826.728081  	94.134413 
2827.692505  	94.126161 
2828.656929  	94.144921 
2829.621354  	94.176520 
2830.585778  	94.164315 
2831.550203  	94.128597 
2832.514627  	94.096186 
2833.479052  	94.099588 
2834.443476  	94.105725 
2835.407901  	94.118323 
2836.372325  	94.111725 
2837.336750  	94.087668 
2838.301174  	94.048283 
2839.265598  	94.017209 
2840.230023  	94.019490 
2841.194447  	94.038704 
2842.158872  	94.012066 
2843.123296  	93.958003 
2844.087721  	93.897477 
2845.052145  	93.872465 
2846.016570  	93.832103 
2846.980994  	93.790542 
2847.945419  	93.761534 
2848.909843  	93.724606 
2849.874267  	93.665619 
2850.838692  	93.643103 
2851.803116  	93.653922 
2852.767541  	93.677808 
2853.731965  	93.690375 
2854.696390  	93.711293 
2855.660814  	93.736569 
2856.625239  	93.771086 
2857.589663  	93.775340 
2858.554088  	93.728890 
2859.518512  	93.708526 
2860.482936  	93.731887 
2861.447361  	93.753062 
2862.411785  	93.771735 
2863.376210  	93.777067 
2864.340634  	93.771765 
2865.305059  	93.760312 
2866.269483  	93.763446 
2867.233908  	93.720909 
2868.198332  	93.700567 
2869.162757  	93.737507 
2870.127181  	93.761470 
2871.091606  	93.730476 
2872.056030  	93.701321 
2873.020454  	93.715772 
2873.984879  	93.727326 
2874.949303  	93.677289 
2875.913728  	93.638071 
2876.878152  	93.632606 
2877.842577  	93.619106 
2878.807001  	93.631223 
2879.771426  	93.643062 
2880.735850  	93.617385 
2881.700275  	93.607227 
2882.664699  	93.567685 
2883.629123  	93.532364 
2884.593548  	93.560337 
2885.557972  	93.573645 
2886.522397  	93.501430 
2887.486821  	93.465529 
2888.451246  	93.483330 
2889.415670  	93.511080 
2890.380095  	93.478514 
2891.344519  	93.455708 
2892.308944  	93.449164 
2893.273368  	93.440711 
2894.237792  	93.431224 
2895.202217  	93.419019 
2896.166641  	93.408252 
2897.131066  	93.382585 
2898.095490  	93.336642 
2899.059915  	93.311310 
2900.024339  	93.275357 
2900.988764  	93.223480 
2901.953188  	93.184963 
2902.917613  	93.145237 
2903.882037  	93.086362 
2904.846461  	93.042712 
2905.810886  	92.977151 
2906.775310  	92.945782 
2907.739735  	92.930479 
2908.704159  	92.881205 
2909.668584  	92.896927 
2910.633008  	92.932659 
2911.597433  	92.957184 
2912.561857  	93.023842 
2913.526282  	93.024216 
2914.490706  	92.986843 
2915.455130  	92.984674 
2916.419555  	92.997285 
2917.383979  	93.021445 
2918.348404  	93.054235 
2919.312828  	93.109528 
2920.277253  	93.139319 
2921.241677  	93.146820 
2922.206102  	93.173021 
2923.170526  	93.187051 
2924.134951  	93.227089 
2925.099375  	93.239342 
2926.063800  	93.262803 
2927.028224  	93.316050 
2927.992648  	93.330452 
2928.957073  	93.347011 
2929.921497  	93.361431 
2930.885922  	93.329464 
2931.850346  	93.329068 
2932.814771  	93.395536 
2933.779195  	93.399712 
2934.743620  	93.388237 
2935.708044  	93.404216 
2936.672469  	93.391004 
2937.636893  	93.392674 
2938.601317  	93.373950 
2939.565742  	93.329815 
2940.530166  	93.306854 
2941.494591  	93.275527 
2942.459015  	93.235670 
2943.423440  	93.203065 
2944.387864  	93.144696 
2945.352289  	93.095197 
2946.316713  	93.081752 
2947.281138  	93.059005 
2948.245562  	93.010558 
2949.209986  	92.935797 
2950.174411  	92.823176 
2951.138835  	92.808217 
2952.103260  	92.783014 
2953.067684  	92.702464 
2954.032109  	92.639834 
2954.996533  	92.596966 
2955.960958  	92.522959 
2956.925382  	92.451711 
2957.889807  	92.396200 
2958.854231  	92.342732 
2959.818655  	92.312373 
2960.783080  	92.288552 
2961.747504  	92.232761 
2962.711929  	92.209606 
2963.676353  	92.136479 
2964.640778  	92.028432 
2965.605202  	91.944232 
2966.569627  	91.880744 
2967.534051  	91.900132 
2968.498476  	91.935173 
2969.462900  	91.896644 
2970.427324  	91.881471 
2971.391749  	91.919187 
2972.356173  	92.000931 
2973.320598  	92.068150 
2974.285022  	92.126449 
2975.249447  	92.174064 
2976.213871  	92.247650 
2977.178296  	92.347775 
2978.142720  	92.401332 
2979.107145  	92.463580 
2980.071569  	92.570840 
2981.035993  	92.642018 
2982.000418  	92.716256 
2982.964842  	92.801413 
2983.929267  	92.839386 
2984.893691  	92.882732 
2985.858116  	92.939371 
2986.822540  	92.995547 
2987.786965  	93.045876 
2988.751389  	93.069650 
2989.715814  	93.097713 
2990.680238  	93.124028 
2991.644663  	93.149046 
2992.609087  	93.143427 
2993.573511  	93.140512 
2994.537936  	93.161331 
2995.502360  	93.229891 
2996.466785  	93.222754 
2997.431209  	93.223958 
2998.395634  	93.276742 
2999.360058  	93.301914 
3000.324483  	93.320081 
3001.288907  	93.295783 
3002.253332  	93.269021 
3003.217756  	93.272301 
3004.182180  	93.242887 
3005.146605  	93.233435 
3006.111029  	93.311046 
3007.075454  	93.392394 
3008.039878  	93.404950 
3009.004303  	93.424661 
3009.968727  	93.433756 
3010.933152  	93.422876 
3011.897576  	93.370095 
3012.862001  	93.301874 
3013.826425  	93.417832 
3014.790849  	93.531428 
3015.755274  	93.546987 
3016.719698  	93.569582 
3017.684123  	93.610471 
3018.648547  	93.661016 
3019.612972  	93.669104 
3020.577396  	93.732905 
3021.541821  	93.750712 
3022.506245  	93.760704 
3023.470670  	93.822648 
3024.435094  	93.857956 
3025.399518  	93.845628 
3026.363943  	93.873628 
3027.328367  	93.949712 
3028.292792  	93.966294 
3029.257216  	93.978016 
3030.221641  	93.946764 
3031.186065  	93.825416 
3032.150490  	93.767844 
3033.114914  	93.882808 
3034.079339  	93.903141 
3035.043763  	93.894167 
3036.008187  	93.962374 
3036.972612  	93.998943 
3037.937036  	93.953582 
3038.901461  	93.906944 
3039.865885  	93.940268 
3040.830310  	94.008604 
3041.794734  	94.039582 
3042.759159  	94.008903 
3043.723583  	93.973833 
3044.688008  	93.919288 
3045.652432  	93.916903 
3046.616857  	93.888291 
3047.581281  	93.847326 
3048.545705  	93.783551 
3049.510130  	93.714842 
3050.474554  	93.708704 
3051.438979  	93.716171 
3052.403403  	93.709699 
3053.367828  	93.656488 
3054.332252  	93.606978 
3055.296677  	93.607613 
3056.261101  	93.530448 
3057.225526  	93.545490 
3058.189950  	93.692219 
3059.154374  	93.714542 
3060.118799  	93.709583 
3061.083223  	93.746518 
3062.047648  	93.769248 
3063.012072  	93.742366 
3063.976497  	93.642794 
3064.940921  	93.553826 
3065.905346  	93.613432 
3066.869770  	93.591963 
3067.834195  	93.578328 
3068.798619  	93.620767 
3069.763043  	93.662291 
3070.727468  	93.704397 
3071.691892  	93.703890 
3072.656317  	93.691693 
3073.620741  	93.686710 
3074.585166  	93.704586 
3075.549590  	93.701191 
3076.514015  	93.684531 
3077.478439  	93.675502 
3078.442864  	93.672879 
3079.407288  	93.610774 
3080.371712  	93.593584 
3081.336137  	93.651511 
3082.300561  	93.622906 
3083.264986  	93.660004 
3084.229410  	93.753265 
3085.193835  	93.756044 
3086.158259  	93.801914 
3087.122684  	93.805259 
3088.087108  	93.744893 
3089.051533  	93.763932 
3090.015957  	93.793466 
3090.980381  	93.801247 
3091.944806  	93.835401 
3092.909230  	93.835104 
3093.873655  	93.783282 
3094.838079  	93.760724 
3095.802504  	93.749818 
3096.766928  	93.781921 
3097.731353  	93.775987 
3098.695777  	93.774103 
3099.660202  	93.767391 
3100.624626  	93.722755 
3101.589050  	93.708928 
3102.553475  	93.731056 
3103.517899  	93.715717 
3104.482324  	93.753686 
3105.446748  	93.763934 
3106.411173  	93.737590 
3107.375597  	93.735578 
3108.340022  	93.756913 
3109.304446  	93.815983 
3110.268871  	93.809946 
3111.233295  	93.820915 
3112.197720  	93.845409 
3113.162144  	93.844598 
3114.126568  	93.885748 
3115.090993  	93.864639 
3116.055417  	93.809585 
3117.019842  	93.890762 
3117.984266  	93.904362 
3118.948691  	93.784968 
3119.913115  	93.840143 
3120.877540  	93.939591 
3121.841964  	93.842233 
3122.806389  	93.763363 
3123.770813  	93.909912 
3124.735237  	93.944654 
3125.699662  	93.851661 
3126.664086  	93.840984 
3127.628511  	93.927165 
3128.592935  	93.957360 
3129.557360  	93.954666 
3130.521784  	93.951750 
3131.486209  	93.939069 
3132.450633  	93.879431 
3133.415058  	93.808773 
3134.379482  	93.913314 
3135.343906  	94.008583 
3136.308331  	94.034819 
3137.272755  	94.023767 
3138.237180  	94.042188 
3139.201604  	94.059153 
3140.166029  	94.055789 
3141.130453  	94.051706 
3142.094878  	93.997690 
3143.059302  	93.984062 
3144.023727  	94.049122 
3144.988151  	94.075283 
3145.952575  	94.002206 
3146.917000  	93.981168 
3147.881424  	94.042727 
3148.845849  	94.064687 
3149.810273  	94.035544 
3150.774698  	94.079930 
3151.739122  	94.061117 
3152.703547  	94.024171 
3153.667971  	94.056891 
3154.632396  	94.123369 
3155.596820  	94.099952 
3156.561244  	93.994651 
3157.525669  	93.966106 
3158.490093  	94.031056 
3159.454518  	94.096495 
3160.418942  	94.093414 
3161.383367  	94.057335 
3162.347791  	93.995869 
3163.312216  	93.918294 
3164.276640  	93.986974 
3165.241065  	94.074950 
3166.205489  	94.064910 
3167.169914  	94.067993 
3168.134338  	94.013713 
3169.098762  	93.987997 
3170.063187  	93.977654 
3171.027611  	93.976167 
3171.992036  	93.973295 
3172.956460  	93.990404 
3173.920885  	93.985621 
3174.885309  	94.017331 
3175.849734  	94.039493 
3176.814158  	94.015630 
3177.778583  	93.917951 
3178.743007  	93.859483 
3179.707431  	93.881808 
3180.671856  	93.964586 
3181.636280  	94.080541 
3182.600705  	94.082133 
3183.565129  	93.989240 
3184.529554  	93.894953 
3185.493978  	93.882007 
3186.458403  	93.939106 
3187.422827  	93.967773 
3188.387252  	93.974157 
3189.351676  	94.003884 
3190.316100  	93.986846 
3191.280525  	93.986681 
3192.244949  	93.981813 
3193.209374  	93.991349 
3194.173798  	93.987767 
3195.138223  	93.996036 
3196.102647  	93.910791 
3197.067072  	93.804026 
3198.031496  	93.787245 
3198.995921  	93.889489 
3199.960345  	93.955356 
3200.924769  	93.989366 
3201.889194  	94.042690 
3202.853618  	94.019635 
3203.818043  	93.942132 
3204.782467  	93.921852 
3205.746892  	93.946580 
3206.711316  	93.913775 
3207.675741  	93.865133 
3208.640165  	93.868219 
3209.604590  	93.841782 
3210.569014  	93.825800 
3211.533438  	93.868943 
3212.497863  	93.877794 
3213.462287  	93.847418 
3214.426712  	93.823234 
3215.391136  	93.869162 
3216.355561  	93.853493 
3217.319985  	93.814436 
3218.284410  	93.885105 
3219.248834  	93.881009 
3220.213259  	93.868423 
3221.177683  	93.919378 
3222.142107  	93.912537 
3223.106532  	93.913682 
3224.070956  	93.939398 
3225.035381  	93.942062 
3225.999805  	93.899099 
3226.964230  	93.876240 
3227.928654  	93.870429 
3228.893079  	93.893679 
3229.857503  	93.885844 
3230.821928  	93.860693 
3231.786352  	93.869603 
3232.750777  	93.842905 
3233.715201  	93.811491 
3234.679625  	93.862346 
3235.644050  	93.898964 
3236.608474  	93.885866 
3237.572899  	93.866292 
3238.537323  	93.898187 
3239.501748  	93.855997 
3240.466172  	93.797950 
3241.430597  	93.880395 
3242.395021  	93.913942 
3243.359446  	93.856433 
3244.323870  	93.816908 
3245.288294  	93.735869 
3246.252719  	93.777697 
3247.217143  	93.876143 
3248.181568  	93.884083 
3249.145992  	93.818227 
3250.110417  	93.818123 
3251.074841  	93.844056 
3252.039266  	93.843020 
3253.003690  	93.835433 
3253.968115  	93.750089 
3254.932539  	93.696866 
3255.896963  	93.747346 
3256.861388  	93.779981 
3257.825812  	93.841387 
3258.790237  	93.807723 
3259.754661  	93.787430 
3260.719086  	93.767929 
3261.683510  	93.809073 
3262.647935  	93.853790 
3263.612359  	93.861617 
3264.576784  	93.872109 
3265.541208  	93.821718 
3266.505632  	93.770801 
3267.470057  	93.796715 
3268.434481  	93.804971 
3269.398906  	93.778311 
3270.363330  	93.738715 
3271.327755  	93.733304 
3272.292179  	93.741226 
3273.256604  	93.679749 
3274.221028  	93.605763 
3275.185453  	93.731211 
3276.149877  	93.742365 
3277.114301  	93.702958 
3278.078726  	93.728856 
3279.043150  	93.703458 
3280.007575  	93.671550 
3280.971999  	93.675039 
3281.936424  	93.728605 
3282.900848  	93.709782 
3283.865273  	93.648609 
3284.829697  	93.682523 
3285.794122  	93.732794 
3286.758546  	93.744080 
3287.722971  	93.729875 
3288.687395  	93.709450 
3289.651819  	93.752992 
3290.616244  	93.720296 
3291.580668  	93.641052 
3292.545093  	93.659447 
3293.509517  	93.675367 
3294.473942  	93.701440 
3295.438366  	93.735777 
3296.402791  	93.740198 
3297.367215  	93.686723 
3298.331640  	93.710372 
3299.296064  	93.779347 
3300.260488  	93.760401 
3301.224913  	93.765096 
3302.189337  	93.835277 
3303.153762  	93.775193 
3304.118186  	93.697650 
3305.082611  	93.725594 
3306.047035  	93.795806 
3307.011460  	93.877343 
3307.975884  	93.792071 
3308.940309  	93.655304 
3309.904733  	93.685825 
3310.869157  	93.707058 
3311.833582  	93.742086 
3312.798006  	93.768206 
3313.762431  	93.763502 
3314.726855  	93.772806 
3315.691280  	93.787884 
3316.655704  	93.765720 
3317.620129  	93.710500 
3318.584553  	93.721083 
3319.548978  	93.716429 
3320.513402  	93.739146 
3321.477826  	93.752750 
3322.442251  	93.748514 
3323.406675  	93.788745 
3324.371100  	93.794093 
3325.335524  	93.764825 
3326.299949  	93.735463 
3327.264373  	93.682215 
3328.228798  	93.668279 
3329.193222  	93.666399 
3330.157647  	93.663825 
3331.122071  	93.689935 
3332.086495  	93.767273 
3333.050920  	93.791498 
3334.015344  	93.699444 
3334.979769  	93.577664 
3335.944193  	93.618549 
3336.908618  	93.585170 
3337.873042  	93.614542 
3338.837467  	93.731901 
3339.801891  	93.759893 
3340.766316  	93.771626 
3341.730740  	93.729824 
3342.695164  	93.716507 
3343.659589  	93.820153 
3344.624013  	93.909911 
3345.588438  	93.877181 
3346.552862  	93.811194 
3347.517287  	93.796546 
3348.481711  	93.790522 
3349.446136  	93.803079 
3350.410560  	93.852824 
3351.374985  	93.909362 
3352.339409  	93.924426 
3353.303834  	93.857341 
3354.268258  	93.874081 
3355.232682  	93.859452 
3356.197107  	93.665521 
3357.161531  	93.623760 
3358.125956  	93.766202 
3359.090380  	93.815327 
3360.054805  	93.723671 
3361.019229  	93.683805 
3361.983654  	93.693110 
3362.948078  	93.773217 
3363.912503  	93.789133 
3364.876927  	93.647306 
3365.841351  	93.663715 
3366.805776  	93.784461 
3367.770200  	93.755550 
3368.734625  	93.699514 
3369.699049  	93.801323 
3370.663474  	93.924415 
3371.627898  	93.918625 
3372.592323  	93.842615 
3373.556747  	93.822861 
3374.521172  	93.782742 
3375.485596  	93.776227 
3376.450020  	93.779624 
3377.414445  	93.773971 
3378.378869  	93.822457 
3379.343294  	93.896832 
3380.307718  	93.893081 
3381.272143  	93.931778 
3382.236567  	93.898405 
3383.200992  	93.824602 
3384.165416  	93.716879 
3385.129841  	93.625804 
3386.094265  	93.723049 
3387.058689  	93.849455 
3388.023114  	93.887309 
3388.987538  	93.876727 
3389.951963  	93.805018 
3390.916387  	93.738545 
3391.880812  	93.651893 
3392.845236  	93.481839 
3393.809661  	93.577273 
3394.774085  	93.808124 
3395.738510  	93.868912 
3396.702934  	93.743799 
3397.667358  	93.538057 
3398.631783  	93.709891 
3399.596207  	93.900406 
3400.560632  	93.842542 
3401.525056  	93.726554 
3402.489481  	93.701498 
3403.453905  	93.653313 
3404.418330  	93.653016 
3405.382754  	93.719319 
3406.347179  	93.709379 
3407.311603  	93.651702 
3408.276028  	93.626261 
3409.240452  	93.611130 
3410.204876  	93.598522 
3411.169301  	93.623407 
3412.133725  	93.682623 
3413.098150  	93.667451 
3414.062574  	93.588873 
3415.026999  	93.576604 
3415.991423  	93.552392 
3416.955848  	93.507563 
3417.920272  	93.456468 
3418.884697  	93.424736 
3419.849121  	93.221026 
3420.813545  	92.891547 
3421.777970  	92.879856 
3422.742394  	93.034071 
3423.706819  	93.216946 
3424.671243  	93.335057 
3425.635668  	93.335761 
3426.600092  	93.281496 
3427.564517  	93.293234 
3428.528941  	93.306290 
3429.493366  	93.283634 
3430.457790  	93.172203 
3431.422214  	93.149882 
3432.386639  	93.216110 
3433.351063  	93.289772 
3434.315488  	93.400503 
3435.279912  	93.407933 
3436.244337  	93.412910 
3437.208761  	93.422022 
3438.173186  	93.419161 
3439.137610  	93.366558 
3440.102035  	93.413306 
3441.066459  	93.452350 
3442.030883  	93.315764 
3442.995308  	93.107987 
3443.959732  	93.314176 
3444.924157  	93.460501 
3445.888581  	93.386751 
3446.853006  	92.917676 
3447.817430  	92.588194 
3448.781855  	93.199320 
3449.746279  	93.550726 
3450.710704  	93.629243 
3451.675128  	93.622058 
3452.639552  	93.655987 
3453.603977  	93.670343 
3454.568401  	93.641817 
3455.532826  	93.635022 
3456.497250  	93.668380 
3457.461675  	93.714074 
3458.426099  	93.684072 
3459.390524  	93.679976 
3460.354948  	93.685900 
3461.319373  	93.549224 
3462.283797  	93.436248 
3463.248221  	93.407099 
3464.212646  	93.661240 
3465.177070  	93.778278 
3466.141495  	93.730752 
3467.105919  	93.481382 
3468.070344  	93.565131 
3469.034768  	93.843105 
3469.999193  	93.851483 
3470.963617  	93.763798 
3471.928042  	93.734075 
3472.892466  	93.790481 
3473.856891  	93.784664 
3474.821315  	93.605985 
3475.785739  	93.642810 
3476.750164  	93.780261 
3477.714588  	93.840229 
3478.679013  	93.876616 
3479.643437  	93.778817 
3480.607862  	93.420423 
3481.572286  	93.282952 
3482.536711  	93.162313 
3483.501135  	93.387983 
3484.465560  	93.669706 
3485.429984  	93.643552 
3486.394408  	93.669429 
3487.358833  	93.717758 
3488.323257  	93.444995 
3489.287682  	93.484910 
3490.252106  	93.731997 
3491.216531  	93.734352 
3492.180955  	93.851960 
3493.145380  	93.977028 
3494.109804  	93.974218 
3495.074229  	93.794797 
3496.038653  	93.501197 
3497.003077  	93.407909 
3497.967502  	93.591134 
3498.931926  	93.783138 
3499.896351  	93.712887 
3500.860775  	93.558487 
3501.825200  	93.163585 
3502.789624  	92.653029 
3503.754049  	92.576840 
3504.718473  	92.979867 
3505.682898  	93.389117 
3506.647322  	93.764609 
3507.611746  	93.912583 
3508.576171  	93.569260 
3509.540595  	92.762381 
3510.505020  	92.887000 
3511.469444  	93.432873 
3512.433869  	93.557227 
3513.398293  	93.612804 
3514.362718  	93.759414 
3515.327142  	93.886360 
3516.291567  	93.834624 
3517.255991  	93.637566 
3518.220415  	93.555349 
3519.184840  	93.544419 
3520.149264  	93.605126 
3521.113689  	93.757910 
3522.078113  	93.546482 
3523.042538  	92.687859 
3524.006962  	92.238071 
3524.971387  	92.657921 
3525.935811  	92.870381 
3526.900236  	92.772389 
3527.864660  	92.627207 
3528.829085  	92.731287 
3529.793509  	92.962748 
3530.757933  	93.259164 
3531.722358  	93.309475 
3532.686782  	93.600798 
3533.651207  	93.792982 
3534.615631  	93.813302 
3535.580056  	93.498577 
3536.544480  	92.782147 
3537.508905  	92.965608 
3538.473329  	93.557107 
3539.437754  	93.620094 
3540.402178  	93.675231 
3541.366602  	93.680588 
3542.331027  	93.616402 
3543.295451  	93.262794 
3544.259876  	92.833641 
3545.224300  	91.952343 
3546.188725  	91.721310 
3547.153149  	91.814826 
3548.117574  	92.337074 
3549.081998  	93.236651 
3550.046423  	93.510814 
3551.010847  	93.453412 
3551.975271  	92.863971 
3552.939696  	92.498892 
3553.904120  	92.803126 
3554.868545  	93.248821 
3555.832969  	93.703066 
3556.797394  	93.627832 
3557.761818  	93.614867 
3558.726243  	93.766673 
3559.690667  	93.311441 
3560.655092  	92.803938 
3561.619516  	93.214976 
3562.583940  	93.218836 
3563.548365  	93.066344 
3564.512789  	92.986167 
3565.477214  	92.079882 
3566.441638  	89.690507 
3567.406063  	89.571008 
3568.370487  	90.000275 
3569.334912  	91.621968 
3570.299336  	92.939381 
3571.263761  	93.197793 
3572.228185  	93.617287 
3573.192609  	93.668845 
3574.157034  	93.530218 
3575.121458  	93.441492 
3576.085883  	93.574752 
3577.050307  	93.454540 
3578.014732  	93.458463 
3578.979156  	93.532144 
3579.943581  	93.078896 
3580.908005  	93.102463 
3581.872430  	93.572310 
3582.836854  	93.550210 
3583.801278  	93.398800 
3584.765703  	93.509940 
3585.730127  	93.130128 
3586.694552  	91.416712 
3587.658976  	90.401744 
3588.623401  	90.642964 
3589.587825  	91.711971 
3590.552250  	93.203336 
3591.516674  	93.683105 
3592.481099  	93.604207 
3593.445523  	92.847151 
3594.409948  	92.856462 
3595.374372  	92.312625 
3596.338796  	92.085662 
3597.303221  	93.102037 
3598.267645  	93.183056 
3599.232070  	92.843486 
3600.196494  	92.909926 
3601.160919  	92.575849 
3602.125343  	92.913087 
3603.089768  	93.226058 
3604.054192  	93.560801 
3605.018617  	93.807090 
3605.983041  	93.616016 
3606.947465  	92.415744 
3607.911890  	91.766760 
3608.876314  	91.964796 
3609.840739  	91.706139 
3610.805163  	92.917561 
3611.769588  	92.939543 
3612.734012  	91.565967 
3613.698437  	91.603429 
3614.662861  	91.836863 
3615.627286  	91.975768 
3616.591710  	93.023789 
3617.556134  	92.432341 
3618.520559  	91.489191 
3619.484983  	91.373922 
3620.449408  	91.450784 
3621.413832  	92.279522 
3622.378257  	93.027935 
3623.342681  	93.485906 
3624.307106  	93.677085 
3625.271530  	93.602015 
3626.235955  	93.111410 
3627.200379  	92.912832 
3628.164803  	91.930355 
3629.129228  	88.953191 
3630.093652  	89.442021 
3631.058077  	91.979825 
3632.022501  	93.086608 
3632.986926  	93.177779 
3633.951350  	92.417517 
3634.915775  	92.789043 
3635.880199  	93.554541 
3636.844624  	93.763070 
3637.809048  	93.594287 
3638.773472  	93.514129 
3639.737897  	93.816399 
3640.702321  	93.868084 
3641.666746  	93.546137 
3642.631170  	93.056017 
3643.595595  	93.302839 
3644.560019  	93.729598 
3645.524444  	93.460098 
3646.488868  	92.255994 
3647.453293  	90.254817 
3648.417717  	90.460420 
3649.382142  	90.242757 
3650.346566  	89.314505 
3651.310990  	89.451003 
3652.275415  	91.708616 
3653.239839  	93.200755 
3654.204264  	93.663463 
3655.168688  	93.591044 
3656.133113  	92.608925 
3657.097537  	92.211477 
3658.061962  	93.428277 
3659.026386  	93.761752 
3659.990811  	93.666872 
3660.955235  	93.811727 
3661.919659  	94.058713 
3662.884084  	94.091869 
3663.848508  	94.068329 
3664.812933  	94.027007 
3665.777357  	94.057641 
3666.741782  	94.118711 
3667.706206  	94.031924 
3668.670631  	93.061479 
3669.635055  	91.802513 
3670.599480  	90.972513 
3671.563904  	91.573759 
3672.528328  	93.230440 
3673.492753  	93.565332 
3674.457177  	92.438355 
3675.421602  	89.450228 
3676.386026  	89.726046 
3677.350451  	91.715746 
3678.314875  	92.633436 
3679.279300  	92.717115 
3680.243724  	92.820638 
3681.208149  	93.717245 
3682.172573  	94.137436 
3683.136997  	94.160484 
3684.101422  	93.998350 
3685.065846  	93.828218 
3686.030271  	93.981503 
3686.994695  	93.842350 
3687.959120  	93.001103 
3688.923544  	91.862515 
3689.887969  	92.324382 
3690.852393  	91.812469 
3691.816818  	91.757222 
3692.781242  	93.363002 
3693.745666  	93.798565 
3694.710091  	93.951115 
3695.674515  	94.101909 
3696.638940  	93.995072 
3697.603364  	94.123040 
3698.567789  	94.338612 
3699.532213  	94.235789 
3700.496638  	94.195967 
3701.461062  	93.342160 
3702.425487  	92.663484 
3703.389911  	93.736317 
3704.354335  	94.259948 
3705.318760  	94.192805 
3706.283184  	94.133546 
3707.247609  	94.250035 
3708.212033  	94.222011 
3709.176458  	93.529982 
3710.140882  	92.816695 
3711.105307  	92.464528 
3712.069731  	91.306482 
3713.034156  	91.432901 
3713.998580  	92.938561 
3714.963005  	93.093783 
3715.927429  	93.456480 
3716.891853  	94.108984 
3717.856278  	94.214278 
3718.820702  	93.499149 
3719.785127  	93.204772 
3720.749551  	93.924659 
3721.713976  	93.470784 
3722.678400  	91.966977 
3723.642825  	92.605681 
3724.607249  	93.055026 
3725.571674  	92.374662 
3726.536098  	92.133779 
3727.500522  	92.374285 
3728.464947  	93.393702 
3729.429371  	94.095943 
3730.393796  	94.071297 
3731.358220  	93.623193 
3732.322645  	92.705578 
3733.287069  	92.769018 
3734.251494  	92.104332 
3735.215918  	88.813559 
3736.180343  	89.128323 
3737.144767  	90.852445 
3738.109191  	91.897833 
3739.073616  	92.439841 
3740.038040  	93.121409 
3741.002465  	92.741911 
3741.966889  	92.849102 
3742.931314  	93.467291 
3743.895738  	92.459714 
3744.860163  	88.861513 
3745.824587  	91.109838 
3746.789012  	92.386714 
3747.753436  	92.552068 
3748.717860  	92.412286 
3749.682285  	91.778119 
3750.646709  	91.633741 
3751.611134  	91.193170 
3752.575558  	89.873982 
3753.539983  	91.628544 
3754.504407  	92.837751 
3755.468832  	93.516645 
3756.433256  	93.291017 
3757.397681  	93.218018 
3758.362105  	93.385704 
3759.326529  	92.318279 
3760.290954  	91.818128 
3761.255378  	93.457146 
3762.219803  	93.944791 
3763.184227  	94.026875 
3764.148652  	94.080439 
3765.113076  	93.625417 
3766.077501  	92.671877 
3767.041925  	93.405547 
3768.006350  	94.072360 
3768.970774  	93.823417 
3769.935199  	92.691323 
3770.899623  	92.754003 
3771.864047  	93.641064 
3772.828472  	94.092710 
3773.792896  	94.258160 
3774.757321  	94.327473 
3775.721745  	94.419606 
3776.686170  	94.515964 
3777.650594  	94.448734 
3778.615019  	93.988878 
3779.579443  	93.023549 
3780.543868  	93.164935 
3781.508292  	94.033961 
3782.472716  	94.179802 
3783.437141  	94.234428 
3784.401565  	93.843373 
3785.365990  	93.314759 
3786.330414  	93.660605 
3787.294839  	94.057822 
3788.259263  	94.296088 
3789.223688  	94.342890 
3790.188112  	94.329061 
3791.152537  	94.407179 
3792.116961  	94.429543 
3793.081385  	94.464275 
3794.045810  	94.478235 
3795.010234  	94.303015 
3795.974659  	93.724924 
3796.939083  	92.839026 
3797.903508  	93.117731 
3798.867932  	93.691858 
3799.832357  	93.839030 
3800.796781  	92.827886 
3801.761206  	91.256499 
3802.725630  	91.643468 
3803.690054  	92.765350 
3804.654479  	93.837735 
3805.618903  	94.012986 
3806.583328  	93.227359 
3807.547752  	92.494742 
3808.512177  	93.610736 
3809.476601  	94.059380 
3810.441026  	94.134336 
3811.405450  	94.294763 
3812.369875  	94.412621 
3813.334299  	94.438630 
3814.298723  	94.307505 
3815.263148  	93.635638 
3816.227572  	92.054939 
3817.191997  	92.437804 
3818.156421  	93.425928 
3819.120846  	93.468407 
3820.085270  	92.819294 
3821.049695  	91.070761 
3822.014119  	90.831232 
3822.978544  	92.660131 
3823.942968  	93.379205 
3824.907392  	93.723308 
3825.871817  	93.676460 
3826.836241  	93.058424 
3827.800666  	93.133781 
3828.765090  	93.813858 
3829.729515  	94.177713 
3830.693939  	94.100221 
3831.658364  	93.238229 
3832.622788  	93.224554 
3833.587213  	93.935652 
3834.551637  	93.528700 
3835.516062  	92.893629 
3836.480486  	93.450343 
3837.444910  	92.895663 
3838.409335  	91.607966 
3839.373759  	92.142466 
3840.338184  	91.578755 
3841.302608  	91.697917 
3842.267033  	93.184672 
3843.231457  	93.205918 
3844.195882  	92.389384 
3845.160306  	93.369458 
3846.124731  	94.034906 
3847.089155  	94.175296 
3848.053579  	94.230928 
3849.018004  	94.003235 
3849.982428  	93.482955 
3850.946853  	93.432096 
3851.911277  	92.592512 
3852.875702  	90.971719 
3853.840126  	89.956838 
3854.804551  	90.087369 
3855.768975  	92.488691 
3856.733400  	92.715534 
3857.697824  	92.301977 
3858.662248  	93.446981 
3859.626673  	94.178819 
3860.591097  	94.180746 
3861.555522  	93.488092 
3862.519946  	92.860906 
3863.484371  	93.207541 
3864.448795  	92.375305 
3865.413220  	91.165825 
3866.377644  	92.659243 
3867.342069  	93.831867 
3868.306493  	93.843251 
3869.270917  	92.485265 
3870.235342  	90.284630 
3871.199766  	91.623301 
3872.164191  	93.042813 
3873.128615  	93.476637 
3874.093040  	92.125861 
3875.057464  	92.066815 
3876.021889  	93.793582 
3876.986313  	94.247460 
3877.950738  	94.366719 
3878.915162  	94.303257 
3879.879586  	93.170934 
3880.844011  	91.143250 
3881.808435  	92.407094 
3882.772860  	93.425145 
3883.737284  	93.210644 
3884.701709  	93.205693 
3885.666133  	92.275911 
3886.630558  	91.855894 
3887.594982  	93.517046 
3888.559407  	94.132609 
3889.523831  	94.221636 
3890.488256  	93.778080 
3891.452680  	92.374887 
3892.417104  	92.260933 
3893.381529  	93.299466 
3894.345953  	93.306238 
3895.310378  	93.665902 
3896.274802  	94.217122 
3897.239227  	94.281095 
3898.203651  	93.580219 
3899.168076  	92.364967 
3900.132500  	92.226153 
3901.096925  	93.000141 
3902.061349  	91.613257 
3903.025773  	91.665450 
3903.990198  	92.116581 
3904.954622  	91.593010 
3905.919047  	91.935170 
3906.883471  	92.815104 
3907.847896  	93.939074 
3908.812320  	94.319868 
3909.776745  	94.407576 
3910.741169  	94.419610 
3911.705594  	94.412184 
3912.670018  	94.395416 
3913.634442  	94.402723 
3914.598867  	94.443548 
3915.563291  	94.280548 
3916.527716  	93.205846 
3917.492140  	92.272900 
3918.456565  	93.287251 
3919.420989  	93.641827 
3920.385414  	92.910577 
3921.349838  	93.533696 
3922.314263  	94.281493 
3923.278687  	93.930140 
3924.243111  	93.025359 
3925.207536  	92.478176 
3926.171960  	93.307580 
3927.136385  	94.240867 
3928.100809  	94.289613 
3929.065234  	94.003322 
3930.029658  	93.624925 
3930.994083  	93.395766 
3931.958507  	92.975844 
3932.922932  	92.570696 
3933.887356  	93.367420 
3934.851780  	93.855700 
3935.816205  	94.233883 
3936.780629  	94.410015 
3937.745054  	94.308216 
3938.709478  	94.069411 
3939.673903  	94.234533 
3940.638327  	94.346896 
3941.602752  	94.160754 
3942.567176  	93.146024 
3943.531601  	92.664347 
3944.496025  	93.599037 
3945.460449  	94.103041 
3946.424874  	94.217887 
3947.389298  	93.576812 
3948.353723  	93.154035 
3949.318147  	93.417962 
3950.282572  	93.127273 
3951.246996  	93.629459 
3952.211421  	94.268738 
3953.175845  	94.153150 
3954.140270  	94.230754 
3955.104694  	94.325994 
3956.069119  	94.245423 
3957.033543  	94.081023 
3957.997967  	94.063171 
3958.962392  	94.160066 
3959.926816  	94.229268 
3960.891241  	94.180950 
3961.855665  	93.751744 
3962.820090  	93.738153 
3963.784514  	94.279543 
3964.748939  	94.299935 
3965.713363  	94.338895 
3966.677788  	94.435104 
3967.642212  	94.472467 
3968.606636  	94.265852 
3969.571061  	94.038047 
3970.535485  	94.215036 
3971.499910  	94.312588 
3972.464334  	94.081607 
3973.428759  	94.158062 
3974.393183  	94.272049 
3975.357608  	94.162086 
3976.322032  	93.985683 
3977.286457  	94.167384 
3978.250881  	94.429675 
3979.215305  	94.424599 
3980.179730  	94.367289 
3981.144154  	94.337869 
3982.108579  	94.293607 
3983.073003  	94.359828 
3984.037428  	94.488017 
3985.001852  	94.466090 
3985.966277  	94.404371 
3986.930701  	94.451266 
3987.895126  	94.477201 
3988.859550  	94.469903 
3989.823974  	94.327682 
3990.788399  	94.063744 
3991.752823  	94.159260 
3992.717248  	94.341750 
3993.681672  	94.329315 
3994.646097  	94.250406 
3995.610521  	94.194369 
3996.574946  	94.380035 
3997.539370  	94.468911 
3998.503795  	94.482497 
3999.468219  	94.476466 
4000.432643  	94.499847 
4001.397068  	94.491749 
4002.361492  	94.446635 
4003.325917  	94.388412 
4004.290341  	94.405272 
4005.254766  	94.423096 
4006.219190  	94.417540 
4007.183615  	94.386295 
4008.148039  	94.302248 
4009.112464  	94.178245 
4010.076888  	94.311138 
4011.041313  	94.402362 
4012.005737  	94.427468 
4012.970161  	94.423977 
4013.934586  	94.471972 
4014.899010  	94.476964 
4015.863435  	94.410076 
4016.827859  	94.403556 
4017.792284  	94.460224 
4018.756708  	94.456112 
4019.721133  	94.367381 
4020.685557  	94.359455 
4021.649982  	94.427823 
4022.614406  	94.469562 
4023.578830  	94.447572 
4024.543255  	94.382489 
4025.507679  	94.297827 
4026.472104  	94.353759 
4027.436528  	94.460625 
4028.400953  	94.462302 
4029.365377  	94.421923 
4030.329802  	94.414750 
4031.294226  	94.368285 
4032.258651  	94.373299 
4033.223075  	94.486406 
4034.187499  	94.535912 
4035.151924  	94.486895 
4036.116348  	94.458056 
4037.080773  	94.474904 
4038.045197  	94.544504 
4039.009622  	94.554400 
4039.974046  	94.511617 
4040.938471  	94.502520 
4041.902895  	94.478134 
4042.867320  	94.459113 
4043.831744  	94.364187 
4044.796168  	94.244429 
4045.760593  	94.247939 
4046.725017  	94.397354 
4047.689442  	94.423016 
4048.653866  	94.404100 
4049.618291  	94.407332 
4050.582715  	94.436035 
4051.547140  	94.437760 
4052.511564  	94.425120 
4053.475989  	94.416653 
4054.440413  	94.427982 
4055.404837  	94.401635 
4056.369262  	94.409274 
4057.333686  	94.427313 
4058.298111  	94.466322 
4059.262535  	94.481482 
4060.226960  	94.390906 
4061.191384  	94.298902 
4062.155809  	94.388746 
4063.120233  	94.480776 
4064.084658  	94.486914 
4065.049082  	94.492589 
4066.013506  	94.491423 
4066.977931  	94.446445 
4067.942355  	94.420403 
4068.906780  	94.426439 
4069.871204  	94.434219 
4070.835629  	94.418698 
4071.800053  	94.427178 
4072.764478  	94.420178 
4073.728902  	94.367550 
4074.693327  	94.367152 
4075.657751  	94.423823 
4076.622176  	94.398602 
4077.586600  	94.427661 
4078.551024  	94.433479 
4079.515449  	94.382252 
4080.479873  	94.413463 
4081.444298  	94.436345 
4082.408722  	94.371015 
4083.373147  	94.333066 
4084.337571  	94.334141 
4085.301996  	94.337257 
4086.266420  	94.327809 
4087.230845  	94.331164 
4088.195269  	94.301389 
4089.159693  	94.297927 
4090.124118  	94.336469 
4091.088542  	94.363211 
4092.052967  	94.340557 
4093.017391  	94.326803 
4093.981816  	94.326518 
4094.946240  	94.318132 
4095.910665  	94.355578 
4096.875089  	94.446713 
4097.839514  	94.417852 
4098.803938  	94.308202 
4099.768362  	94.341701 
4100.732787  	94.424796 
4101.697211  	94.408684 
4102.661636  	94.404484 
4103.626060  	94.456755 
4104.590485  	94.424375 
4105.554909  	94.318465 
4106.519334  	94.285860 
4107.483758  	94.286876 
4108.448183  	94.345725 
4109.412607  	94.403032 
4110.377031  	94.391283 
4111.341456  	94.433603 
4112.305880  	94.465097 
4113.270305  	94.455830 
4114.234729  	94.488697 
4115.199154  	94.534844 
4116.163578  	94.478176 
4117.128003  	94.428246 
4118.092427  	94.425103 
4119.056852  	94.403887 
4120.021276  	94.358554 
4120.985700  	94.322349 
4121.950125  	94.376935 
4122.914549  	94.380892 
4123.878974  	94.370993 
4124.843398  	94.401295 
4125.807823  	94.434437 
4126.772247  	94.412230 
4127.736672  	94.384605 
4128.701096  	94.395752 
4129.665521  	94.425640 
4130.629945  	94.434994 
4131.594370  	94.462048 
4132.558794  	94.482758 
4133.523218  	94.401390 
4134.487643  	94.385579 
4135.452067  	94.457128 
4136.416492  	94.487690 
4137.380916  	94.481155 
4138.345341  	94.437257 
4139.309765  	94.414778 
4140.274190  	94.425181 
4141.238614  	94.446613 
4142.203039  	94.443708 
4143.167463  	94.494264 
4144.131887  	94.488316 
4145.096312  	94.456089 
4146.060736  	94.489550 
4147.025161  	94.498277 
4147.989585  	94.445067 
4148.954010  	94.418231 
4149.918434  	94.423698 
4150.882859  	94.438704 
4151.847283  	94.420997 
4152.811708  	94.404443 
4153.776132  	94.431049 
4154.740556  	94.451713 
4155.704981  	94.446267 
4156.669405  	94.440026 
4157.633830  	94.460539 
4158.598254  	94.437190 
4159.562679  	94.372654 
4160.527103  	94.355266 
4161.491528  	94.399243 
4162.455952  	94.434081 
4163.420377  	94.484240 
4164.384801  	94.500167 
4165.349225  	94.453169 
4166.313650  	94.432242 
4167.278074  	94.433103 
4168.242499  	94.472038 
4169.206923  	94.531491 
4170.171348  	94.544175 
4171.135772  	94.505185 
4172.100197  	94.446661 
4173.064621  	94.431971 
4174.029046  	94.457168 
4174.993470  	94.468951 
4175.957894  	94.470566 
4176.922319  	94.460726 
4177.886743  	94.467725 
4178.851168  	94.456499 
4179.815592  	94.435096 
4180.780017  	94.427434 
4181.744441  	94.490368 
4182.708866  	94.518184 
4183.673290  	94.493281 
4184.637715  	94.467149 
4185.602139  	94.480620 
4186.566563  	94.469565 
4187.530988  	94.453867 
4188.495412  	94.493721 
4189.459837  	94.523110 
4190.424261  	94.471059 
4191.388686  	94.450782 
4192.353110  	94.486664 
4193.317535  	94.457344 
4194.281959  	94.430579 
4195.246384  	94.477339 
4196.210808  	94.515754 
4197.175233  	94.502161 
4198.139657  	94.497301 
4199.104081  	94.506150 
4200.068506  	94.485832 
4201.032930  	94.495696 
4201.997355  	94.569219 
4202.961779  	94.592818 
4203.926204  	94.511081 
4204.890628  	94.487720 
4205.855053  	94.492264 
4206.819477  	94.478655 
4207.783902  	94.496799 
4208.748326  	94.470783 
4209.712750  	94.473261 
4210.677175  	94.486312 
4211.641599  	94.460738 
4212.606024  	94.454825 
4213.570448  	94.466051 
4214.534873  	94.472833 
4215.499297  	94.452195 
4216.463722  	94.490275 
4217.428146  	94.432538 
4218.392571  	94.411897 
4219.356995  	94.450780 
4220.321419  	94.513392 
4221.285844  	94.588348 
4222.250268  	94.574237 
4223.214693  	94.454852 
4224.179117  	94.411661 
4225.143542  	94.442328 
4226.107966  	94.495828 
4227.072391  	94.535369 
4228.036815  	94.496278 
4229.001240  	94.459841 
4229.965664  	94.452611 
4230.930088  	94.436324 
4231.894513  	94.512927 
4232.858937  	94.568926 
4233.823362  	94.569054 
4234.787786  	94.497500 
4235.752211  	94.473321 
4236.716635  	94.531201 
4237.681060  	94.554407 
4238.645484  	94.515437 
4239.609909  	94.496575 
4240.574333  	94.475890 
4241.538757  	94.475268 
4242.503182  	94.518525 
4243.467606  	94.544261 
4244.432031  	94.475979 
4245.396455  	94.442752 
4246.360880  	94.499637 
4247.325304  	94.501465 
4248.289729  	94.477209 
4249.254153  	94.516226 
4250.218578  	94.581653 
4251.183002  	94.541309 
4252.147427  	94.438730 
4253.111851  	94.448267 
4254.076275  	94.474616 
4255.040700  	94.466494 
4256.005124  	94.448032 
4256.969549  	94.548037 
4257.933973  	94.570560 
4258.898398  	94.493296 
4259.862822  	94.438873 
4260.827247  	94.420620 
4261.791671  	94.442506 
4262.756096  	94.508833 
4263.720520  	94.525504 
4264.684944  	94.458606 
4265.649369  	94.383366 
4266.613793  	94.434897 
4267.578218  	94.472758 
4268.542642  	94.461353 
4269.507067  	94.464676 
4270.471491  	94.494815 
4271.435916  	94.450588 
4272.400340  	94.368558 
4273.364765  	94.399033 
4274.329189  	94.486956 
4275.293613  	94.497996 
4276.258038  	94.526645 
4277.222462  	94.493016 
4278.186887  	94.380003 
4279.151311  	94.268472 
4280.115736  	94.268891 
4281.080160  	94.373298 
4282.044585  	94.392291 
4283.009009  	94.345561 
4283.973434  	94.404087 
4284.937858  	94.397311 
4285.902282  	94.385516 
4286.866707  	94.425824 
4287.831131  	94.474816 
4288.795556  	94.488091 
4289.759980  	94.464089 
4290.724405  	94.431532 
4291.688829  	94.425323 
4292.653254  	94.395398 
4293.617678  	94.442967 
4294.582103  	94.540711 
4295.546527  	94.508794 
4296.510951  	94.478638 
4297.475376  	94.527435 
4298.439800  	94.483550 
4299.404225  	94.433886 
4300.368649  	94.486995 
4301.333074  	94.435806 
4302.297498  	94.312289 
4303.261923  	94.404218 
4304.226347  	94.533668 
4305.190772  	94.555974 
4306.155196  	94.508823 
4307.119620  	94.533001 
4308.084045  	94.505825 
4309.048469  	94.478600 
4310.012894  	94.492564 
4310.977318  	94.500449 
4311.941743  	94.476008 
4312.906167  	94.491480 
4313.870592  	94.494844 
4314.835016  	94.518714 
4315.799441  	94.481307 
4316.763865  	94.454914 
4317.728290  	94.473251 
4318.692714  	94.525958 
4319.657138  	94.509160 
4320.621563  	94.482109 
4321.585987  	94.434316 
4322.550412  	94.441008 
4323.514836  	94.469823 
4324.479261  	94.478847 
4325.443685  	94.435769 
4326.408110  	94.452347 
4327.372534  	94.496882 
4328.336959  	94.545691 
4329.301383  	94.555961 
4330.265807  	94.550871 
4331.230232  	94.523544 
4332.194656  	94.471950 
4333.159081  	94.493579 
4334.123505  	94.493791 
4335.087930  	94.453861 
4336.052354  	94.500286 
4337.016779  	94.533421 
4337.981203  	94.554648 
4338.945628  	94.542376 
4339.910052  	94.517834 
4340.874476  	94.495985 
4341.838901  	94.555665 
4342.803325  	94.519314 
4343.767750  	94.461467 
4344.732174  	94.447840 
4345.696599  	94.468040 
4346.661023  	94.507797 
4347.625448  	94.483808 
4348.589872  	94.418388 
4349.554297  	94.444942 
4350.518721  	94.513046 
4351.483145  	94.538827 
4352.447570  	94.561666 
4353.411994  	94.527541 
4354.376419  	94.420552 
4355.340843  	94.442127 
4356.305268  	94.556606 
4357.269692  	94.606572 
4358.234117  	94.567103 
4359.198541  	94.491467 
4360.162966  	94.471930 
4361.127390  	94.463743 
4362.091814  	94.436938 
4363.056239  	94.450056 
4364.020663  	94.523697 
4364.985088  	94.538330 
4365.949512  	94.460599 
4366.913937  	94.435903 
4367.878361  	94.450652 
4368.842786  	94.466694 
4369.807210  	94.530577 
4370.771635  	94.568298 
4371.736059  	94.508862 
4372.700484  	94.515053 
4373.664908  	94.559421 
4374.629332  	94.543461 
4375.593757  	94.479723 
4376.558181  	94.498417 
4377.522606  	94.514138 
4378.487030  	94.465038 
4379.451455  	94.463645 
4380.415879  	94.466160 
4381.380304  	94.413889 
4382.344728  	94.453447 
4383.309153  	94.500046 
4384.273577  	94.523280 
4385.238001  	94.509802 
4386.202426  	94.499400 
4387.166850  	94.515073 
4388.131275  	94.515824 
4389.095699  	94.424429 
4390.060124  	94.408695 
4391.024548  	94.481993 
4391.988973  	94.548969 
4392.953397  	94.569292 
4393.917822  	94.522817 
4394.882246  	94.462831 
4395.846670  	94.450232 
4396.811095  	94.421427 
4397.775519  	94.460282 
4398.739944  	94.565234 
4399.704368  	94.648460 
4400.668793  	94.636511 
4401.633217  	94.469460 
4402.597642  	94.441695 
4403.562066  	94.566959 
4404.526491  	94.537690 
4405.490915  	94.480051 
4406.455339  	94.430853 
4407.419764  	94.388565 
4408.384188  	94.462192 
4409.348613  	94.540588 
4410.313037  	94.550288 
4411.277462  	94.475320 
4412.241886  	94.420062 
4413.206311  	94.465520 
4414.170735  	94.551886 
4415.135160  	94.520962 
4416.099584  	94.460786 
4417.064008  	94.447653 
4418.028433  	94.392996 
4418.992857  	94.399159 
4419.957282  	94.411293 
4420.921706  	94.393391 
4421.886131  	94.422369 
4422.850555  	94.438922 
4423.814980  	94.420880 
4424.779404  	94.379801 
4425.743829  	94.313914 
4426.708253  	94.353215 
4427.672677  	94.419274 
4428.637102  	94.425199 
4429.601526  	94.475966 
4430.565951  	94.530110 
4431.530375  	94.470232 
4432.494800  	94.336896 
4433.459224  	94.314929 
4434.423649  	94.345471 
4435.388073  	94.385893 
4436.352498  	94.508077 
4437.316922  	94.581133 
4438.281347  	94.561785 
4439.245771  	94.433717 
4440.210195  	94.372163 
4441.174620  	94.413499 
4442.139044  	94.446335 
4443.103469  	94.474931 
4444.067893  	94.444552 
4445.032318  	94.443538 
4445.996742  	94.462714 
4446.961167  	94.411072 
4447.925591  	94.354430 
4448.890016  	94.371741 
4449.854440  	94.390636 
4450.818864  	94.416674 
4451.783289  	94.428642 
4452.747713  	94.403278 
4453.712138  	94.467341 
4454.676562  	94.439820 
4455.640987  	94.394088 
4456.605411  	94.407831 
4457.569836  	94.385317 
4458.534260  	94.321227 
4459.498685  	94.318784 
4460.463109  	94.332958 
4461.427533  	94.394156 
4462.391958  	94.400031 
4463.356382  	94.393314 
4464.320807  	94.460012 
4465.285231  	94.490598 
4466.249656  	94.458355 
4467.214080  	94.440085 
4468.178505  	94.443137 
4469.142929  	94.459631 
4470.107354  	94.430367 
4471.071778  	94.445773 
4472.036202  	94.533670 
4473.000627  	94.518050 
4473.965051  	94.514355 
4474.929476  	94.530875 
4475.893900  	94.522662 
4476.858325  	94.490283 
4477.822749  	94.473730 
4478.787174  	94.464364 
4479.751598  	94.385493 
4480.716023  	94.381888 
4481.680447  	94.447823 
4482.644871  	94.457328 
4483.609296  	94.440857 
4484.573720  	94.474053 
4485.538145  	94.471907 
4486.502569  	94.444857 
4487.466994  	94.443249 
4488.431418  	94.481749 
4489.395843  	94.476847 
4490.360267  	94.491688 
4491.324692  	94.535298 
4492.289116  	94.555183 
4493.253541  	94.573050 
4494.217965  	94.598247 
4495.182389  	94.581416 
4496.146814  	94.539191 
4497.111238  	94.529261 
4498.075663  	94.513423 
4499.040087  	94.469191 
4500.004512  	94.482341 
4500.968936  	94.535259 
4501.933361  	94.540971 
4502.897785  	94.511514 
4503.862210  	94.521611 
4504.826634  	94.504744 
4505.791058  	94.487740 
4506.755483  	94.468154 
4507.719907  	94.478256 
4508.684332  	94.540342 
4509.648756  	94.550930 
4510.613181  	94.480526 
4511.577605  	94.523116 
4512.542030  	94.580327 
4513.506454  	94.567472 
4514.470879  	94.497144 
4515.435303  	94.458862 
4516.399727  	94.494856 
4517.364152  	94.480007 
4518.328576  	94.460156 
4519.293001  	94.503427 
4520.257425  	94.526867 
4521.221850  	94.493536 
4522.186274  	94.529312 
4523.150699  	94.544622 
4524.115123  	94.455103 
4525.079548  	94.427936 
4526.043972  	94.432085 
4527.008396  	94.416771 
4527.972821  	94.444998 
4528.937245  	94.493656 
4529.901670  	94.481393 
4530.866094  	94.502303 
4531.830519  	94.511789 
4532.794943  	94.467815 
4533.759368  	94.529734 
4534.723792  	94.607044 
4535.688217  	94.531418 
4536.652641  	94.556392 
4537.617065  	94.584924 
4538.581490  	94.567339 
4539.545914  	94.518361 
4540.510339  	94.569452 
4541.474763  	94.483300 
4542.439188  	94.401250 
4543.403612  	94.516605 
4544.368037  	94.528630 
4545.332461  	94.460607 
4546.296886  	94.460647 
4547.261310  	94.457311 
4548.225734  	94.469132 
4549.190159  	94.508946 
4550.154583  	94.568152 
4551.119008  	94.501230 
4552.083432  	94.494487 
4553.047857  	94.552321 
4554.012281  	94.550577 
4554.976706  	94.501831 
4555.941130  	94.470027 
4556.905555  	94.500282 
4557.869979  	94.547507 
4558.834404  	94.568712 
4559.798828  	94.467948 
4560.763252  	94.387525 
4561.727677  	94.381271 
4562.692101  	94.434160 
4563.656526  	94.487639 
4564.620950  	94.522180 
4565.585375  	94.450863 
4566.549799  	94.436664 
4567.514224  	94.557819 
4568.478648  	94.535485 
4569.443073  	94.456939 
4570.407497  	94.416952 
4571.371921  	94.486300 
4572.336346  	94.501793 
4573.300770  	94.524075 
4574.265195  	94.497030 
4575.229619  	94.422879 
4576.194044  	94.444418 
4577.158468  	94.507846 
4578.122893  	94.530190 
4579.087317  	94.509407 
4580.051742  	94.450290 
4581.016166  	94.475440 
4581.980590  	94.569338 
4582.945015  	94.567015 
4583.909439  	94.498974 
4584.873864  	94.435611 
4585.838288  	94.439301 
4586.802713  	94.510592 
4587.767137  	94.442802 
4588.731562  	94.415810 
4589.695986  	94.445322 
4590.660411  	94.428765 
4591.624835  	94.450774 
4592.589259  	94.485616 
4593.553684  	94.533987 
4594.518108  	94.507121 
4595.482533  	94.472244 
4596.446957  	94.503987 
4597.411382  	94.434138 
4598.375806  	94.413735 
4599.340231  	94.487507 
4600.304655  	94.478818 
4601.269080  	94.441029 
4602.233504  	94.435903 
4603.197928  	94.415714 
4604.162353  	94.378936 
4605.126777  	94.407342 
4606.091202  	94.510119 
4607.055626  	94.497575 
4608.020051  	94.443672 
4608.984475  	94.503653 
4609.948900  	94.552035 
4610.913324  	94.497395 
4611.877749  	94.495566 
4612.842173  	94.501056 
4613.806598  	94.501105 
4614.771022  	94.472680 
4615.735446  	94.491457 
4616.699871  	94.465710 
4617.664295  	94.430058 
4618.628720  	94.458964 
4619.593144  	94.450764 
4620.557569  	94.515183 
4621.521993  	94.520749 
4622.486418  	94.455532 
4623.450842  	94.484154 
4624.415267  	94.475730 
4625.379691  	94.470272 
4626.344115  	94.455684 
4627.308540  	94.479191 
4628.272964  	94.445673 
4629.237389  	94.461040 
4630.201813  	94.451720 
4631.166238  	94.419261 
4632.130662  	94.408380 
4633.095087  	94.359498 
4634.059511  	94.391074 
4635.023936  	94.494395 
4635.988360  	94.524083 
4636.952784  	94.484769 
4637.917209  	94.469361 
4638.881633  	94.436189 
4639.846058  	94.409562 
4640.810482  	94.453145 
4641.774907  	94.446781 
4642.739331  	94.367128 
4643.703756  	94.372861 
4644.668180  	94.424099 
4645.632605  	94.335519 
4646.597029  	94.385026 
4647.561453  	94.443822 
4648.525878  	94.457200 
4649.490302  	94.498507 
4650.454727  	94.558632 
4651.419151  	94.490679 
4652.383576  	94.406396 
4653.348000  	94.395905 
4654.312425  	94.432516 
4655.276849  	94.462213 
4656.241274  	94.436052 
4657.205698  	94.451460 
4658.170122  	94.395912 
4659.134547  	94.340396 
4660.098971  	94.374623 
4661.063396  	94.430689 
4662.027820  	94.494756 
4662.992245  	94.496832 
4663.956669  	94.496849 
4664.921094  	94.515385 
4665.885518  	94.551741 
4666.849943  	94.561057 
4667.814367  	94.522566 
4668.778791  	94.538528 
4669.743216  	94.547629 
4670.707640  	94.532197 
4671.672065  	94.528452 
4672.636489  	94.473366 
4673.600914  	94.425384 
4674.565338  	94.401778 
4675.529763  	94.445572 
4676.494187  	94.502354 
4677.458612  	94.506762 
4678.423036  	94.570558 
4679.387461  	94.629004 
4680.351885  	94.543177 
4681.316309  	94.502174 
4682.280734  	94.488249 
4683.245158  	94.422892 
4684.209583  	94.430551 
4685.174007  	94.485270 
4686.138432  	94.543455 
4687.102856  	94.530643 
4688.067281  	94.488473 
4689.031705  	94.436613 
4689.996130  	94.410661 
4690.960554  	94.447257 
4691.924978  	94.356921 
4692.889403  	94.333232 
4693.853827  	94.470698 
4694.818252  	94.506780 
4695.782676  	94.417763 
4696.747101  	94.340342 
4697.711525  	94.437247 
4698.675950  	94.535527 
4699.640374  	94.430887 