##TITLE=No Description
##DATA TYPE=INFRARED SPECTRUM
##XUNITS=1/CM
##YUNITS=%T
400.236149  	112.250726 
401.200574  	103.161648 
402.164998  	86.767470 
403.129423  	86.294808 
404.093847  	92.257488 
405.058272  	89.525829 
406.022696  	99.758030 
406.987120  	110.987335 
407.951545  	100.119814 
408.915969  	88.528114 
409.880394  	80.636804 
410.844818  	82.146697 
411.809243  	89.389396 
412.773667  	88.528232 
413.738092  	85.799266 
414.702516  	77.984240 
415.666941  	75.443534 
416.631365  	82.135094 
417.595789  	82.304734 
418.560214  	87.464071 
419.524638  	88.068392 
420.489063  	80.651669 
421.453487  	75.914413 
422.417912  	75.325741 
423.382336  	77.928036 
424.346761  	76.558251 
425.311185  	71.679650 
426.275610  	72.053598 
427.240034  	74.979076 
428.204458  	76.389436 
429.168883  	76.174785 
430.133307  	74.480084 
431.097732  	72.297618 
432.062156  	71.257098 
433.026581  	71.890420 
433.991005  	73.442904 
434.955430  	73.830791 
435.919854  	73.853721 
436.884279  	74.439915 
437.848703  	75.359897 
438.813127  	76.170960 
439.777552  	75.413830 
440.741976  	75.086516 
441.706401  	76.757156 
442.670825  	78.635108 
443.635250  	80.935597 
444.599674  	80.916714 
445.564099  	79.637250 
446.528523  	78.883992 
447.492948  	79.755616 
448.457372  	81.837468 
449.421796  	80.961879 
450.386221  	78.288265 
451.350645  	79.180132 
452.315070  	79.945274 
453.279494  	79.322365 
454.243919  	79.695454 
455.208343  	79.661051 
456.172768  	79.278408 
457.137192  	78.799570 
458.101617  	79.892656 
459.066041  	80.927654 
460.030466  	80.419669 
460.994890  	79.063868 
461.959314  	78.897402 
462.923739  	79.517677 
463.888163  	79.674810 
464.852588  	79.893351 
465.817012  	79.715870 
466.781437  	79.186108 
467.745861  	78.458895 
468.710286  	78.409743 
469.674710  	77.938961 
470.639135  	77.812180 
471.603559  	78.084979 
472.567983  	78.922068 
473.532408  	79.553684 
474.496832  	78.904071 
475.461257  	78.613329 
476.425681  	78.307434 
477.390106  	79.225418 
478.354530  	79.586736 
479.318955  	78.263563 
480.283379  	77.746268 
481.247804  	78.153546 
482.212228  	78.316442 
483.176652  	78.660246 
484.141077  	78.051238 
485.105501  	77.126945 
486.069926  	76.478772 
487.034350  	77.078427 
487.998775  	77.744459 
488.963199  	77.712662 
489.927624  	77.803016 
490.892048  	77.179311 
491.856473  	76.216567 
492.820897  	76.532157 
493.785321  	76.623190 
494.749746  	75.715463 
495.714170  	75.484453 
496.678595  	75.315060 
497.643019  	74.976015 
498.607444  	74.615755 
499.571868  	74.183716 
500.536293  	73.976284 
501.500717  	73.145237 
502.465142  	72.544587 
503.429566  	72.741821 
504.393990  	72.649111 
505.358415  	72.769926 
506.322839  	72.481628 
507.287264  	73.088568 
508.251688  	74.778690 
509.216113  	76.328367 
510.180537  	76.713439 
511.144962  	77.338628 
512.109386  	78.576797 
513.073811  	79.235024 
514.038235  	79.152458 
515.002660  	78.966539 
515.967084  	78.765218 
516.931508  	78.497754 
517.895933  	78.710532 
518.860357  	78.718590 
519.824782  	78.253297 
520.789206  	78.570670 
521.753631  	78.991511 
522.718055  	79.211518 
523.682480  	79.613158 
524.646904  	79.636544 
525.611329  	78.710885 
526.575753  	78.913989 
527.540177  	79.850059 
528.504602  	80.241964 
529.469026  	80.176052 
530.433451  	80.095576 
531.397875  	80.213835 
532.362300  	80.448842 
533.326724  	80.859633 
534.291149  	80.684766 
535.255573  	80.787453 
536.219998  	81.256620 
537.184422  	81.566202 
538.148846  	81.020573 
539.113271  	81.071763 
540.077695  	81.045553 
541.042120  	81.293085 
542.006544  	81.473466 
542.970969  	81.572438 
543.935393  	81.667814 
544.899818  	81.541003 
545.864242  	81.642480 
546.828667  	81.685746 
547.793091  	81.054060 
548.757515  	81.099692 
549.721940  	81.587233 
550.686364  	81.561583 
551.650789  	81.778737 
552.615213  	81.669798 
553.579638  	81.960311 
554.544062  	82.161566 
555.508487  	81.997976 
556.472911  	81.905525 
557.437336  	81.586048 
558.401760  	81.468892 
559.366184  	81.912564 
560.330609  	81.720527 
561.295033  	81.594711 
562.259458  	81.842103 
563.223882  	81.746406 
564.188307  	81.557015 
565.152731  	81.708952 
566.117156  	81.599007 
567.081580  	81.169464 
568.046005  	81.125977 
569.010429  	81.007536 
569.974853  	81.001363 
570.939278  	81.030641 
571.903702  	81.255690 
572.868127  	81.407309 
573.832551  	81.146794 
574.796976  	80.947443 
575.761400  	80.460284 
576.725825  	80.728705 
577.690249  	81.111122 
578.654674  	81.253781 
579.619098  	81.221558 
580.583523  	80.874175 
581.547947  	81.107067 
582.512371  	81.442662 
583.476796  	81.142288 
584.441220  	80.847332 
585.405645  	81.019068 
586.370069  	81.291125 
587.334494  	81.259164 
588.298918  	81.224068 
589.263343  	80.918682 
590.227767  	80.940838 
591.192192  	80.749418 
592.156616  	80.465942 
593.121040  	80.875415 
594.085465  	81.101596 
595.049889  	81.102302 
596.014314  	80.993105 
596.978738  	80.680789 
597.943163  	80.707791 
598.907587  	80.823078 
599.872012  	80.499007 
600.836436  	80.696439 
601.800861  	80.886502 
602.765285  	80.626989 
603.729709  	80.400523 
604.694134  	80.445465 
605.658558  	80.544932 
606.622983  	80.500477 
607.587407  	80.486812 
608.551832  	80.498680 
609.516256  	80.485851 
610.480681  	80.300756 
611.445105  	79.966055 
612.409530  	80.041976 
613.373954  	80.366902 
614.338378  	80.268937 
615.302803  	79.811384 
616.267227  	79.564876 
617.231652  	79.835868 
618.196076  	80.015872 
619.160501  	79.835096 
620.124925  	79.563244 
621.089350  	79.607773 
622.053774  	79.686865 
623.018199  	79.718567 
623.982623  	79.385873 
624.947047  	79.248557 
625.911472  	79.091297 
626.875896  	79.186372 
627.840321  	78.993091 
628.804745  	78.798428 
629.769170  	78.230350 
630.733594  	77.574738 
631.698019  	77.528172 
632.662443  	77.942865 
633.626868  	78.245949 
634.591292  	78.655259 
635.555717  	78.698315 
636.520141  	78.987319 
637.484565  	79.090057 
638.448990  	79.070305 
639.413414  	79.067220 
640.377839  	79.118701 
641.342263  	78.991380 
642.306688  	78.801356 
643.271112  	78.805976 
644.235537  	78.795828 
645.199961  	78.602459 
646.164386  	78.558928 
647.128810  	78.678681 
648.093234  	78.612937 
649.057659  	78.419042 
650.022083  	78.304038 
650.986508  	78.226312 
651.950932  	78.206436 
652.915357  	78.098902 
653.879781  	77.983617 
654.844206  	77.920830 
655.808630  	77.829318 
656.773055  	77.648243 
657.737479  	77.727467 
658.701903  	77.658486 
659.666328  	77.447940 
660.630752  	77.371643 
661.595177  	77.216791 
662.559601  	77.091694 
663.524026  	76.882146 
664.488450  	76.845240 
665.452875  	76.878160 
666.417299  	76.777093 
667.381724  	77.006757 
668.346148  	76.972091 
669.310572  	75.871372 
670.274997  	75.571306 
671.239421  	75.554867 
672.203846  	75.485196 
673.168270  	75.352164 
674.132695  	74.948273 
675.097119  	74.581050 
676.061544  	74.201154 
677.025968  	73.957024 
677.990393  	73.789882 
678.954817  	73.526420 
679.919241  	73.316790 
680.883666  	73.252962 
681.848090  	73.305365 
682.812515  	73.287723 
683.776939  	73.034975 
684.741364  	72.843257 
685.705788  	72.531276 
686.670213  	72.412879 
687.634637  	72.164354 
688.599062  	71.753300 
689.563486  	71.475194 
690.527910  	71.166111 
691.492335  	70.696581 
692.456759  	70.163531 
693.421184  	69.626291 
694.385608  	69.215060 
695.350033  	68.747061 
696.314457  	68.058259 
697.278882  	67.095827 
698.243306  	66.223031 
699.207731  	65.350395 
700.172155  	64.524726 
701.136580  	63.588109 
702.101004  	62.813932 
703.065428  	62.232352 
704.029853  	61.571603 
704.994277  	60.885508 
705.958702  	60.295654 
706.923126  	59.491308 
707.887551  	58.672036 
708.851975  	57.905691 
709.816400  	56.961546 
710.780824  	55.973591 
711.745249  	55.018165 
712.709673  	53.967795 
713.674097  	52.787054 
714.638522  	51.504277 
715.602946  	50.271541 
716.567371  	48.957623 
717.531795  	47.668229 
718.496220  	46.317038 
719.460644  	45.114507 
720.425069  	43.953528 
721.389493  	42.910960 
722.353918  	42.066604 
723.318342  	41.621132 
724.282766  	41.744771 
725.247191  	42.746161 
726.211615  	44.431418 
727.176040  	46.734665 
728.140464  	49.180381 
729.104889  	51.685432 
730.069313  	54.248674 
731.033738  	56.876317 
731.998162  	59.575788 
732.962587  	62.415006 
733.927011  	65.266711 
734.891435  	68.007515 
735.855860  	70.753047 
736.820284  	73.559813 
737.784709  	76.123585 
738.749133  	78.340501 
739.713558  	80.194327 
740.677982  	81.714899 
741.642407  	82.820259 
742.606831  	83.665063 
743.571256  	84.215419 
744.535680  	84.474662 
745.500104  	84.687743 
746.464529  	84.773698 
747.428953  	84.727832 
748.393378  	84.726493 
749.357802  	84.576518 
750.322227  	84.419628 
751.286651  	84.257557 
752.251076  	84.210495 
753.215500  	84.084449 
754.179925  	83.829212 
755.144349  	83.639039 
756.108774  	83.544978 
757.073198  	83.377118 
758.037622  	83.225321 
759.002047  	83.065407 
759.966471  	82.932655 
760.930896  	82.774485 
761.895320  	82.563584 
762.859745  	82.442769 
763.824169  	82.410831 
764.788594  	82.172439 
765.753018  	81.884550 
766.717443  	81.629475 
767.681867  	81.472344 
768.646291  	81.258262 
769.610716  	81.035388 
770.575140  	80.824956 
771.539565  	80.717779 
772.503989  	80.450326 
773.468414  	80.199012 
774.432838  	80.116253 
775.397263  	80.091229 
776.361687  	79.850855 
777.326112  	79.659941 
778.290536  	79.562805 
779.254960  	79.421250 
780.219385  	79.042970 
781.183809  	79.013546 
782.148234  	78.536410 
783.112658  	78.095444 
784.077083  	77.837905 
785.041507  	77.570156 
786.005932  	77.270483 
786.970356  	76.862799 
787.934781  	76.334557 
788.899205  	75.977993 
789.863629  	75.724260 
790.828054  	75.365591 
791.792478  	75.006327 
792.756903  	75.010711 
793.721327  	75.393275 
794.685752  	75.990169 
795.650176  	76.762657 
796.614601  	77.537553 
797.579025  	78.130331 
798.543450  	78.327924 
799.507874  	78.344018 
800.472298  	78.370843 
801.436723  	78.363645 
802.401147  	78.252271 
803.365572  	78.089286 
804.329996  	78.070746 
805.294421  	78.052586 
806.258845  	77.895842 
807.223270  	77.778340 
808.187694  	77.791656 
809.152119  	77.780625 
810.116543  	77.650661 
811.080967  	77.559068 
812.045392  	77.584082 
813.009816  	77.517948 
813.974241  	77.397816 
814.938665  	77.370563 
815.903090  	77.302830 
816.867514  	77.221297 
817.831939  	77.208866 
818.796363  	77.144136 
819.760788  	77.041845 
820.725212  	76.904677 
821.689637  	76.716112 
822.654061  	76.557059 
823.618485  	76.455888 
824.582910  	76.229902 
825.547334  	75.874184 
826.511759  	75.655021 
827.476183  	75.534795 
828.440608  	75.356238 
829.405032  	75.044930 
830.369457  	74.736458 
831.333881  	74.510980 
832.298306  	74.268003 
833.262730  	73.979700 
834.227154  	73.704394 
835.191579  	73.414530 
836.156003  	73.011443 
837.120428  	72.622370 
838.084852  	72.182663 
839.049277  	71.880084 
840.013701  	71.592149 
840.978126  	71.187278 
841.942550  	70.823777 
842.906975  	70.497668 
843.871399  	70.098015 
844.835823  	69.615226 
845.800248  	69.357455 
846.764672  	69.436931 
847.729097  	69.707808 
848.693521  	70.056365 
849.657946  	70.575522 
850.622370  	71.191731 
851.586795  	71.720433 
852.551219  	71.996550 
853.515644  	72.306713 
854.480068  	72.636947 
855.444492  	72.796481 
856.408917  	72.986175 
857.373341  	73.238291 
858.337766  	73.369738 
859.302190  	73.434972 
860.266615  	73.428751 
861.231039  	73.394413 
862.195464  	73.180618 
863.159888  	72.816240 
864.124313  	72.429828 
865.088737  	71.917243 
866.053161  	71.129298 
867.017586  	70.045244 
867.982010  	68.784646 
868.946435  	67.168549 
869.910859  	65.164725 
870.875284  	63.160795 
871.839708  	62.010033 
872.804133  	62.574498 
873.768557  	64.668581 
874.732982  	66.928698 
875.697406  	68.709502 
876.661831  	69.983906 
877.626255  	71.028540 
878.590679  	71.983125 
879.555104  	72.799642 
880.519528  	73.415098 
881.483953  	74.000186 
882.448377  	74.601233 
883.412802  	75.119153 
884.377226  	75.560848 
885.341651  	75.852094 
886.306075  	76.004459 
887.270500  	76.139634 
888.234924  	76.281109 
889.199348  	76.309000 
890.163773  	76.253069 
891.128197  	76.271515 
892.092622  	76.244961 
893.057046  	76.093411 
894.021471  	75.936245 
894.985895  	75.880451 
895.950320  	75.756057 
896.914744  	75.653867 
897.879169  	75.668315 
898.843593  	75.733185 
899.808017  	75.762513 
900.772442  	75.775677 
901.736866  	75.821463 
902.701291  	75.977851 
903.665715  	76.181665 
904.630140  	76.321044 
905.594564  	76.369751 
906.558989  	76.495257 
907.523413  	76.689780 
908.487838  	76.787627 
909.452262  	76.874027 
910.416686  	77.008580 
911.381111  	77.091077 
912.345535  	77.051389 
913.309960  	77.031232 
914.274384  	77.062317 
915.238809  	77.049262 
916.203233  	77.020643 
917.167658  	76.940039 
918.132082  	76.845329 
919.096507  	76.810608 
920.060931  	76.741111 
921.025355  	76.629786 
921.989780  	76.577867 
922.954204  	76.533850 
923.918629  	76.389452 
924.883053  	76.245572 
925.847478  	76.213609 
926.811902  	76.128670 
927.776327  	75.954670 
928.740751  	75.797736 
929.705176  	75.745754 
930.669600  	75.658416 
931.634024  	75.519848 
932.598449  	75.411161 
933.562873  	75.287001 
934.527298  	75.163858 
935.491722  	75.010950 
936.456147  	74.845108 
937.420571  	74.721077 
938.384996  	74.598784 
939.349420  	74.442725 
940.313845  	74.263295 
941.278269  	74.123350 
942.242694  	73.954492 
943.207118  	73.764909 
944.171542  	73.628786 
945.135967  	73.519466 
946.100391  	73.330328 
947.064816  	73.069561 
948.029240  	72.864586 
948.993665  	72.724050 
949.958089  	72.570091 
950.922514  	72.344362 
951.886938  	72.166653 
952.851363  	71.958032 
953.815787  	71.685736 
954.780211  	71.446399 
955.744636  	71.287062 
956.709060  	71.103284 
957.673485  	70.812994 
958.637909  	70.509105 
959.602334  	70.251347 
960.566758  	69.998359 
961.531183  	69.721311 
962.495607  	69.412101 
963.460032  	69.166792 
964.424456  	68.962856 
965.388880  	68.687760 
966.353305  	68.443283 
967.317729  	68.320774 
968.282154  	68.196406 
969.246578  	68.139636 
970.211003  	68.212063 
971.175427  	68.387662 
972.139852  	68.673608 
973.104276  	69.030816 
974.068701  	69.500427 
975.033125  	69.976199 
975.997549  	70.371315 
976.961974  	70.704758 
977.926398  	71.015272 
978.890823  	71.280897 
979.855247  	71.440562 
980.819672  	71.515220 
981.784096  	71.558609 
982.748521  	71.590754 
983.712945  	71.509024 
984.677370  	71.288527 
985.641794  	71.113547 
986.606218  	70.941333 
987.570643  	70.741387 
988.535067  	70.606523 
989.499492  	70.535471 
990.463916  	70.454953 
991.428341  	70.326143 
992.392765  	70.134053 
993.357190  	69.929194 
994.321614  	69.757867 
995.286039  	69.592166 
996.250463  	69.408567 
997.214888  	69.166615 
998.179312  	68.907975 
999.143736  	68.576664 
1000.108161  	68.244077 
1001.072585  	67.970325 
1002.037010  	67.715426 
1003.001434  	67.389061 
1003.965859  	66.995223 
1004.930283  	66.611467 
1005.894708  	66.193732 
1006.859132  	65.696691 
1007.823557  	65.112483 
1008.787981  	64.515481 
1009.752405  	63.881245 
1010.716830  	63.100549 
1011.681254  	62.159557 
1012.645679  	61.045928 
1013.610103  	59.794265 
1014.574528  	58.501029 
1015.538952  	57.423448 
1016.503377  	56.890371 
1017.467801  	57.064801 
1018.432226  	57.882525 
1019.396650  	59.183650 
1020.361074  	60.764857 
1021.325499  	62.427157 
1022.289923  	64.099190 
1023.254348  	65.974123 
1024.218772  	68.100800 
1025.183197  	70.330904 
1026.147621  	72.293601 
1027.112046  	73.666080 
1028.076470  	74.344273 
1029.040895  	74.374553 
1030.005319  	73.944333 
1030.969743  	73.330945 
1031.934168  	72.692200 
1032.898592  	72.023064 
1033.863017  	71.346287 
1034.827441  	70.722066 
1035.791866  	70.144432 
1036.756290  	69.607972 
1037.720715  	69.119018 
1038.685139  	68.685893 
1039.649564  	68.358499 
1040.613988  	68.048053 
1041.578412  	67.712043 
1042.542837  	67.447082 
1043.507261  	67.266122 
1044.471686  	67.102698 
1045.436110  	66.943805 
1046.400535  	66.822064 
1047.364959  	66.754623 
1048.329384  	66.696906 
1049.293808  	66.615732 
1050.258233  	66.573944 
1051.222657  	66.542244 
1052.187081  	66.487193 
1053.151506  	66.381984 
1054.115930  	66.282996 
1055.080355  	66.163414 
1056.044779  	65.970187 
1057.009204  	65.749292 
1057.973628  	65.537859 
1058.938053  	65.316935 
1059.902477  	65.038121 
1060.866902  	64.687728 
1061.831326  	64.392776 
1062.795751  	64.070338 
1063.760175  	63.715583 
1064.724599  	63.374940 
1065.689024  	62.990729 
1066.653448  	62.555309 
1067.617873  	62.110703 
1068.582297  	61.643940 
1069.546722  	61.187584 
1070.511146  	60.720208 
1071.475571  	60.172373 
1072.439995  	59.569763 
1073.404420  	58.954808 
1074.368844  	58.268802 
1075.333268  	57.534858 
1076.297693  	56.802341 
1077.262117  	56.074718 
1078.226542  	55.349126 
1079.190966  	54.616187 
1080.155391  	53.855799 
1081.119815  	53.151183 
1082.084240  	52.549794 
1083.048664  	52.038425 
1084.013089  	51.593252 
1084.977513  	51.182035 
1085.941937  	50.809097 
1086.906362  	50.455418 
1087.870786  	50.168963 
1088.835211  	49.951943 
1089.799635  	49.735697 
1090.764060  	49.554269 
1091.728484  	49.428297 
1092.692909  	49.319244 
1093.657333  	49.207873 
1094.621758  	49.172905 
1095.586182  	49.265723 
1096.550606  	49.384133 
1097.515031  	49.562921 
1098.479455  	49.833916 
1099.443880  	50.195270 
1100.408304  	50.657435 
1101.372729  	51.174891 
1102.337153  	51.737326 
1103.301578  	52.349285 
1104.266002  	53.007901 
1105.230427  	53.679949 
1106.194851  	54.348528 
1107.159275  	55.019221 
1108.123700  	55.648046 
1109.088124  	56.220986 
1110.052549  	56.754737 
1111.016973  	57.168393 
1111.981398  	57.465704 
1112.945822  	57.710847 
1113.910247  	57.866196 
1114.874671  	57.906632 
1115.839096  	57.890257 
1116.803520  	57.879915 
1117.767945  	57.920806 
1118.732369  	58.090042 
1119.696793  	58.458781 
1120.661218  	58.908318 
1121.625642  	59.387710 
1122.590067  	60.022967 
1123.554491  	60.764951 
1124.518916  	61.550988 
1125.483340  	62.477044 
1126.447765  	63.500382 
1127.412189  	64.587651 
1128.376614  	65.758614 
1129.341038  	66.955453 
1130.305462  	68.173719 
1131.269887  	69.476315 
1132.234311  	70.742514 
1133.198736  	71.910754 
1134.163160  	73.077017 
1135.127585  	74.205238 
1136.092009  	75.256542 
1137.056434  	76.246283 
1138.020858  	77.214966 
1138.985283  	78.116139 
1139.949707  	78.894535 
1140.914131  	79.587311 
1141.878556  	80.259618 
1142.842980  	80.862912 
1143.807405  	81.427001 
1144.771829  	81.981203 
1145.736254  	82.485598 
1146.700678  	82.904086 
1147.665103  	83.238534 
1148.629527  	83.568173 
1149.593952  	83.920667 
1150.558376  	84.226421 
1151.522800  	84.432446 
1152.487225  	84.610455 
1153.451649  	84.781861 
1154.416074  	84.934388 
1155.380498  	85.016507 
1156.344923  	85.076716 
1157.309347  	85.156038 
1158.273772  	85.176671 
1159.238196  	85.090586 
1160.202621  	85.072882 
1161.167045  	85.027201 
1162.131469  	84.889529 
1163.095894  	84.738750 
1164.060318  	84.569918 
1165.024743  	84.310705 
1165.989167  	83.975104 
1166.953592  	83.576749 
1167.918016  	83.121397 
1168.882441  	82.598134 
1169.846865  	81.992446 
1170.811290  	81.414577 
1171.775714  	80.951411 
1172.740138  	80.593802 
1173.704563  	80.224851 
1174.668987  	79.901745 
1175.633412  	79.796779 
1176.597836  	79.738554 
1177.562261  	79.633977 
1178.526685  	79.543060 
1179.491110  	79.492087 
1180.455534  	79.412328 
1181.419959  	79.335011 
1182.384383  	79.190462 
1183.348808  	78.968097 
1184.313232  	78.745823 
1185.277656  	78.441028 
1186.242081  	78.044559 
1187.206505  	77.632772 
1188.170930  	77.213440 
1189.135354  	76.734335 
1190.099779  	76.225699 
1191.064203  	75.719235 
1192.028628  	75.183046 
1192.993052  	74.553787 
1193.957477  	73.931440 
1194.921901  	73.327025 
1195.886325  	72.722615 
1196.850750  	72.092848 
1197.815174  	71.493318 
1198.779599  	70.950959 
1199.744023  	70.415865 
1200.708448  	69.851194 
1201.672872  	69.310671 
1202.637297  	68.826524 
1203.601721  	68.369690 
1204.566146  	67.914884 
1205.530570  	67.451341 
1206.494994  	67.001643 
1207.459419  	66.595095 
1208.423843  	66.197651 
1209.388268  	65.767093 
1210.352692  	65.340800 
1211.317117  	64.910912 
1212.281541  	64.415044 
1213.245966  	63.936010 
1214.210390  	63.456330 
1215.174815  	62.908674 
1216.139239  	62.305079 
1217.103663  	61.694458 
1218.068088  	61.074626 
1219.032512  	60.455681 
1219.996937  	59.853315 
1220.961361  	59.290512 
1221.925786  	58.797514 
1222.890210  	58.357086 
1223.854635  	57.908975 
1224.819059  	57.422767 
1225.783484  	56.994050 
1226.747908  	56.583321 
1227.712332  	56.072583 
1228.676757  	55.467646 
1229.641181  	54.817616 
1230.605606  	54.109875 
1231.570030  	53.345691 
1232.534455  	52.573386 
1233.498879  	51.813729 
1234.463304  	51.091933 
1235.427728  	50.406160 
1236.392153  	49.824575 
1237.356577  	49.366321 
1238.321002  	49.042273 
1239.285426  	48.826370 
1240.249850  	48.747345 
1241.214275  	48.800903 
1242.178699  	48.952883 
1243.143124  	49.212198 
1244.107548  	49.581202 
1245.071973  	50.074144 
1246.036397  	50.631598 
1247.000822  	51.204526 
1247.965246  	51.829243 
1248.929671  	52.468542 
1249.894095  	53.124984 
1250.858519  	53.757631 
1251.822944  	54.383546 
1252.787368  	55.003267 
1253.751793  	55.553336 
1254.716217  	56.012713 
1255.680642  	56.469539 
1256.645066  	56.904490 
1257.609491  	57.255015 
1258.573915  	57.555722 
1259.538340  	57.866421 
1260.502764  	58.238358 
1261.467188  	58.784103 
1262.431613  	59.359856 
1263.396037  	59.967004 
1264.360462  	60.629613 
1265.324886  	61.340326 
1266.289311  	62.075361 
1267.253735  	62.878368 
1268.218160  	63.689949 
1269.182584  	64.498193 
1270.147009  	65.316584 
1271.111433  	66.147299 
1272.075857  	66.893192 
1273.040282  	67.724575 
1274.004706  	68.469949 
1274.969131  	69.112857 
1275.933555  	69.707868 
1276.897980  	70.290589 
1277.862404  	70.848614 
1278.826829  	71.357379 
1279.791253  	71.790375 
1280.755678  	72.247534 
1281.720102  	72.753318 
1282.684526  	73.236552 
1283.648951  	73.665077 
1284.613375  	74.080928 
1285.577800  	74.533764 
1286.542224  	74.925041 
1287.506649  	75.205101 
1288.471073  	75.637150 
1289.435498  	76.270263 
1290.399922  	76.807388 
1291.364347  	77.360301 
1292.328771  	77.980565 
1293.293195  	78.581444 
1294.257620  	79.194331 
1295.222044  	79.762171 
1296.186469  	80.270959 
1297.150893  	80.883638 
1298.115318  	81.650516 
1299.079742  	82.271402 
1300.044167  	82.858645 
1301.008591  	83.435291 
1301.973016  	83.957125 
1302.937440  	84.369187 
1303.901865  	84.752831 
1304.866289  	85.141253 
1305.830713  	85.455513 
1306.795138  	85.705101 
1307.759562  	85.907329 
1308.723987  	86.187042 
1309.688411  	86.631268 
1310.652836  	86.922714 
1311.617260  	87.018451 
1312.581685  	86.832962 
1313.546109  	87.078613 
1314.510534  	87.420808 
1315.474958  	87.750510 
1316.439382  	87.808890 
1317.403807  	87.787157 
1318.368231  	87.866320 
1319.332656  	87.829200 
1320.297080  	88.240416 
1321.261505  	88.565115 
1322.225929  	88.772854 
1323.190354  	88.770879 
1324.154778  	88.771666 
1325.119203  	88.752943 
1326.083627  	88.612380 
1327.048051  	88.352119 
1328.012476  	87.937449 
1328.976900  	87.278200 
1329.941325  	86.334383 
1330.905749  	85.231833 
1331.870174  	83.818564 
1332.834598  	82.061004 
1333.799023  	80.151660 
1334.763447  	78.285671 
1335.727872  	76.461267 
1336.692296  	74.717892 
1337.656720  	73.802635 
1338.621145  	72.978156 
1339.585569  	72.595114 
1340.549994  	73.738838 
1341.514418  	76.237062 
1342.478843  	78.373983 
1343.443267  	80.125854 
1344.407692  	81.849201 
1345.372116  	83.486578 
1346.336541  	84.919006 
1347.300965  	86.110207 
1348.265389  	87.010191 
1349.229814  	87.629191 
1350.194238  	88.328376 
1351.158663  	88.944013 
1352.123087  	89.338294 
1353.087512  	89.672170 
1354.051936  	89.730808 
1355.016361  	89.604260 
1355.980785  	89.954471 
1356.945210  	90.137514 
1357.909634  	89.999740 
1358.874059  	90.026226 
1359.838483  	90.007038 
1360.802907  	89.235882 
1361.767332  	88.578714 
1362.731756  	87.569747 
1363.696181  	87.416906 
1364.660605  	88.664017 
1365.625030  	88.795759 
1366.589454  	88.559318 
1367.553879  	88.085114 
1368.518303  	87.339921 
1369.482728  	87.253691 
1370.447152  	87.686378 
1371.411576  	87.683673 
1372.376001  	87.497404 
1373.340425  	86.729280 
1374.304850  	86.133490 
1375.269274  	86.662982 
1376.233699  	87.614708 
1377.198123  	87.799512 
1378.162548  	87.505655 
1379.126972  	87.555547 
1380.091397  	87.709064 
1381.055821  	87.876867 
1382.020245  	87.858559 
1382.984670  	87.803368 
1383.949094  	87.779351 
1384.913519  	87.704770 
1385.877943  	87.207257 
1386.842368  	86.091137 
1387.806792  	85.825391 
1388.771217  	86.984398 
1389.735641  	87.504049 
1390.700066  	87.432451 
1391.664490  	87.426976 
1392.628914  	87.405493 
1393.593339  	86.759403 
1394.557763  	85.265935 
1395.522188  	84.863254 
1396.486612  	85.466984 
1397.451037  	85.230241 
1398.415461  	84.233132 
1399.379886  	83.554282 
1400.344310  	83.835388 
1401.308735  	83.773111 
1402.273159  	82.934469 
1403.237583  	81.877805 
1404.202008  	80.236985 
1405.166432  	78.224456 
1406.130857  	77.547371 
1407.095281  	77.154362 
1408.059706  	76.465889 
1409.024130  	76.195042 
1409.988555  	76.307550 
1410.952979  	77.088475 
1411.917404  	78.317899 
1412.881828  	80.343895 
1413.846252  	82.298765 
1414.810677  	83.991733 
1415.775101  	85.060683 
1416.739526  	85.659106 
1417.703950  	86.113992 
1418.668375  	86.252578 
1419.632799  	86.424930 
1420.597224  	88.900906 
1421.561648  	89.972412 
1422.526073  	90.249818 
1423.490497  	89.387953 
1424.454922  	89.110979 
1425.419346  	90.424855 
1426.383770  	90.928956 
1427.348195  	90.890399 
1428.312619  	90.594670 
1429.277044  	90.033300 
1430.241468  	89.551023 
1431.205893  	90.035484 
1432.170317  	90.004401 
1433.134742  	89.594941 
1434.099166  	89.672868 
1435.063591  	89.389331 
1436.028015  	87.897873 
1436.992439  	86.759691 
1437.956864  	88.388201 
1438.921288  	89.168715 
1439.885713  	89.229617 
1440.850137  	89.175519 
1441.814562  	89.107318 
1442.778986  	89.083837 
1443.743411  	88.988117 
1444.707835  	88.873065 
1445.672260  	88.698364 
1446.636684  	88.427053 
1447.601108  	87.461701 
1448.565533  	87.246517 
1449.529957  	88.113443 
1450.494382  	88.261201 
1451.458806  	87.714730 
1452.423231  	87.237080 
1453.387655  	87.664576 
1454.352080  	87.257104 
1455.316504  	85.997168 
1456.280929  	85.020239 
1457.245353  	84.273189 
1458.209777  	84.521400 
1459.174202  	85.589215 
1460.138626  	87.279678 
1461.103051  	88.264045 
1462.067475  	88.508987 
1463.031900  	88.574595 
1463.996324  	88.176257 
1464.960749  	87.182597 
1465.925173  	87.722227 
1466.889598  	88.315878 
1467.854022  	88.240512 
1468.818446  	88.079883 
1469.782871  	87.655840 
1470.747295  	86.821489 
1471.711720  	85.023404 
1472.676144  	83.996430 
1473.640569  	84.930618 
1474.604993  	86.846876 
1475.569418  	87.252720 
1476.533842  	86.939372 
1477.498267  	88.507065 
1478.462691  	89.497052 
1479.427116  	89.772003 
1480.391540  	89.686450 
1481.355964  	89.278492 
1482.320389  	89.979929 
1483.284813  	90.675044 
1484.249238  	90.924796 
1485.213662  	90.828820 
1486.178087  	90.307929 
1487.142511  	89.691996 
1488.106936  	89.810545 
1489.071360  	88.865322 
1490.035785  	87.361156 
1491.000209  	88.796947 
1491.964633  	90.740144 
1492.929058  	91.514099 
1493.893482  	91.541106 
1494.857907  	91.136307 
1495.822331  	89.943501 
1496.786756  	89.106366 
1497.751180  	89.626508 
1498.715605  	88.887324 
1499.680029  	88.559730 
1500.644454  	88.537015 
1501.608878  	87.404938 
1502.573302  	86.436796 
1503.537727  	85.762769 
1504.502151  	84.552947 
1505.466576  	82.558904 
1506.431000  	79.277620 
1507.395425  	79.206644 
1508.359849  	82.281668 
1509.324274  	84.665776 
1510.288698  	86.565466 
1511.253123  	88.323251 
1512.217547  	88.481052 
1513.181971  	89.432757 
1514.146396  	90.039320 
1515.110820  	89.073547 
1516.075245  	87.954246 
1517.039669  	86.584207 
1518.004094  	88.443817 
1518.968518  	89.933680 
1519.932943  	88.964732 
1520.897367  	86.326778 
1521.861792  	86.605709 
1522.826216  	88.072483 
1523.790640  	89.253467 
1524.755065  	88.848317 
1525.719489  	88.279939 
1526.683914  	88.891569 
1527.648338  	88.540737 
1528.612763  	89.011366 
1529.577187  	90.229738 
1530.541612  	90.636997 
1531.506036  	89.738310 
1532.470461  	89.121544 
1533.434885  	88.153567 
1534.399309  	88.457373 
1535.363734  	89.505520 
1536.328158  	90.104742 
1537.292583  	90.275210 
1538.257007  	89.185667 
1539.221432  	86.406080 
1540.185856  	85.925396 
1541.150281  	87.311392 
1542.114705  	87.351281 
1543.079130  	87.331227 
1544.043554  	87.413644 
1545.007979  	86.996331 
1545.972403  	88.243127 
1546.936827  	89.911031 
1547.901252  	90.236619 
1548.865676  	89.634245 
1549.830101  	87.626704 
1550.794525  	88.115179 
1551.758950  	89.787072 
1552.723374  	89.884444 
1553.687799  	88.958144 
1554.652223  	87.866264 
1555.616648  	88.928354 
1556.581072  	89.174834 
1557.545496  	87.849132 
1558.509921  	83.732775 
1559.474345  	83.214728 
1560.438770  	86.169219 
1561.403194  	88.784470 
1562.367619  	89.714589 
1563.332043  	89.954755 
1564.296468  	89.535079 
1565.260892  	89.124266 
1566.225317  	89.712653 
1567.189741  	89.905339 
1568.154165  	89.419375 
1569.118590  	87.929407 
1570.083014  	87.461976 
1571.047439  	88.850699 
1572.011863  	89.192525 
1572.976288  	89.004364 
1573.940712  	88.740799 
1574.905137  	88.185288 
1575.869561  	86.908142 
1576.833986  	85.994040 
1577.798410  	86.953671 
1578.762834  	87.732463 
1579.727259  	88.155307 
1580.691683  	88.515239 
1581.656108  	88.841171 
1582.620532  	89.142900 
1583.584957  	89.427014 
1584.549381  	89.745333 
1585.513806  	89.975410 
1586.478230  	90.161969 
1587.442655  	90.290959 
1588.407079  	90.362609 
1589.371503  	90.230224 
1590.335928  	90.151156 
1591.300352  	90.237476 
1592.264777  	90.292553 
1593.229201  	90.306085 
1594.193626  	89.992858 
1595.158050  	89.898711 
1596.122475  	90.029154 
1597.086899  	90.088580 
1598.051324  	90.180121 
1599.015748  	90.118775 
1599.980173  	90.074161 
1600.944597  	89.804891 
1601.909021  	89.611677 
1602.873446  	89.362878 
1603.837870  	89.335653 
1604.802295  	89.501443 
1605.766719  	89.394147 
1606.731144  	88.947869 
1607.695568  	88.706306 
1608.659993  	88.690595 
1609.624417  	88.319779 
1610.588842  	88.544271 
1611.553266  	88.728185 
1612.517690  	88.648795 
1613.482115  	88.602715 
1614.446539  	88.515109 
1615.410964  	88.150779 
1616.375388  	87.205626 
1617.339813  	87.060157 
1618.304237  	88.146618 
1619.268662  	88.607778 
1620.233086  	88.689333 
1621.197511  	88.692328 
1622.161935  	88.316810 
1623.126359  	87.304435 
1624.090784  	87.352640 
1625.055208  	88.326130 
1626.019633  	88.558637 
1626.984057  	88.280507 
1627.948482  	87.698783 
1628.912906  	88.114234 
1629.877331  	88.488952 
1630.841755  	88.495953 
1631.806180  	88.418664 
1632.770604  	88.340982 
1633.735028  	88.022966 
1634.699453  	87.066011 
1635.663877  	85.167903 
1636.628302  	85.997576 
1637.592726  	86.287400 
1638.557151  	87.080769 
1639.521575  	87.583312 
1640.486000  	87.540329 
1641.450424  	87.535090 
1642.414849  	87.419733 
1643.379273  	87.439257 
1644.343697  	87.345030 
1645.308122  	86.503295 
1646.272546  	84.821636 
1647.236971  	84.079725 
1648.201395  	84.535431 
1649.165820  	86.018823 
1650.130244  	86.610762 
1651.094669  	86.297582 
1652.059093  	85.226027 
1653.023518  	81.889740 
1653.987942  	81.316150 
1654.952366  	83.835512 
1655.916791  	85.379428 
1656.881215  	85.725288 
1657.845640  	85.871236 
1658.810064  	85.950457 
1659.774489  	85.849159 
1660.738913  	85.350371 
1661.703338  	84.648442 
1662.667762  	83.772593 
1663.632187  	83.964222 
1664.596611  	84.363508 
1665.561036  	84.276542 
1666.525460  	84.066522 
1667.489884  	83.406724 
1668.454309  	81.853386 
1669.418733  	80.796306 
1670.383158  	81.480489 
1671.347582  	81.124904 
1672.312007  	81.151485 
1673.276431  	81.501395 
1674.240856  	80.973733 
1675.205280  	79.546956 
1676.169705  	79.520254 
1677.134129  	80.088723 
1678.098553  	79.871735 
1679.062978  	79.073293 
1680.027402  	77.409347 
1680.991827  	77.148229 
1681.956251  	77.562740 
1682.920676  	76.325326 
1683.885100  	72.764978 
1684.849525  	72.575339 
1685.813949  	75.590391 
1686.778374  	76.148149 
1687.742798  	75.420683 
1688.707222  	74.563708 
1689.671647  	74.347343 
1690.636071  	73.968381 
1691.600496  	73.835964 
1692.564920  	73.237505 
1693.529345  	72.267039 
1694.493769  	71.012029 
1695.458194  	69.032982 
1696.422618  	66.859729 
1697.387043  	66.680718 
1698.351467  	66.014463 
1699.315891  	64.634353 
1700.280316  	61.226295 
1701.244740  	60.422383 
1702.209165  	60.658624 
1703.173589  	59.811710 
1704.138014  	58.134843 
1705.102438  	56.405691 
1706.066863  	55.192159 
1707.031287  	53.760569 
1707.995712  	53.191402 
1708.960136  	52.488439 
1709.924560  	51.275207 
1710.888985  	50.398765 
1711.853409  	50.083570 
1712.817834  	49.511843 
1713.782258  	48.793873 
1714.746683  	48.178418 
1715.711107  	48.573773 
1716.675532  	49.110018 
1717.639956  	48.889400 
1718.604381  	50.154059 
1719.568805  	52.682448 
1720.533230  	54.262179 
1721.497654  	55.483657 
1722.462078  	56.594328 
1723.426503  	57.514599 
1724.390927  	58.977536 
1725.355352  	60.498449 
1726.319776  	61.787428 
1727.284201  	63.074123 
1728.248625  	64.361835 
1729.213050  	65.021749 
1730.177474  	65.503863 
1731.141899  	67.639468 
1732.106323  	68.998457 
1733.070747  	68.986215 
1734.035172  	68.501809 
1734.999596  	72.055753 
1735.964021  	74.979454 
1736.928445  	76.452338 
1737.892870  	77.741803 
1738.857294  	78.723924 
1739.821719  	79.457216 
1740.786143  	81.684853 
1741.750568  	83.282061 
1742.714992  	83.578398 
1743.679416  	83.858384 
1744.643841  	85.680056 
1745.608265  	87.055205 
1746.572690  	87.529609 
1747.537114  	87.730923 
1748.501539  	87.902071 
1749.465963  	88.583616 
1750.430388  	89.216807 
1751.394812  	88.711522 
1752.359237  	90.263770 
1753.323661  	91.707960 
1754.288085  	92.361084 
1755.252510  	92.523729 
1756.216934  	91.895819 
1757.181359  	91.272519 
1758.145783  	92.012471 
1759.110208  	92.564879 
1760.074632  	92.871012 
1761.039057  	92.309539 
1762.003481  	91.307107 
1762.967906  	92.350949 
1763.932330  	93.149186 
1764.896754  	93.335045 
1765.861179  	93.386482 
1766.825603  	93.217211 
1767.790028  	92.209575 
1768.754452  	91.892194 
1769.718877  	92.952504 
1770.683301  	92.680035 
1771.647726  	91.499442 
1772.612150  	91.021897 
1773.576575  	92.165130 
1774.540999  	92.886830 
1775.505423  	92.506124 
1776.469848  	92.795826 
1777.434272  	93.497178 
1778.398697  	93.320298 
1779.363121  	92.981455 
1780.327546  	92.519200 
1781.291970  	92.413165 
1782.256395  	93.154777 
1783.220819  	93.480862 
1784.185244  	93.124990 
1785.149668  	92.549656 
1786.114093  	93.137411 
1787.078517  	93.558474 
1788.042941  	93.535002 
1789.007366  	93.457322 
1789.971790  	93.084017 
1790.936215  	92.021801 
1791.900639  	91.525356 
1792.865064  	91.476476 
1793.829488  	92.531001 
1794.793913  	93.009539 
1795.758337  	92.313037 
1796.722762  	92.321590 
1797.687186  	93.127474 
1798.651610  	93.153610 
1799.616035  	92.526831 
1800.580459  	92.482170 
1801.544884  	92.244032 
1802.509308  	92.009615 
1803.473733  	92.846214 
1804.438157  	93.394857 
1805.402582  	93.369637 
1806.367006  	93.290291 
1807.331431  	92.960580 
1808.295855  	92.834884 
1809.260279  	93.201584 
1810.224704  	92.756222 
1811.189128  	92.313895 
1812.153553  	92.644671 
1813.117977  	92.969920 
1814.082402  	93.328837 
1815.046826  	93.385036 
1816.011251  	93.379811 
1816.975675  	93.086761 
1817.940100  	92.887166 
1818.904524  	93.191748 
1819.868948  	93.294069 
1820.833373  	93.227838 
1821.797797  	93.143466 
1822.762222  	92.898586 
1823.726646  	92.902527 
1824.691071  	92.307593 
1825.655495  	91.587677 
1826.619920  	92.728416 
1827.584344  	93.174401 
1828.548769  	92.677347 
1829.513193  	91.486667 
1830.477617  	91.576984 
1831.442042  	92.814844 
1832.406466  	93.145637 
1833.370891  	92.942391 
1834.335315  	93.195543 
1835.299740  	93.417497 
1836.264164  	93.255054 
1837.228589  	92.760563 
1838.193013  	92.962530 
1839.157438  	93.324816 
1840.121862  	93.449513 
1841.086287  	93.437429 
1842.050711  	93.056323 
1843.015135  	92.714036 
1843.979560  	92.007170 
1844.943984  	91.785939 
1845.908409  	92.690246 
1846.872833  	92.987891 
1847.837258  	92.492211 
1848.801682  	92.803661 
1849.766107  	93.470823 
1850.730531  	93.748601 
1851.694956  	93.781129 
1852.659380  	93.708259 
1853.623804  	93.732453 
1854.588229  	93.723514 
1855.552653  	93.746545 
1856.517078  	93.747740 
1857.481502  	93.787227 
1858.445927  	93.617770 
1859.410351  	93.531381 
1860.374776  	93.644513 
1861.339200  	93.550290 
1862.303625  	93.583254 
1863.268049  	93.759319 
1864.232473  	93.769076 
1865.196898  	93.739133 
1866.161322  	93.340966 
1867.125747  	92.925391 
1868.090171  	92.331619 
1869.054596  	91.784464 
1870.019020  	92.258914 
1870.983445  	93.094581 
1871.947869  	93.691557 
1872.912294  	93.982538 
1873.876718  	93.989951 
1874.841142  	93.909890 
1875.805567  	93.866474 
1876.769991  	93.842137 
1877.734416  	93.802916 
1878.698840  	93.741039 
1879.663265  	93.646544 
1880.627689  	93.745023 
1881.592114  	93.817853 
1882.556538  	93.807147 
1883.520963  	93.854629 
1884.485387  	93.661506 
1885.449811  	93.507153 
1886.414236  	93.762178 
1887.378660  	93.792703 
1888.343085  	93.531745 
1889.307509  	92.699253 
1890.271934  	92.685078 
1891.236358  	93.478863 
1892.200783  	93.741954 
1893.165207  	93.724994 
1894.129632  	93.539977 
1895.094056  	93.025865 
1896.058480  	93.164286 
1897.022905  	93.697340 
1897.987329  	93.695546 
1898.951754  	93.613356 
1899.916178  	93.673343 
1900.880603  	93.690279 
1901.845027  	93.557609 
1902.809452  	93.637452 
1903.773876  	93.648318 
1904.738301  	93.546539 
1905.702725  	93.549887 
1906.667150  	93.589733 
1907.631574  	93.290996 
1908.595998  	93.159392 
1909.560423  	93.096803 
1910.524847  	92.980663 
1911.489272  	93.399021 
1912.453696  	93.521528 
1913.418121  	93.509113 
1914.382545  	93.409657 
1915.346970  	93.438069 
1916.311394  	93.484410 
1917.275819  	93.102520 
1918.240243  	92.286543 
1919.204667  	92.887526 
1920.169092  	93.369384 
1921.133516  	93.227806 
1922.097941  	92.598762 
1923.062365  	91.923452 
1924.026790  	92.791972 
1924.991214  	93.462430 
1925.955639  	93.372801 
1926.920063  	93.429617 
1927.884488  	93.443130 
1928.848912  	93.548429 
1929.813336  	93.560963 
1930.777761  	93.460944 
1931.742185  	93.216365 
1932.706610  	93.169358 
1933.671034  	93.345455 
1934.635459  	93.460016 
1935.599883  	93.447008 
1936.564308  	93.557883 
1937.528732  	93.456248 
1938.493157  	93.431273 
1939.457581  	93.545912 
1940.422005  	93.340654 
1941.386430  	92.938664 
1942.350854  	91.978285 
1943.315279  	91.975664 
1944.279703  	92.847759 
1945.244128  	92.827408 
1946.208552  	92.735028 
1947.172977  	92.891270 
1948.137401  	93.094989 
1949.101826  	93.094016 
1950.066250  	93.192582 
1951.030674  	93.098748 
1951.995099  	93.053677 
1952.959523  	93.061524 
1953.923948  	92.868913 
1954.888372  	92.601901 
1955.852797  	92.805715 
1956.817221  	93.148595 
1957.781646  	93.104948 
1958.746070  	92.974181 
1959.710495  	93.191729 
1960.674919  	93.164458 
1961.639344  	93.208958 
1962.603768  	93.013722 
1963.568192  	93.136708 
1964.532617  	93.554514 
1965.497041  	93.612312 
1966.461466  	93.158567 
1967.425890  	92.741295 
1968.390315  	93.175360 
1969.354739  	93.455737 
1970.319164  	93.329939 
1971.283588  	93.569206 
1972.248013  	93.645843 
1973.212437  	93.500564 
1974.176861  	93.521355 
1975.141286  	93.424746 
1976.105710  	93.422648 
1977.070135  	94.030101 
1978.034559  	94.105602 
1978.998984  	93.403112 
1979.963408  	93.018341 
1980.927833  	93.014056 
1981.892257  	93.049641 
1982.856682  	93.226742 
1983.821106  	93.213727 
1984.785530  	93.260835 
1985.749955  	93.221441 
1986.714379  	93.282399 
1987.678804  	93.033317 
1988.643228  	92.641774 
1989.607653  	93.115387 
1990.572077  	93.364448 
1991.536502  	92.754988 
1992.500926  	92.310835 
1993.465351  	92.772559 
1994.429775  	93.224740 
1995.394199  	93.265703 
1996.358624  	93.181943 
1997.323048  	93.269254 
1998.287473  	93.325835 
1999.251897  	93.639475 
2000.216322  	94.060990 
2001.180746  	94.158352 
2002.145171  	93.976433 
2003.109595  	93.934825 
2004.074020  	94.103164 
2005.038444  	94.239523 
2006.002868  	94.229704 
2006.967293  	94.060373 
2007.931717  	93.607174 
2008.896142  	93.304774 
2009.860566  	93.830506 
2010.824991  	94.033341 
2011.789415  	93.981294 
2012.753840  	94.068018 
2013.718264  	93.911394 
2014.682689  	93.887873 
2015.647113  	94.105297 
2016.611537  	93.477654 
2017.575962  	93.159613 
2018.540386  	93.562634 
2019.504811  	93.877812 
2020.469235  	93.876760 
2021.433660  	94.054436 
2022.398084  	94.060129 
2023.362509  	93.998801 
2024.326933  	94.206755 
2025.291358  	94.085909 
2026.255782  	93.815646 
2027.220207  	93.657317 
2028.184631  	93.881667 
2029.149055  	94.554554 
2030.113480  	94.580550 
2031.077904  	94.280788 
2032.042329  	93.780518 
2033.006753  	93.309325 
2033.971178  	93.501340 
2034.935602  	94.132615 
2035.900027  	94.341311 
2036.864451  	94.046435 
2037.828876  	93.702198 
2038.793300  	93.576443 
2039.757724  	93.478643 
2040.722149  	93.478322 
2041.686573  	93.441913 
2042.650998  	93.459446 
2043.615422  	93.465773 
2044.579847  	93.621646 
2045.544271  	93.877499 
2046.508696  	93.838024 
2047.473120  	93.580957 
2048.437545  	93.621085 
2049.401969  	93.604712 
2050.366393  	93.255739 
2051.330818  	93.096900 
2052.295242  	93.353069 
2053.259667  	93.480008 
2054.224091  	93.283116 
2055.188516  	93.095005 
2056.152940  	93.111669 
2057.117365  	93.091652 
2058.081789  	93.286118 
2059.046214  	93.337299 
2060.010638  	93.168780 
2060.975062  	92.953171 
2061.939487  	93.025671 
2062.903911  	93.116943 
2063.868336  	93.009418 
2064.832760  	92.667821 
2065.797185  	92.768141 
2066.761609  	93.067170 
2067.726034  	93.135401 
2068.690458  	93.096457 
2069.654883  	93.117458 
2070.619307  	93.067479 
2071.583731  	93.025282 
2072.548156  	92.940226 
2073.512580  	92.836035 
2074.477005  	92.862156 
2075.441429  	93.035249 
2076.405854  	92.981808 
2077.370278  	92.822760 
2078.334703  	92.891187 
2079.299127  	92.886168 
2080.263552  	92.756218 
2081.227976  	92.803622 
2082.192401  	92.782091 
2083.156825  	92.692646 
2084.121249  	92.685874 
2085.085674  	92.845699 
2086.050098  	92.789975 
2087.014523  	92.671139 
2087.978947  	92.800194 
2088.943372  	92.847079 
2089.907796  	92.585285 
2090.872221  	92.668533 
2091.836645  	93.040808 
2092.801070  	93.082457 
2093.765494  	93.034864 
2094.729918  	92.910784 
2095.694343  	92.756632 
2096.658767  	92.674442 
2097.623192  	92.611564 
2098.587616  	92.565015 
2099.552041  	92.609552 
2100.516465  	92.732912 
2101.480890  	92.827372 
2102.445314  	92.705339 
2103.409739  	92.612451 
2104.374163  	92.722353 
2105.338587  	92.746757 
2106.303012  	92.633969 
2107.267436  	92.541714 
2108.231861  	92.604255 
2109.196285  	92.706922 
2110.160710  	92.794545 
2111.125134  	92.785356 
2112.089559  	92.650259 
2113.053983  	92.599490 
2114.018408  	92.692863 
2114.982832  	92.724414 
2115.947256  	92.725175 
2116.911681  	92.723168 
2117.876105  	92.812651 
2118.840530  	92.796551 
2119.804954  	92.772463 
2120.769379  	92.937927 
2121.733803  	92.986930 
2122.698228  	92.971938 
2123.662652  	92.952683 
2124.627077  	92.889847 
2125.591501  	92.964059 
2126.555925  	93.159307 
2127.520350  	93.163000 
2128.484774  	93.274736 
2129.449199  	93.395954 
2130.413623  	93.265237 
2131.378048  	93.253471 
2132.342472  	93.425891 
2133.306897  	93.457310 
2134.271321  	93.327248 
2135.235746  	93.156133 
2136.200170  	93.007504 
2137.164594  	93.163079 
2138.129019  	93.331089 
2139.093443  	93.394198 
2140.057868  	93.477633 
2141.022292  	93.526934 
2141.986717  	93.446228 
2142.951141  	93.532412 
2143.915566  	93.757590 
2144.879990  	93.727066 
2145.844415  	93.624910 
2146.808839  	93.669250 
2147.773264  	93.620780 
2148.737688  	93.730950 
2149.702112  	93.985952 
2150.666537  	94.057898 
2151.630961  	93.944591 
2152.595386  	93.994711 
2153.559810  	93.945122 
2154.524235  	94.156559 
2155.488659  	94.640277 
2156.453084  	94.779222 
2157.417508  	94.587964 
2158.381933  	94.473503 
2159.346357  	93.977616 
2160.310781  	93.455537 
2161.275206  	92.961065 
2162.239630  	93.147565 
2163.204055  	93.404697 
2164.168479  	93.519580 
2165.132904  	93.213562 
2166.097328  	93.210052 
2167.061753  	93.481805 
2168.026177  	93.551400 
2168.990602  	93.183661 
2169.955026  	93.319723 
2170.919450  	93.809709 
2171.883875  	93.802243 
2172.848299  	93.697400 
2173.812724  	93.687622 
2174.777148  	93.681023 
2175.741573  	93.445868 
2176.705997  	93.159660 
2177.670422  	93.229167 
2178.634846  	93.421524 
2179.599271  	93.530208 
2180.563695  	93.598618 
2181.528119  	93.733800 
2182.492544  	93.384360 
2183.456968  	92.969340 
2184.421393  	92.912806 
2185.385817  	93.315795 
2186.350242  	93.541573 
2187.314666  	93.350681 
2188.279091  	93.234965 
2189.243515  	93.226564 
2190.207940  	93.228619 
2191.172364  	93.359450 
2192.136788  	93.435827 
2193.101213  	93.429490 
2194.065637  	93.234771 
2195.030062  	93.073545 
2195.994486  	92.929110 
2196.958911  	93.079292 
2197.923335  	93.124278 
2198.887760  	93.120997 
2199.852184  	93.220468 
2200.816609  	93.287573 
2201.781033  	93.254479 
2202.745458  	93.281630 
2203.709882  	93.203952 
2204.674306  	93.094141 
2205.638731  	93.064889 
2206.603155  	92.996252 
2207.567580  	92.897164 
2208.532004  	93.012104 
2209.496429  	93.134714 
2210.460853  	93.028592 
2211.425278  	93.028631 
2212.389702  	93.118657 
2213.354127  	92.931704 
2214.318551  	92.842954 
2215.282975  	92.911351 
2216.247400  	93.069960 
2217.211824  	93.078653 
2218.176249  	93.049935 
2219.140673  	93.160218 
2220.105098  	93.056588 
2221.069522  	92.864219 
2222.033947  	92.928146 
2222.998371  	92.993069 
2223.962796  	93.089124 
2224.927220  	93.034641 
2225.891644  	92.776500 
2226.856069  	92.684100 
2227.820493  	92.781535 
2228.784918  	92.894969 
2229.749342  	92.849845 
2230.713767  	92.975775 
2231.678191  	92.896715 
2232.642616  	92.751143 
2233.607040  	93.044279 
2234.571465  	93.093811 
2235.535889  	92.782920 
2236.500313  	92.667581 
2237.464738  	92.633118 
2238.429162  	92.593251 
2239.393587  	92.643479 
2240.358011  	92.691986 
2241.322436  	92.789407 
2242.286860  	92.647550 
2243.251285  	92.504879 
2244.215709  	92.564787 
2245.180134  	92.572811 
2246.144558  	92.536203 
2247.108982  	92.680435 
2248.073407  	92.792076 
2249.037831  	92.668594 
2250.002256  	92.542747 
2250.966680  	92.614762 
2251.931105  	92.625278 
2252.895529  	92.603826 
2253.859954  	92.668792 
2254.824378  	92.655698 
2255.788803  	92.603814 
2256.753227  	92.605242 
2257.717651  	92.562562 
2258.682076  	92.422727 
2259.646500  	92.441955 
2260.610925  	92.456904 
2261.575349  	92.381081 
2262.539774  	92.398879 
2263.504198  	92.424363 
2264.468623  	92.428339 
2265.433047  	92.473096 
2266.397472  	92.507028 
2267.361896  	92.458029 
2268.326321  	92.505064 
2269.290745  	92.491702 
2270.255169  	92.439275 
2271.219594  	92.413714 
2272.184018  	92.351808 
2273.148443  	92.317767 
2274.112867  	92.320885 
2275.077292  	92.341670 
2276.041716  	92.299808 
2277.006141  	92.363841 
2277.970565  	92.369584 
2278.934990  	92.273879 
2279.899414  	92.196200 
2280.863838  	92.195542 
2281.828263  	92.186112 
2282.792687  	92.129071 
2283.757112  	92.173018 
2284.721536  	92.177460 
2285.685961  	92.145194 
2286.650385  	92.122785 
2287.614810  	92.076840 
2288.579234  	92.059616 
2289.543659  	92.003873 
2290.508083  	92.063709 
2291.472507  	92.111448 
2292.436932  	92.167142 
2293.401356  	92.154291 
2294.365781  	92.088099 
2295.330205  	92.097692 
2296.294630  	91.987859 
2297.259054  	91.968656 
2298.223479  	91.887001 
2299.187903  	91.965987 
2300.152328  	92.061331 
2301.116752  	91.996621 
2302.081176  	91.999852 
2303.045601  	91.921432 
2304.010025  	91.981231 
2304.974450  	91.858106 
2305.938874  	91.882185 
2306.903299  	91.842488 
2307.867723  	91.949820 
2308.832148  	91.822788 
2309.796572  	91.802035 
2310.760997  	91.820010 
2311.725421  	91.851761 
2312.689845  	91.964009 
2313.654270  	91.969922 
2314.618694  	92.006934 
2315.583119  	92.140365 
2316.547543  	92.190632 
2317.511968  	92.235400 
2318.476392  	92.215068 
2319.440817  	92.236391 
2320.405241  	92.224801 
2321.369666  	92.317596 
2322.334090  	92.367925 
2323.298515  	92.342171 
2324.262939  	92.342858 
2325.227363  	92.703051 
2326.191788  	93.006173 
2327.156212  	93.247643 
2328.120637  	93.305286 
2329.085061  	93.396908 
2330.049486  	93.492576 
2331.013910  	93.505087 
2331.978335  	93.541566 
2332.942759  	93.738170 
2333.907184  	93.889722 
2334.871608  	93.961168 
2335.836032  	94.144569 
2336.800457  	94.302793 
2337.764881  	94.301395 
2338.729306  	94.295763 
2339.693730  	94.146660 
2340.658155  	94.248783 
2341.622579  	94.433873 
2342.587004  	94.343287 
2343.551428  	94.153476 
2344.515853  	93.836764 
2345.480277  	93.584719 
2346.444701  	93.318041 
2347.409126  	93.053620 
2348.373550  	92.619944 
2349.337975  	92.427302 
2350.302399  	92.731217 
2351.266824  	93.213834 
2352.231248  	93.724477 
2353.195673  	93.930914 
2354.160097  	93.998610 
2355.124522  	94.175401 
2356.088946  	94.449356 
2357.053370  	94.585220 
2358.017795  	94.674715 
2358.982219  	94.721114 
2359.946644  	94.938249 
2360.911068  	95.014137 
2361.875493  	94.862842 
2362.839917  	94.794145 
2363.804342  	94.749915 
2364.768766  	94.671200 
2365.733191  	94.554180 
2366.697615  	94.237128 
2367.662039  	93.935095 
2368.626464  	93.738308 
2369.590888  	93.624583 
2370.555313  	93.364183 
2371.519737  	93.018224 
2372.484162  	92.809136 
2373.448586  	92.680854 
2374.413011  	92.450830 
2375.377435  	92.268175 
2376.341860  	92.123871 
2377.306284  	91.973363 
2378.270708  	91.820167 
2379.235133  	91.694010 
2380.199557  	91.719357 
2381.163982  	91.751306 
2382.128406  	91.785706 
2383.092831  	91.828954 
2384.057255  	91.862535 
2385.021680  	91.927303 
2385.986104  	92.003793 
2386.950529  	92.057716 
2387.914953  	92.096230 
2388.879378  	92.104573 
2389.843802  	92.174080 
2390.808226  	92.205174 
2391.772651  	92.119787 
2392.737075  	92.088869 
2393.701500  	92.192603 
2394.665924  	92.221511 
2395.630349  	92.194835 
2396.594773  	92.153277 
2397.559198  	92.159758 
2398.523622  	92.225739 
2399.488047  	92.274432 
2400.452471  	92.250781 
2401.416895  	92.233976 
2402.381320  	92.250702 
2403.345744  	92.260057 
2404.310169  	92.210952 
2405.274593  	92.153622 
2406.239018  	92.152436 
2407.203442  	92.154095 
2408.167867  	92.167736 
2409.132291  	92.190874 
2410.096716  	92.186979 
2411.061140  	92.154587 
2412.025564  	92.177656 
2412.989989  	92.220550 
2413.954413  	92.231564 
2414.918838  	92.257925 
2415.883262  	92.248070 
2416.847687  	92.233274 
2417.812111  	92.226511 
2418.776536  	92.209230 
2419.740960  	92.190254 
2420.705385  	92.243581 
2421.669809  	92.262099 
2422.634233  	92.284342 
2423.598658  	92.264574 
2424.563082  	92.249846 
2425.527507  	92.326614 
2426.491931  	92.262046 
2427.456356  	92.171903 
2428.420780  	92.331293 
2429.385205  	92.367558 
2430.349629  	92.312465 
2431.314054  	92.256592 
2432.278478  	92.271220 
2433.242902  	92.286267 
2434.207327  	92.230075 
2435.171751  	92.265007 
2436.136176  	92.366796 
2437.100600  	92.391660 
2438.065025  	92.341823 
2439.029449  	92.340911 
2439.993874  	92.352636 
2440.958298  	92.330333 
2441.922723  	92.317583 
2442.887147  	92.294361 
2443.851572  	92.286119 
2444.815996  	92.302745 
2445.780420  	92.322373 
2446.744845  	92.284113 
2447.709269  	92.280772 
2448.673694  	92.315671 
2449.638118  	92.297390 
2450.602543  	92.286428 
2451.566967  	92.244739 
2452.531392  	92.235271 
2453.495816  	92.218857 
2454.460241  	92.203567 
2455.424665  	92.205768 
2456.389089  	92.219868 
2457.353514  	92.274649 
2458.317938  	92.278995 
2459.282363  	92.252356 
2460.246787  	92.241896 
2461.211212  	92.184906 
2462.175636  	92.196622 
2463.140061  	92.239968 
2464.104485  	92.237693 
2465.068910  	92.235175 
2466.033334  	92.234184 
2466.997758  	92.250042 
2467.962183  	92.278519 
2468.926607  	92.256238 
2469.891032  	92.226356 
2470.855456  	92.236972 
2471.819881  	92.245874 
2472.784305  	92.264034 
2473.748730  	92.268466 
2474.713154  	92.300609 
2475.677579  	92.222724 
2476.642003  	92.164860 
2477.606427  	92.193308 
2478.570852  	92.268495 
2479.535276  	92.275558 
2480.499701  	92.209920 
2481.464125  	92.183600 
2482.428550  	92.180968 
2483.392974  	92.185025 
2484.357399  	92.260706 
2485.321823  	92.245121 
2486.286248  	92.185498 
2487.250672  	92.169647 
2488.215096  	92.194324 
2489.179521  	92.146428 
2490.143945  	92.089928 
2491.108370  	92.084966 
2492.072794  	92.117791 
2493.037219  	92.136495 
2494.001643  	92.112034 
2494.966068  	92.150036 
2495.930492  	92.185887 
2496.894917  	92.133981 
2497.859341  	92.096878 
2498.823765  	92.083011 
2499.788190  	92.108032 
2500.752614  	92.108515 
2501.717039  	92.050766 
2502.681463  	92.003881 
2503.645888  	92.085197 
2504.610312  	92.108164 
2505.574737  	92.076091 
2506.539161  	92.064702 
2507.503586  	92.075994 
2508.468010  	92.087255 
2509.432435  	92.078699 
2510.396859  	92.089409 
2511.361283  	92.049800 
2512.325708  	92.006858 
2513.290132  	92.052665 
2514.254557  	92.079201 
2515.218981  	92.058327 
2516.183406  	92.084010 
2517.147830  	92.121078 
2518.112255  	92.052033 
2519.076679  	91.994442 
2520.041104  	92.011521 
2521.005528  	92.010594 
2521.969952  	91.935331 
2522.934377  	91.926295 
2523.898801  	92.002437 
2524.863226  	92.020795 
2525.827650  	91.997911 
2526.792075  	92.004699 
2527.756499  	91.993691 
2528.720924  	92.040614 
2529.685348  	92.037758 
2530.649773  	92.019469 
2531.614197  	92.035664 
2532.578621  	92.034910 
2533.543046  	91.960510 
2534.507470  	91.933445 
2535.471895  	91.986217 
2536.436319  	91.990380 
2537.400744  	91.971796 
2538.365168  	91.951682 
2539.329593  	91.959946 
2540.294017  	91.976476 
2541.258442  	91.994799 
2542.222866  	92.031192 
2543.187290  	92.021780 
2544.151715  	92.003747 
2545.116139  	91.994050 
2546.080564  	91.956971 
2547.044988  	91.911464 
2548.009413  	91.859430 
2548.973837  	91.895088 
2549.938262  	91.933296 
2550.902686  	91.930869 
2551.867111  	91.935315 
2552.831535  	91.895686 
2553.795959  	91.860319 
2554.760384  	91.903417 
2555.724808  	91.919190 
2556.689233  	91.874519 
2557.653657  	91.886022 
2558.618082  	91.871187 
2559.582506  	91.899627 
2560.546931  	91.901959 
2561.511355  	91.814105 
2562.475780  	91.801686 
2563.440204  	91.844408 
2564.404629  	91.862273 
2565.369053  	91.923535 
2566.333477  	91.937860 
2567.297902  	91.896048 
2568.262326  	91.860635 
2569.226751  	91.793157 
2570.191175  	91.833119 
2571.155600  	91.906957 
2572.120024  	91.891415 
2573.084449  	91.908988 
2574.048873  	91.877767 
2575.013298  	91.789439 
2575.977722  	91.798553 
2576.942146  	91.877025 
2577.906571  	91.932216 
2578.870995  	91.910896 
2579.835420  	91.819903 
2580.799844  	91.833467 
2581.764269  	91.849358 
2582.728693  	91.874866 
2583.693118  	91.820626 
2584.657542  	91.762429 
2585.621967  	91.791586 
2586.586391  	91.798601 
2587.550815  	91.862587 
2588.515240  	91.904572 
2589.479664  	91.851962 
2590.444089  	91.810544 
2591.408513  	91.827224 
2592.372938  	91.824014 
2593.337362  	91.795208 
2594.301787  	91.770349 
2595.266211  	91.770535 
2596.230636  	91.806369 
2597.195060  	91.824768 
2598.159484  	91.851636 
2599.123909  	91.905534 
2600.088333  	91.922646 
2601.052758  	91.858383 
2602.017182  	91.804396 
2602.981607  	91.788738 
2603.946031  	91.853481 
2604.910456  	91.896070 
2605.874880  	91.831391 
2606.839305  	91.783508 
2607.803729  	91.836981 
2608.768153  	91.864627 
2609.732578  	91.798656 
2610.697002  	91.763773 
2611.661427  	91.810380 
2612.625851  	91.830326 
2613.590276  	91.840759 
2614.554700  	91.810068 
2615.519125  	91.815778 
2616.483549  	91.817692 
2617.447974  	91.768518 
2618.412398  	91.744240 
2619.376822  	91.752969 
2620.341247  	91.781641 
2621.305671  	91.743099 
2622.270096  	91.709644 
2623.234520  	91.737488 
2624.198945  	91.713237 
2625.163369  	91.714971 
2626.127794  	91.726030 
2627.092218  	91.719798 
2628.056643  	91.690428 
2629.021067  	91.662128 
2629.985492  	91.693414 
2630.949916  	91.746833 
2631.914340  	91.739056 
2632.878765  	91.709161 
2633.843189  	91.716304 
2634.807614  	91.736419 
2635.772038  	91.732649 
2636.736463  	91.702277 
2637.700887  	91.711284 
2638.665312  	91.727404 
2639.629736  	91.727462 
2640.594161  	91.735861 
2641.558585  	91.735134 
2642.523009  	91.702820 
2643.487434  	91.730733 
2644.451858  	91.772094 
2645.416283  	91.737384 
2646.380707  	91.696835 
2647.345132  	91.709768 
2648.309556  	91.747134 
2649.273981  	91.761203 
2650.238405  	91.786796 
2651.202830  	91.802502 
2652.167254  	91.761137 
2653.131678  	91.741502 
2654.096103  	91.752007 
2655.060527  	91.753655 
2656.024952  	91.767446 
2656.989376  	91.775648 
2657.953801  	91.765217 
2658.918225  	91.774182 
2659.882650  	91.792633 
2660.847074  	91.791348 
2661.811499  	91.799653 
2662.775923  	91.800919 
2663.740347  	91.829396 
2664.704772  	91.826198 
2665.669196  	91.835686 
2666.633621  	91.832640 
2667.598045  	91.824881 
2668.562470  	91.832341 
2669.526894  	91.830782 
2670.491319  	91.809804 
2671.455743  	91.840167 
2672.420168  	91.844371 
2673.384592  	91.807450 
2674.349016  	91.791280 
2675.313441  	91.805060 
2676.277865  	91.820747 
2677.242290  	91.822831 
2678.206714  	91.808236 
2679.171139  	91.782404 
2680.135563  	91.793370 
2681.099988  	91.818873 
2682.064412  	91.845901 
2683.028837  	91.845115 
2683.993261  	91.823072 
2684.957686  	91.810560 
2685.922110  	91.812552 
2686.886534  	91.804706 
2687.850959  	91.787486 
2688.815383  	91.796977 
2689.779808  	91.813135 
2690.744232  	91.810019 
2691.708657  	91.780036 
2692.673081  	91.784076 
2693.637506  	91.797051 
2694.601930  	91.796190 
2695.566355  	91.798488 
2696.530779  	91.803942 
2697.495203  	91.791180 
2698.459628  	91.791844 
2699.424052  	91.821677 
2700.388477  	91.808667 
2701.352901  	91.743122 
2702.317326  	91.740017 
2703.281750  	91.790480 
2704.246175  	91.807074 
2705.210599  	91.783926 
2706.175024  	91.770385 
2707.139448  	91.757152 
2708.103872  	91.771349 
2709.068297  	91.789231 
2710.032721  	91.763165 
2710.997146  	91.737264 
2711.961570  	91.725886 
2712.925995  	91.736627 
2713.890419  	91.742490 
2714.854844  	91.757689 
2715.819268  	91.774696 
2716.783693  	91.755176 
2717.748117  	91.739210 
2718.712541  	91.733537 
2719.676966  	91.753935 
2720.641390  	91.752940 
2721.605815  	91.760221 
2722.570239  	91.738523 
2723.534664  	91.730301 
2724.499088  	91.714468 
2725.463513  	91.700270 
2726.427937  	91.716367 
2727.392362  	91.708432 
2728.356786  	91.688766 
2729.321210  	91.681931 
2730.285635  	91.684394 
2731.250059  	91.656052 
2732.214484  	91.649135 
2733.178908  	91.668024 
2734.143333  	91.672264 
2735.107757  	91.663123 
2736.072182  	91.677879 
2737.036606  	91.679095 
2738.001031  	91.637131 
2738.965455  	91.609705 
2739.929879  	91.625806 
2740.894304  	91.640508 
2741.858728  	91.629056 
2742.823153  	91.642417 
2743.787577  	91.636071 
2744.752002  	91.625591 
2745.716426  	91.606444 
2746.680851  	91.599238 
2747.645275  	91.598168 
2748.609700  	91.602540 
2749.574124  	91.627216 
2750.538549  	91.619931 
2751.502973  	91.589961 
2752.467397  	91.611142 
2753.431822  	91.637619 
2754.396246  	91.618764 
2755.360671  	91.607742 
2756.325095  	91.620924 
2757.289520  	91.581958 
2758.253944  	91.569708 
2759.218369  	91.590864 
2760.182793  	91.599529 
2761.147218  	91.570393 
2762.111642  	91.554456 
2763.076066  	91.567168 
2764.040491  	91.593213 
2765.004915  	91.585932 
2765.969340  	91.580813 
2766.933764  	91.582585 
2767.898189  	91.564510 
2768.862613  	91.560476 
2769.827038  	91.533810 
2770.791462  	91.532623 
2771.755887  	91.548678 
2772.720311  	91.547676 
2773.684735  	91.520189 
2774.649160  	91.513330 
2775.613584  	91.537051 
2776.578009  	91.539785 
2777.542433  	91.530898 
2778.506858  	91.518490 
2779.471282  	91.520650 
2780.435707  	91.505081 
2781.400131  	91.477046 
2782.364556  	91.481304 
2783.328980  	91.508502 
2784.293404  	91.497975 
2785.257829  	91.493637 
2786.222253  	91.507881 
2787.186678  	91.503852 
2788.151102  	91.459228 
2789.115527  	91.479902 
2790.079951  	91.460372 
2791.044376  	91.443454 
2792.008800  	91.453905 
2792.973225  	91.428365 
2793.937649  	91.393696 
2794.902073  	91.385334 
2795.866498  	91.393375 
2796.830922  	91.415984 
2797.795347  	91.416975 
2798.759771  	91.400221 
2799.724196  	91.344494 
2800.688620  	91.309999 
2801.653045  	91.319488 
2802.617469  	91.354201 
2803.581894  	91.380899 
2804.546318  	91.370606 
2805.510743  	91.350962 
2806.475167  	91.331167 
2807.439591  	91.300856 
2808.404016  	91.288257 
2809.368440  	91.315117 
2810.332865  	91.344345 
2811.297289  	91.336974 
2812.261714  	91.353211 
2813.226138  	91.373318 
2814.190563  	91.353223 
2815.154987  	91.363270 
2816.119412  	91.340707 
2817.083836  	91.309839 
2818.048260  	91.319908 
2819.012685  	91.315452 
2819.977109  	91.316283 
2820.941534  	91.315600 
2821.905958  	91.322434 
2822.870383  	91.314449 
2823.834807  	91.313163 
2824.799232  	91.298606 
2825.763656  	91.304909 
2826.728081  	91.302604 
2827.692505  	91.290512 
2828.656929  	91.296033 
2829.621354  	91.292777 
2830.585778  	91.272311 
2831.550203  	91.259141 
2832.514627  	91.225130 
2833.479052  	91.199568 
2834.443476  	91.181924 
2835.407901  	91.201465 
2836.372325  	91.200742 
2837.336750  	91.157741 
2838.301174  	91.102015 
2839.265598  	91.087857 
2840.230023  	91.111230 
2841.194447  	91.106808 
2842.158872  	91.051804 
2843.123296  	91.010053 
2844.087721  	90.957844 
2845.052145  	90.908935 
2846.016570  	90.857204 
2846.980994  	90.792724 
2847.945419  	90.716793 
2848.909843  	90.648622 
2849.874267  	90.590076 
2850.838692  	90.569358 
2851.803116  	90.560210 
2852.767541  	90.569689 
2853.731965  	90.584361 
2854.696390  	90.618075 
2855.660814  	90.677035 
2856.625239  	90.695841 
2857.589663  	90.688435 
2858.554088  	90.696383 
2859.518512  	90.730672 
2860.482936  	90.728601 
2861.447361  	90.714739 
2862.411785  	90.751144 
2863.376210  	90.746182 
2864.340634  	90.719191 
2865.305059  	90.733745 
2866.269483  	90.770220 
2867.233908  	90.741215 
2868.198332  	90.708552 
2869.162757  	90.679130 
2870.127181  	90.673804 
2871.091606  	90.661631 
2872.056030  	90.654835 
2873.020454  	90.659269 
2873.984879  	90.663606 
2874.949303  	90.619884 
2875.913728  	90.611464 
2876.878152  	90.647849 
2877.842577  	90.622972 
2878.807001  	90.576963 
2879.771426  	90.558969 
2880.735850  	90.531133 
2881.700275  	90.533949 
2882.664699  	90.577025 
2883.629123  	90.568888 
2884.593548  	90.530344 
2885.557972  	90.473321 
2886.522397  	90.440592 
2887.486821  	90.429079 
2888.451246  	90.396634 
2889.415670  	90.414141 
2890.380095  	90.423331 
2891.344519  	90.382958 
2892.308944  	90.350394 
2893.273368  	90.355995 
2894.237792  	90.353206 
2895.202217  	90.276465 
2896.166641  	90.242444 
2897.131066  	90.254216 
2898.095490  	90.226744 
2899.059915  	90.173987 
2900.024339  	90.128683 
2900.988764  	90.062958 
2901.953188  	90.002012 
2902.917613  	89.970406 
2903.882037  	89.888574 
2904.846461  	89.800211 
2905.810886  	89.770161 
2906.775310  	89.764662 
2907.739735  	89.714452 
2908.704159  	89.649371 
2909.668584  	89.653538 
2910.633008  	89.703853 
2911.597433  	89.766847 
2912.561857  	89.838176 
2913.526282  	89.823672 
2914.490706  	89.791192 
2915.455130  	89.829876 
2916.419555  	89.883977 
2917.383979  	89.919814 
2918.348404  	89.907496 
2919.312828  	89.942061 
2920.277253  	89.996869 
2921.241677  	90.001449 
2922.206102  	90.033798 
2923.170526  	90.084486 
2924.134951  	90.123610 
2925.099375  	90.171427 
2926.063800  	90.237254 
2927.028224  	90.281021 
2927.992648  	90.287476 
2928.957073  	90.297145 
2929.921497  	90.319775 
2930.885922  	90.346181 
2931.850346  	90.378510 
2932.814771  	90.394784 
2933.779195  	90.365204 
2934.743620  	90.341659 
2935.708044  	90.335968 
2936.672469  	90.326120 
2937.636893  	90.339818 
2938.601317  	90.347966 
2939.565742  	90.344590 
2940.530166  	90.326744 
2941.494591  	90.274161 
2942.459015  	90.215198 
2943.423440  	90.156823 
2944.387864  	90.084267 
2945.352289  	90.019051 
2946.316713  	89.986061 
2947.281138  	89.973632 
2948.245562  	89.931808 
2949.209986  	89.833137 
2950.174411  	89.765221 
2951.138835  	89.767779 
2952.103260  	89.715578 
2953.067684  	89.624401 
2954.032109  	89.554242 
2954.996533  	89.473207 
2955.960958  	89.382277 
2956.925382  	89.342025 
2957.889807  	89.303845 
2958.854231  	89.250421 
2959.818655  	89.206757 
2960.783080  	89.170706 
2961.747504  	89.122790 
2962.711929  	89.110669 
2963.676353  	89.044756 
2964.640778  	88.931293 
2965.605202  	88.860491 
2966.569627  	88.812217 
2967.534051  	88.856330 
2968.498476  	88.905325 
2969.462900  	88.863850 
2970.427324  	88.853462 
2971.391749  	88.882552 
2972.356173  	88.957649 
2973.320598  	89.042918 
2974.285022  	89.092184 
2975.249447  	89.145191 
2976.213871  	89.270500 
2977.178296  	89.383449 
2978.142720  	89.429044 
2979.107145  	89.504871 
2980.071569  	89.611220 
2981.035993  	89.667258 
2982.000418  	89.763194 
2982.964842  	89.868571 
2983.929267  	89.938816 
2984.893691  	90.030861 
2985.858116  	90.064833 
2986.822540  	90.105257 
2987.786965  	90.178709 
2988.751389  	90.206438 
2989.715814  	90.263018 
2990.680238  	90.336702 
2991.644663  	90.354836 
2992.609087  	90.357570 
2993.573511  	90.360830 
2994.537936  	90.378418 
2995.502360  	90.453336 
2996.466785  	90.483981 
2997.431209  	90.492978 
2998.395634  	90.531318 
2999.360058  	90.548856 
3000.324483  	90.560046 
3001.288907  	90.546249 
3002.253332  	90.547985 
3003.217756  	90.542070 
3004.182180  	90.498745 
3005.146605  	90.518849 
3006.111029  	90.590513 
3007.075454  	90.651915 
3008.039878  	90.652169 
3009.004303  	90.696551 
3009.968727  	90.694441 
3010.933152  	90.647925 
3011.897576  	90.638833 
3012.862001  	90.568432 
3013.826425  	90.644790 
3014.790849  	90.742023 
3015.755274  	90.721192 
3016.719698  	90.774696 
3017.684123  	90.858550 
3018.648547  	90.871461 
3019.612972  	90.856267 
3020.577396  	90.897479 
3021.541821  	90.974181 
3022.506245  	91.004832 
3023.470670  	91.016828 
3024.435094  	91.078556 
3025.399518  	91.071302 
3026.363943  	91.072467 
3027.328367  	91.158539 
3028.292792  	91.200587 
3029.257216  	91.191187 
3030.221641  	91.155513 
3031.186065  	91.062931 
3032.150490  	90.993355 
3033.114914  	91.110323 
3034.079339  	91.155923 
3035.043763  	91.142817 
3036.008187  	91.199854 
3036.972612  	91.195654 
3037.937036  	91.144398 
3038.901461  	91.136895 
3039.865885  	91.127779 
3040.830310  	91.147121 
3041.794734  	91.192247 
3042.759159  	91.126161 
3043.723583  	91.086917 
3044.688008  	91.098721 
3045.652432  	91.111547 
3046.616857  	91.019828 
3047.581281  	90.967308 
3048.545705  	90.910158 
3049.510130  	90.816794 
3050.474554  	90.786133 
3051.438979  	90.774571 
3052.403403  	90.774701 
3053.367828  	90.772639 
3054.332252  	90.716507 
3055.296677  	90.691332 
3056.261101  	90.613017 
3057.225526  	90.618987 
3058.189950  	90.750837 
3059.154374  	90.807186 
3060.118799  	90.820771 
3061.083223  	90.828684 
3062.047648  	90.845345 
3063.012072  	90.846983 
3063.976497  	90.765484 
3064.940921  	90.705475 
3065.905346  	90.767622 
3066.869770  	90.765228 
3067.834195  	90.768445 
3068.798619  	90.830950 
3069.763043  	90.893294 
3070.727468  	90.916242 
3071.691892  	90.892755 
3072.656317  	90.814487 
3073.620741  	90.820658 
3074.585166  	90.908594 
3075.549590  	90.943147 
3076.514015  	90.898832 
3077.478439  	90.844246 
3078.442864  	90.849745 
3079.407288  	90.801252 
3080.371712  	90.799612 
3081.336137  	90.887519 
3082.300561  	90.893861 
3083.264986  	90.946221 
3084.229410  	91.005683 
3085.193835  	90.960956 
3086.158259  	90.962995 
3087.122684  	90.965128 
3088.087108  	90.930115 
3089.051533  	90.984477 
3090.015957  	90.984227 
3090.980381  	90.972187 
3091.944806  	91.035117 
3092.909230  	91.091265 
3093.873655  	91.083212 
3094.838079  	91.014391 
3095.802504  	90.971925 
3096.766928  	90.999288 
3097.731353  	91.020124 
3098.695777  	91.000929 
3099.660202  	90.968883 
3100.624626  	90.952659 
3101.589050  	90.914755 
3102.553475  	90.890565 
3103.517899  	90.883765 
3104.482324  	90.944380 
3105.446748  	90.960313 
3106.411173  	90.946259 
3107.375597  	90.944637 
3108.340022  	90.996491 
3109.304446  	91.022919 
3110.268871  	91.013164 
3111.233295  	91.022563 
3112.197720  	91.010030 
3113.162144  	90.988143 
3114.126568  	91.012749 
3115.090993  	91.011555 
3116.055417  	90.998890 
3117.019842  	91.082417 
3117.984266  	91.102322 
3118.948691  	91.019328 
3119.913115  	91.105945 
3120.877540  	91.178705 
3121.841964  	91.031889 
3122.806389  	90.937685 
3123.770813  	91.033915 
3124.735237  	91.113814 
3125.699662  	91.114813 
3126.664086  	91.054666 
3127.628511  	91.087811 
3128.592935  	91.113721 
3129.557360  	91.103756 
3130.521784  	91.112979 
3131.486209  	91.125785 
3132.450633  	91.064782 
3133.415058  	91.010267 
3134.379482  	91.133371 
3135.343906  	91.210587 
3136.308331  	91.188637 
3137.272755  	91.110827 
3138.237180  	91.091662 
3139.201604  	91.165321 
3140.166029  	91.225394 
3141.130453  	91.281498 
3142.094878  	91.204927 
3143.059302  	91.120584 
3144.023727  	91.183207 
3144.988151  	91.205811 
3145.952575  	91.106580 
3146.917000  	91.090506 
3147.881424  	91.205593 
3148.845849  	91.278911 
3149.810273  	91.239255 
3150.774698  	91.230081 
3151.739122  	91.198472 
3152.703547  	91.170843 
3153.667971  	91.164707 
3154.632396  	91.201418 
3155.596820  	91.223612 
3156.561244  	91.166341 
3157.525669  	91.163014 
3158.490093  	91.191849 
3159.454518  	91.185235 
3160.418942  	91.216529 
3161.383367  	91.207393 
3162.347791  	91.173945 
3163.312216  	91.126247 
3164.276640  	91.118007 
3165.241065  	91.145160 
3166.205489  	91.207446 
3167.169914  	91.252486 
3168.134338  	91.183127 
3169.098762  	91.124333 
3170.063187  	91.087491 
3171.027611  	91.107664 
3171.992036  	91.150643 
3172.956460  	91.153227 
3173.920885  	91.133611 
3174.885309  	91.110621 
3175.849734  	91.072189 
3176.814158  	91.068942 
3177.778583  	91.047355 
3178.743007  	91.040714 
3179.707431  	91.079745 
3180.671856  	91.101130 
3181.636280  	91.171766 
3182.600705  	91.186593 
3183.565129  	91.101791 
3184.529554  	91.067620 
3185.493978  	91.050629 
3186.458403  	91.041011 
3187.422827  	91.064151 
3188.387252  	91.085783 
3189.351676  	91.109481 
3190.316100  	91.120061 
3191.280525  	91.096237 
3192.244949  	91.082996 
3193.209374  	91.110742 
3194.173798  	91.075991 
3195.138223  	91.046215 
3196.102647  	90.992166 
3197.067072  	90.935841 
3198.031496  	90.928130 
3198.995921  	91.018685 
3199.960345  	91.061479 
3200.924769  	91.117156 
3201.889194  	91.172811 
3202.853618  	91.145813 
3203.818043  	91.110213 
3204.782467  	91.073940 
3205.746892  	91.031968 
3206.711316  	90.991249 
3207.675741  	90.983638 
3208.640165  	90.982517 
3209.604590  	90.932435 
3210.569014  	90.921369 
3211.533438  	91.012738 
3212.497863  	91.030068 
3213.462287  	90.986553 
3214.426712  	90.911501 
3215.391136  	90.933177 
3216.355561  	90.983514 
3217.319985  	91.000978 
3218.284410  	90.984725 
3219.248834  	90.914569 
3220.213259  	90.924782 
3221.177683  	90.949716 
3222.142107  	90.927895 
3223.106532  	90.967777 
3224.070956  	90.997965 
3225.035381  	90.962290 
3225.999805  	90.944756 
3226.964230  	90.958813 
3227.928654  	90.949599 
3228.893079  	90.981136 
3229.857503  	90.949494 
3230.821928  	90.883518 
3231.786352  	90.864883 
3232.750777  	90.853269 
3233.715201  	90.872187 
3234.679625  	90.879314 
3235.644050  	90.929368 
3236.608474  	90.920305 
3237.572899  	90.868543 
3238.537323  	90.931519 
3239.501748  	90.913922 
3240.466172  	90.874193 
3241.430597  	90.957539 
3242.395021  	91.004049 
3243.359446  	90.929677 
3244.323870  	90.831475 
3245.288294  	90.721960 
3246.252719  	90.746011 
3247.217143  	90.844200 
3248.181568  	90.900184 
3249.145992  	90.869249 
3250.110417  	90.877478 
3251.074841  	90.897768 
3252.039266  	90.903850 
3253.003690  	90.896967 
3253.968115  	90.801194 
3254.932539  	90.764744 
3255.896963  	90.810620 
3256.861388  	90.819270 
3257.825812  	90.878049 
3258.790237  	90.865356 
3259.754661  	90.857578 
3260.719086  	90.866675 
3261.683510  	90.877745 
3262.647935  	90.855646 
3263.612359  	90.876251 
3264.576784  	90.853132 
3265.541208  	90.790359 
3266.505632  	90.783313 
3267.470057  	90.849375 
3268.434481  	90.863827 
3269.398906  	90.804149 
3270.363330  	90.744353 
3271.327755  	90.769798 
3272.292179  	90.823075 
3273.256604  	90.812928 
3274.221028  	90.742008 
3275.185453  	90.774667 
3276.149877  	90.733340 
3277.114301  	90.675794 
3278.078726  	90.731120 
3279.043150  	90.710494 
3280.007575  	90.680279 
3280.971999  	90.711256 
3281.936424  	90.739182 
3282.900848  	90.721933 
3283.865273  	90.660866 
3284.829697  	90.679823 
3285.794122  	90.742842 
3286.758546  	90.812152 
3287.722971  	90.807442 
3288.687395  	90.761046 
3289.651819  	90.781917 
3290.616244  	90.768414 
3291.580668  	90.686896 
3292.545093  	90.654104 
3293.509517  	90.694182 
3294.473942  	90.747924 
3295.438366  	90.733660 
3296.402791  	90.764443 
3297.367215  	90.750252 
3298.331640  	90.698151 
3299.296064  	90.723646 
3300.260488  	90.747475 
3301.224913  	90.714865 
3302.189337  	90.749154 
3303.153762  	90.755699 
3304.118186  	90.710063 
3305.082611  	90.701872 
3306.047035  	90.720966 
3307.011460  	90.776650 
3307.975884  	90.715689 
3308.940309  	90.640889 
3309.904733  	90.711750 
3310.869157  	90.746159 
3311.833582  	90.737977 
3312.798006  	90.724316 
3313.762431  	90.702716 
3314.726855  	90.738314 
3315.691280  	90.744211 
3316.655704  	90.717428 
3317.620129  	90.726555 
3318.584553  	90.763092 
3319.548978  	90.781730 
3320.513402  	90.745645 
3321.477826  	90.739974 
3322.442251  	90.771364 
3323.406675  	90.766960 
3324.371100  	90.698198 
3325.335524  	90.636665 
3326.299949  	90.612335 
3327.264373  	90.594532 
3328.228798  	90.570518 
3329.193222  	90.603149 
3330.157647  	90.621815 
3331.122071  	90.676734 
3332.086495  	90.767883 
3333.050920  	90.787870 
3334.015344  	90.720541 
3334.979769  	90.631334 
3335.944193  	90.650818 
3336.908618  	90.566872 
3337.873042  	90.562743 
3338.837467  	90.683288 
3339.801891  	90.736601 
3340.766316  	90.784895 
3341.730740  	90.763076 
3342.695164  	90.719331 
3343.659589  	90.718558 
3344.624013  	90.828260 
3345.588438  	90.875387 
3346.552862  	90.804098 
3347.517287  	90.780227 
3348.481711  	90.800090 
3349.446136  	90.805410 
3350.410560  	90.804672 
3351.374985  	90.843727 
3352.339409  	90.900430 
3353.303834  	90.870453 
3354.268258  	90.821209 
3355.232682  	90.745570 
3356.197107  	90.636538 
3357.161531  	90.706667 
3358.125956  	90.842006 
3359.090380  	90.884486 
3360.054805  	90.789592 
3361.019229  	90.743619 
3361.983654  	90.712287 
3362.948078  	90.736321 
3363.912503  	90.778874 
3364.876927  	90.761365 
3365.841351  	90.749611 
3366.805776  	90.751358 
3367.770200  	90.688562 
3368.734625  	90.693231 
3369.699049  	90.778503 
3370.663474  	90.863814 
3371.627898  	90.897434 
3372.592323  	90.834764 
3373.556747  	90.817422 
3374.521172  	90.854026 
3375.485596  	90.821219 
3376.450020  	90.804177 
3377.414445  	90.840426 
3378.378869  	90.848636 
3379.343294  	90.881925 
3380.307718  	90.899057 
3381.272143  	90.936192 
3382.236567  	90.878802 
3383.200992  	90.808086 
3384.165416  	90.718777 
3385.129841  	90.671870 
3386.094265  	90.741639 
3387.058689  	90.802076 
3388.023114  	90.819792 
3388.987538  	90.876879 
3389.951963  	90.888161 
3390.916387  	90.797182 
3391.880812  	90.673906 
3392.845236  	90.483393 
3393.809661  	90.556611 
3394.774085  	90.785513 
3395.738510  	90.791928 
3396.702934  	90.691383 
3397.667358  	90.593907 
3398.631783  	90.714826 
3399.596207  	90.820660 
3400.560632  	90.754996 
3401.525056  	90.681285 
3402.489481  	90.711374 
3403.453905  	90.701514 
3404.418330  	90.711519 
3405.382754  	90.734229 
3406.347179  	90.712815 
3407.311603  	90.643893 
3408.276028  	90.626395 
3409.240452  	90.579145 
3410.204876  	90.485756 
3411.169301  	90.525427 
3412.133725  	90.670365 
3413.098150  	90.720168 
3414.062574  	90.616720 
3415.026999  	90.567095 
3415.991423  	90.452083 
3416.955848  	90.449704 
3417.920272  	90.468315 
3418.884697  	90.427572 
3419.849121  	90.209718 
3420.813545  	89.908201 
3421.777970  	89.930167 
3422.742394  	90.015000 
3423.706819  	90.161448 
3424.671243  	90.293221 
3425.635668  	90.280568 
3426.600092  	90.272901 
3427.564517  	90.288024 
3428.528941  	90.264103 
3429.493366  	90.271273 
3430.457790  	90.251661 
3431.422214  	90.239379 
3432.386639  	90.281974 
3433.351063  	90.341864 
3434.315488  	90.425727 
3435.279912  	90.437682 
3436.244337  	90.402181 
3437.208761  	90.412449 
3438.173186  	90.419670 
3439.137610  	90.406395 
3440.102035  	90.384804 
3441.066459  	90.376701 
3442.030883  	90.294619 
3442.995308  	90.114220 
3443.959732  	90.290750 
3444.924157  	90.392415 
3445.888581  	90.327936 
3446.853006  	89.909697 
3447.817430  	89.610435 
3448.781855  	90.175371 
3449.746279  	90.535334 
3450.710704  	90.631940 
3451.675128  	90.678957 
3452.639552  	90.699177 
3453.603977  	90.684084 
3454.568401  	90.723225 
3455.532826  	90.670811 
3456.497250  	90.612130 
3457.461675  	90.641014 
3458.426099  	90.640310 
3459.390524  	90.630006 
3460.354948  	90.692204 
3461.319373  	90.608671 
3462.283797  	90.510885 
3463.248221  	90.443171 
3464.212646  	90.608081 
3465.177070  	90.703778 
3466.141495  	90.697317 
3467.105919  	90.484833 
3468.070344  	90.590214 
3469.034768  	90.794583 
3469.999193  	90.777577 
3470.963617  	90.729921 
3471.928042  	90.771356 
3472.892466  	90.774790 
3473.856891  	90.709662 
3474.821315  	90.543588 
3475.785739  	90.631353 
3476.750164  	90.777735 
3477.714588  	90.770463 
3478.679013  	90.798198 
3479.643437  	90.738006 
3480.607862  	90.442495 
3481.572286  	90.306378 
3482.536711  	90.175420 
3483.501135  	90.474213 
3484.465560  	90.770648 
3485.429984  	90.725545 
3486.394408  	90.714175 
3487.358833  	90.686358 
3488.323257  	90.401089 
3489.287682  	90.471259 
3490.252106  	90.766171 
3491.216531  	90.726920 
3492.180955  	90.767811 
3493.145380  	90.865615 
3494.109804  	90.897751 
3495.074229  	90.754334 
3496.038653  	90.519155 
3497.003077  	90.431919 
3497.967502  	90.650055 
3498.931926  	90.783869 
3499.896351  	90.662874 
3500.860775  	90.598460 
3501.825200  	90.267403 
3502.789624  	89.744198 
3503.754049  	89.695058 
3504.718473  	90.112845 
3505.682898  	90.429456 
3506.647322  	90.703464 
3507.611746  	90.827168 
3508.576171  	90.552193 
3509.540595  	89.836291 
3510.505020  	90.035921 
3511.469444  	90.578973 
3512.433869  	90.615707 
3513.398293  	90.581245 
3514.362718  	90.717908 
3515.327142  	90.889940 
3516.291567  	90.889775 
3517.255991  	90.756392 
3518.220415  	90.701221 
3519.184840  	90.715407 
3520.149264  	90.789009 
3521.113689  	90.844036 
3522.078113  	90.606076 
3523.042538  	89.785937 
3524.006962  	89.294060 
3524.971387  	89.691006 
3525.935811  	89.922639 
3526.900236  	89.900396 
3527.864660  	89.798089 
3528.829085  	89.879657 
3529.793509  	90.067374 
3530.757933  	90.330242 
3531.722358  	90.397687 
3532.686782  	90.677670 
3533.651207  	90.854749 
3534.615631  	90.840124 
3535.580056  	90.514001 
3536.544480  	89.864665 
3537.508905  	90.060617 
3538.473329  	90.648913 
3539.437754  	90.684244 
3540.402178  	90.652177 
3541.366602  	90.650277 
3542.331027  	90.612250 
3543.295451  	90.277671 
3544.259876  	89.900428 
3545.224300  	89.044814 
3546.188725  	88.770752 
3547.153149  	88.894675 
3548.117574  	89.433591 
3549.081998  	90.262530 
3550.046423  	90.543320 
3551.010847  	90.463660 
3551.975271  	89.850761 
3552.939696  	89.533083 
3553.904120  	89.935511 
3554.868545  	90.414023 
3555.832969  	90.763190 
3556.797394  	90.680314 
3557.761818  	90.704447 
3558.726243  	90.782551 
3559.690667  	90.346110 
3560.655092  	89.854165 
3561.619516  	90.257219 
3562.583940  	90.261911 
3563.548365  	90.126584 
3564.512789  	90.052621 
3565.477214  	89.222679 
3566.441638  	86.984061 
3567.406063  	86.817785 
3568.370487  	87.336547 
3569.334912  	88.943108 
3570.299336  	90.095022 
3571.263761  	90.234368 
3572.228185  	90.597750 
3573.192609  	90.681587 
3574.157034  	90.604468 
3575.121458  	90.564405 
3576.085883  	90.697536 
3577.050307  	90.539917 
3578.014732  	90.538630 
3578.979156  	90.681153 
3579.943581  	90.303953 
3580.908005  	90.162260 
3581.872430  	90.559811 
3582.836854  	90.619741 
3583.801278  	90.513243 
3584.765703  	90.550703 
3585.730127  	90.189516 
3586.694552  	88.534957 
3587.658976  	87.426503 
3588.623401  	87.714353 
3589.587825  	88.846390 
3590.552250  	90.307437 
3591.516674  	90.756392 
3592.481099  	90.643645 
3593.445523  	89.878709 
3594.409948  	89.863026 
3595.374372  	89.410769 
3596.338796  	89.186394 
3597.303221  	90.124462 
3598.267645  	90.235118 
3599.232070  	89.855420 
3600.196494  	89.895785 
3601.160919  	89.695596 
3602.125343  	90.019255 
3603.089768  	90.296175 
3604.054192  	90.650872 
3605.018617  	90.872034 
3605.983041  	90.659482 
3606.947465  	89.451068 
3607.911890  	88.852699 
3608.876314  	89.147094 
3609.840739  	88.914727 
3610.805163  	89.909266 
3611.769588  	89.979698 
3612.734012  	88.676973 
3613.698437  	88.676542 
3614.662861  	88.942195 
3615.627286  	89.067333 
3616.591710  	90.116520 
3617.556134  	89.586740 
3618.520559  	88.658960 
3619.484983  	88.547633 
3620.449408  	88.566711 
3621.413832  	89.306739 
3622.378257  	90.103817 
3623.342681  	90.547070 
3624.307106  	90.722453 
3625.271530  	90.672379 
3626.235955  	90.151966 
3627.200379  	89.877757 
3628.164803  	88.958353 
3629.129228  	86.105325 
3630.093652  	86.703049 
3631.058077  	89.178038 
3632.022501  	90.171231 
3632.986926  	90.269445 
3633.951350  	89.542790 
3634.915775  	89.879289 
3635.880199  	90.622026 
3636.844624  	90.775295 
3637.809048  	90.598639 
3638.773472  	90.523693 
3639.737897  	90.769932 
3640.702321  	90.793747 
3641.666746  	90.486879 
3642.631170  	90.057427 
3643.595595  	90.334758 
3644.560019  	90.725679 
3645.524444  	90.406610 
3646.488868  	89.297242 
3647.453293  	87.499489 
3648.417717  	87.565757 
3649.382142  	87.377182 
3650.346566  	86.498962 
3651.310990  	86.708366 
3652.275415  	88.885783 
3653.239839  	90.344251 
3654.204264  	90.774231 
3655.168688  	90.654829 
3656.133113  	89.738509 
3657.097537  	89.339700 
3658.061962  	90.449207 
3659.026386  	90.791276 
3659.990811  	90.692321 
3660.955235  	90.873074 
3661.919659  	91.160062 
3662.884084  	91.175124 
3663.848508  	91.172396 
3664.812933  	91.108663 
3665.777357  	91.143617 
3666.741782  	91.184816 
3667.706206  	91.077468 
3668.670631  	90.150279 
3669.635055  	88.878693 
3670.599480  	88.075353 
3671.563904  	88.648679 
3672.528328  	90.347683 
3673.492753  	90.691089 
3674.457177  	89.480137 
3675.421602  	86.594036 
3676.386026  	86.998146 
3677.350451  	88.977069 
3678.314875  	89.833532 
3679.279300  	89.861402 
3680.243724  	89.935373 
3681.208149  	90.811948 
3682.172573  	91.194141 
3683.136997  	91.214497 
3684.101422  	91.086683 
3685.065846  	90.976349 
3686.030271  	91.105125 
3686.994695  	90.999581 
3687.959120  	90.255024 
3688.923544  	89.100870 
3689.887969  	89.473729 
3690.852393  	89.059748 
3691.816818  	88.900505 
3692.781242  	90.423993 
3693.745666  	90.930128 
3694.710091  	91.004825 
3695.674515  	91.074335 
3696.638940  	90.993781 
3697.603364  	91.128470 
3698.567789  	91.399766 
3699.532213  	91.358892 
3700.496638  	91.299017 
3701.461062  	90.474770 
3702.425487  	89.787945 
3703.389911  	90.815781 
3704.354335  	91.297723 
3705.318760  	91.172403 
3706.283184  	91.138157 
3707.247609  	91.254697 
3708.212033  	91.219461 
3709.176458  	90.553595 
3710.140882  	89.830049 
3711.105307  	89.558182 
3712.069731  	88.569787 
3713.034156  	88.610902 
3713.998580  	90.077880 
3714.963005  	90.285395 
3715.927429  	90.587043 
3716.891853  	91.187126 
3717.856278  	91.322022 
3718.820702  	90.641782 
3719.785127  	90.264884 
3720.749551  	90.913792 
3721.713976  	90.590212 
3722.678400  	89.215471 
3723.642825  	89.791778 
3724.607249  	90.249536 
3725.571674  	89.524807 
3726.536098  	89.208191 
3727.500522  	89.468274 
3728.464947  	90.504856 
3729.429371  	91.184237 
3730.393796  	91.106681 
3731.358220  	90.723212 
3732.322645  	89.906068 
3733.287069  	89.817205 
3734.251494  	89.230688 
3735.215918  	86.159013 
3736.180343  	86.411627 
3737.144767  	88.036536 
3738.109191  	89.082413 
3739.073616  	89.564802 
3740.038040  	90.206765 
3741.002465  	89.904872 
3741.966889  	89.958151 
3742.931314  	90.490999 
3743.895738  	89.573823 
3744.860163  	86.162627 
3745.824587  	88.240275 
3746.789012  	89.516238 
3747.753436  	89.587111 
3748.717860  	89.432455 
3749.682285  	88.938250 
3750.646709  	88.688923 
3751.611134  	88.351488 
3752.575558  	87.210675 
3753.539983  	88.878312 
3754.504407  	90.044628 
3755.468832  	90.638769 
3756.433256  	90.362713 
3757.397681  	90.294627 
3758.362105  	90.508180 
3759.326529  	89.571257 
3760.290954  	89.139742 
3761.255378  	90.628434 
3762.219803  	91.036846 
3763.184227  	91.063677 
3764.148652  	91.094533 
3765.113076  	90.715658 
3766.077501  	89.813626 
3767.041925  	90.460718 
3768.006350  	91.109913 
3768.970774  	90.876457 
3769.935199  	89.860336 
3770.899623  	89.852754 
3771.864047  	90.670207 
3772.828472  	91.114720 
3773.792896  	91.286749 
3774.757321  	91.412868 
3775.721745  	91.522991 
3776.686170  	91.585515 
3777.650594  	91.438389 
3778.615019  	90.947297 
3779.579443  	90.104401 
3780.543868  	90.248510 
3781.508292  	91.090636 
3782.472716  	91.247851 
3783.437141  	91.287545 
3784.401565  	90.898163 
3785.365990  	90.414442 
3786.330414  	90.773892 
3787.294839  	91.124734 
3788.259263  	91.324601 
3789.223688  	91.371311 
3790.188112  	91.360786 
3791.152537  	91.458102 
3792.116961  	91.502692 
3793.081385  	91.558200 
3794.045810  	91.527151 
3795.010234  	91.338277 
3795.974659  	90.814942 
3796.939083  	89.947224 
3797.903508  	90.190440 
3798.867932  	90.750205 
3799.832357  	90.853533 
3800.796781  	89.960935 
3801.761206  	88.536061 
3802.725630  	88.891725 
3803.690054  	89.942945 
3804.654479  	90.891624 
3805.618903  	91.068624 
3806.583328  	90.409299 
3807.547752  	89.651920 
3808.512177  	90.658376 
3809.476601  	91.144341 
3810.441026  	91.204989 
3811.405450  	91.291919 
3812.369875  	91.410955 
3813.334299  	91.481827 
3814.298723  	91.360209 
3815.263148  	90.716709 
3816.227572  	89.218844 
3817.191997  	89.640307 
3818.156421  	90.640525 
3819.120846  	90.607336 
3820.085270  	89.871226 
3821.049695  	88.232826 
3822.014119  	87.992189 
3822.978544  	89.740759 
3823.942968  	90.427047 
3824.907392  	90.713287 
3825.871817  	90.692142 
3826.836241  	90.152558 
3827.800666  	90.243457 
3828.765090  	90.957419 
3829.729515  	91.257631 
3830.693939  	91.078495 
3831.658364  	90.315384 
3832.622788  	90.317903 
3833.587213  	90.971893 
3834.551637  	90.646113 
3835.516062  	89.989150 
3836.480486  	90.491484 
3837.444910  	90.132819 
3838.409335  	88.858485 
3839.373759  	89.207102 
3840.338184  	88.817776 
3841.302608  	88.956511 
3842.267033  	90.297763 
3843.231457  	90.397427 
3844.195882  	89.602364 
3845.160306  	90.440755 
3846.124731  	91.123100 
3847.089155  	91.245768 
3848.053579  	91.266312 
3849.018004  	91.088127 
3849.982428  	90.574420 
3850.946853  	90.485836 
3851.911277  	89.687326 
3852.875702  	88.003609 
3853.840126  	87.234065 
3854.804551  	87.534946 
3855.768975  	89.609705 
3856.733400  	89.876543 
3857.697824  	89.443283 
3858.662248  	90.459849 
3859.626673  	91.203143 
3860.591097  	91.208964 
3861.555522  	90.553957 
3862.519946  	89.916677 
3863.484371  	90.241347 
3864.448795  	89.507106 
3865.413220  	88.453489 
3866.377644  	89.848437 
3867.342069  	90.912389 
3868.306493  	90.881542 
3869.270917  	89.605091 
3870.235342  	87.554686 
3871.199766  	88.823563 
3872.164191  	90.177484 
3873.128615  	90.531939 
3874.093040  	89.249571 
3875.057464  	89.195007 
3876.021889  	90.822787 
3876.986313  	91.283289 
3877.950738  	91.367862 
3878.915162  	91.248659 
3879.879586  	90.234167 
3880.844011  	88.334861 
3881.808435  	89.506803 
3882.772860  	90.555265 
3883.737284  	90.304056 
3884.701709  	90.260661 
3885.666133  	89.484138 
3886.630558  	89.055263 
3887.594982  	90.599708 
3888.559407  	91.171245 
3889.523831  	91.204768 
3890.488256  	90.790814 
3891.452680  	89.531519 
3892.417104  	89.406879 
3893.381529  	90.411920 
3894.345953  	90.432251 
3895.310378  	90.747765 
3896.274802  	91.284313 
3897.239227  	91.282840 
3898.203651  	90.558257 
3899.168076  	89.446997 
3900.132500  	89.267149 
3901.096925  	90.103272 
3902.061349  	88.853529 
3903.025773  	88.750065 
3903.990198  	89.229410 
3904.954622  	88.749291 
3905.919047  	89.077671 
3906.883471  	89.980893 
3907.847896  	91.058230 
3908.812320  	91.360176 
3909.776745  	91.398633 
3910.741169  	91.425323 
3911.705594  	91.423833 
3912.670018  	91.414793 
3913.634442  	91.413396 
3914.598867  	91.431985 
3915.563291  	91.295230 
3916.527716  	90.333012 
3917.492140  	89.477905 
3918.456565  	90.363912 
3919.420989  	90.747824 
3920.385414  	90.103348 
3921.349838  	90.588222 
3922.314263  	91.309574 
3923.278687  	91.012325 
3924.243111  	90.123062 
3925.207536  	89.610705 
3926.171960  	90.372824 
3927.136385  	91.252539 
3928.100809  	91.310996 
3929.065234  	91.067255 
3930.029658  	90.702582 
3930.994083  	90.465322 
3931.958507  	90.054493 
3932.922932  	89.618507 
3933.887356  	90.398769 
3934.851780  	90.925923 
3935.816205  	91.273196 
3936.780629  	91.414170 
3937.745054  	91.334519 
3938.709478  	91.130584 
3939.673903  	91.236852 
3940.638327  	91.333930 
3941.602752  	91.203726 
3942.567176  	90.252568 
3943.531601  	89.731966 
3944.496025  	90.637694 
3945.460449  	91.150675 
3946.424874  	91.240922 
3947.389298  	90.614438 
3948.353723  	90.203612 
3949.318147  	90.510081 
3950.282572  	90.261589 
3951.246996  	90.635316 
3952.211421  	91.284535 
3953.175845  	91.229766 
3954.140270  	91.282022 
3955.104694  	91.383229 
3956.069119  	91.314900 
3957.033543  	91.132248 
3957.997967  	91.109006 
3958.962392  	91.191726 
3959.926816  	91.233213 
3960.891241  	91.154681 
3961.855665  	90.708525 
3962.820090  	90.711883 
3963.784514  	91.293307 
3964.748939  	91.357960 
3965.713363  	91.396877 
3966.677788  	91.455277 
3967.642212  	91.432482 
3968.606636  	91.255700 
3969.571061  	91.090056 
3970.535485  	91.251939 
3971.499910  	91.359112 
3972.464334  	91.150844 
3973.428759  	91.224186 
3974.393183  	91.344086 
3975.357608  	91.157840 
3976.322032  	90.999599 
3977.286457  	91.196877 
3978.250881  	91.412268 
3979.215305  	91.445896 
3980.179730  	91.421963 
3981.144154  	91.378509 
3982.108579  	91.328100 
3983.073003  	91.320276 
3984.037428  	91.415745 
3985.001852  	91.469808 
3985.966277  	91.472420 
3986.930701  	91.480930 
3987.895126  	91.479996 
3988.859550  	91.469705 
3989.823974  	91.375771 
3990.788399  	91.141923 
3991.752823  	91.209421 
3992.717248  	91.378119 
3993.681672  	91.346565 
3994.646097  	91.249974 
3995.610521  	91.150292 
3996.574946  	91.327022 
3997.539370  	91.455445 
3998.503795  	91.489873 
3999.468219  	91.495029 
4000.432643  	91.548366 
4001.397068  	91.551354 
4002.361492  	91.493562 
4003.325917  	91.439925 
4004.290341  	91.452630 
4005.254766  	91.451989 
4006.219190  	91.444999 
4007.183615  	91.418150 
4008.148039  	91.324558 
4009.112464  	91.220538 
4010.076888  	91.341220 
4011.041313  	91.386464 
4012.005737  	91.381357 
4012.970161  	91.375795 
4013.934586  	91.400514 
4014.899010  	91.425017 
4015.863435  	91.444878 
4016.827859  	91.478638 
4017.792284  	91.500865 
4018.756708  	91.482697 
4019.721133  	91.401641 
4020.685557  	91.389389 
4021.649982  	91.443943 
4022.614406  	91.472159 
4023.578830  	91.488995 
4024.543255  	91.460844 
4025.507679  	91.365002 
4026.472104  	91.371063 
4027.436528  	91.447210 
4028.400953  	91.434748 
4029.365377  	91.431764 
4030.329802  	91.446766 
4031.294226  	91.459128 
4032.258651  	91.471534 
4033.223075  	91.523117 
4034.187499  	91.521039 
4035.151924  	91.464034 
4036.116348  	91.430670 
4037.080773  	91.460545 
4038.045197  	91.513497 
4039.009622  	91.537811 
4039.974046  	91.509765 
4040.938471  	91.499810 
4041.902895  	91.481634 
4042.867320  	91.441884 
4043.831744  	91.351463 
4044.796168  	91.287877 
4045.760593  	91.280236 
4046.725017  	91.362845 
4047.689442  	91.420316 
4048.653866  	91.411491 
4049.618291  	91.426877 
4050.582715  	91.484101 
4051.547140  	91.474130 
4052.511564  	91.492231 
4053.475989  	91.531197 
4054.440413  	91.481435 
4055.404837  	91.393113 
4056.369262  	91.440679 
4057.333686  	91.496447 
4058.298111  	91.474498 
4059.262535  	91.441773 
4060.226960  	91.429988 
4061.191384  	91.419214 
4062.155809  	91.475082 
4063.120233  	91.512970 
4064.084658  	91.452054 
4065.049082  	91.405060 
4066.013506  	91.420876 
4066.977931  	91.391539 
4067.942355  	91.371764 
4068.906780  	91.361231 
4069.871204  	91.366628 
4070.835629  	91.377860 
4071.800053  	91.378038 
4072.764478  	91.359762 
4073.728902  	91.340609 
4074.693327  	91.360056 
4075.657751  	91.447725 
4076.622176  	91.430070 
4077.586600  	91.426824 
4078.551024  	91.407193 
4079.515449  	91.338818 
4080.479873  	91.344432 
4081.444298  	91.399170 
4082.408722  	91.340920 
4083.373147  	91.278437 
4084.337571  	91.313184 
4085.301996  	91.373006 
4086.266420  	91.327684 
4087.230845  	91.291514 
4088.195269  	91.292045 
4089.159693  	91.315965 
4090.124118  	91.393244 
4091.088542  	91.413616 
4092.052967  	91.382441 
4093.017391  	91.370343 
4093.981816  	91.337868 
4094.946240  	91.333754 
4095.910665  	91.379627 
4096.875089  	91.461567 
4097.839514  	91.402573 
4098.803938  	91.299088 
4099.768362  	91.314826 
4100.732787  	91.369930 
4101.697211  	91.367747 
4102.661636  	91.375493 
4103.626060  	91.419666 
4104.590485  	91.384812 
4105.554909  	91.304377 
4106.519334  	91.289260 
4107.483758  	91.304010 
4108.448183  	91.371699 
4109.412607  	91.409138 
4110.377031  	91.396569 
4111.341456  	91.446196 
4112.305880  	91.463031 
4113.270305  	91.426223 
4114.234729  	91.434229 
4115.199154  	91.491962 
4116.163578  	91.473165 
4117.128003  	91.401614 
4118.092427  	91.395865 
4119.056852  	91.383177 
4120.021276  	91.352250 
4120.985700  	91.340699 
4121.950125  	91.406958 
4122.914549  	91.428584 
4123.878974  	91.441378 
4124.843398  	91.428890 
4125.807823  	91.431179 
4126.772247  	91.399191 
4127.736672  	91.385234 
4128.701096  	91.402699 
4129.665521  	91.426791 
4130.629945  	91.452291 
4131.594370  	91.501749 
4132.558794  	91.500133 
4133.523218  	91.442324 
4134.487643  	91.449555 
4135.452067  	91.499035 
4136.416492  	91.481013 
4137.380916  	91.451458 
4138.345341  	91.436701 
4139.309765  	91.406172 
4140.274190  	91.454212 
4141.238614  	91.447503 
4142.203039  	91.408875 
4143.167463  	91.454769 
4144.131887  	91.434660 
4145.096312  	91.440838 
4146.060736  	91.479374 
4147.025161  	91.477718 
4147.989585  	91.488276 
4148.954010  	91.461677 
4149.918434  	91.401660 
4150.882859  	91.436910 
4151.847283  	91.483358 
4152.811708  	91.422523 
4153.776132  	91.436499 
4154.740556  	91.495582 
4155.704981  	91.473292 
4156.669405  	91.423160 
4157.633830  	91.395135 
4158.598254  	91.399710 
4159.562679  	91.410550 
4160.527103  	91.416316 
4161.491528  	91.394548 
4162.455952  	91.422812 
4163.420377  	91.458847 
4164.384801  	91.442353 
4165.349225  	91.428328 
4166.313650  	91.437609 
4167.278074  	91.453398 
4168.242499  	91.468837 
4169.206923  	91.478261 
4170.171348  	91.490549 
4171.135772  	91.488716 
4172.100197  	91.475519 
4173.064621  	91.470178 
4174.029046  	91.472213 
4174.993470  	91.428046 
4175.957894  	91.432194 
4176.922319  	91.442768 
4177.886743  	91.411566 
4178.851168  	91.408350 
4179.815592  	91.438188 
4180.780017  	91.444889 
4181.744441  	91.455393 
4182.708866  	91.476687 
4183.673290  	91.470120 
4184.637715  	91.448083 
4185.602139  	91.429957 
4186.566563  	91.365574 
4187.530988  	91.391777 
4188.495412  	91.463039 
4189.459837  	91.491586 
4190.424261  	91.432144 
4191.388686  	91.426290 
4192.353110  	91.503963 
4193.317535  	91.465790 
4194.281959  	91.414217 
4195.246384  	91.427982 
4196.210808  	91.421495 
4197.175233  	91.389211 
4198.139657  	91.389743 
4199.104081  	91.397394 
4200.068506  	91.426411 
4201.032930  	91.507346 
4201.997355  	91.543265 
4202.961779  	91.536718 
4203.926204  	91.538864 
4204.890628  	91.507637 
4205.855053  	91.472084 
4206.819477  	91.471962 
4207.783902  	91.468071 
4208.748326  	91.503945 
4209.712750  	91.499124 
4210.677175  	91.518342 
4211.641599  	91.521582 
4212.606024  	91.511415 
4213.570448  	91.522790 
4214.534873  	91.529993 
4215.499297  	91.434572 
4216.463722  	91.409601 
4217.428146  	91.402862 
4218.392571  	91.396053 
4219.356995  	91.407948 
4220.321419  	91.406837 
4221.285844  	91.460091 
4222.250268  	91.510090 
4223.214693  	91.414751 
4224.179117  	91.353642 
4225.143542  	91.378564 
4226.107966  	91.433673 
4227.072391  	91.463721 
4228.036815  	91.410412 
4229.001240  	91.420932 
4229.965664  	91.441449 
4230.930088  	91.428478 
4231.894513  	91.431806 
4232.858937  	91.414433 
4233.823362  	91.430490 
4234.787786  	91.494573 
4235.752211  	91.526322 
4236.716635  	91.522744 
4237.681060  	91.507013 
4238.645484  	91.450914 
4239.609909  	91.408793 
4240.574333  	91.413125 
4241.538757  	91.431335 
4242.503182  	91.450508 
4243.467606  	91.490652 
4244.432031  	91.431225 
4245.396455  	91.385131 
4246.360880  	91.354534 
4247.325304  	91.347165 
4248.289729  	91.389286 
4249.254153  	91.469094 
4250.218578  	91.516363 
4251.183002  	91.484320 
4252.147427  	91.411415 
4253.111851  	91.382308 
4254.076275  	91.400877 
4255.040700  	91.424708 
4256.005124  	91.440853 
4256.969549  	91.483608 
4257.933973  	91.526176 
4258.898398  	91.508934 
4259.862822  	91.425220 
4260.827247  	91.356341 
4261.791671  	91.345382 
4262.756096  	91.416360 
4263.720520  	91.445799 
4264.684944  	91.461298 
4265.649369  	91.462950 
4266.613793  	91.467856 
4267.578218  	91.451636 
4268.542642  	91.445467 
4269.507067  	91.439367 
4270.471491  	91.392617 
4271.435916  	91.361625 
4272.400340  	91.341834 
4273.364765  	91.360165 
4274.329189  	91.367640 
4275.293613  	91.356916 
4276.258038  	91.370078 
4277.222462  	91.408266 
4278.186887  	91.358260 
4279.151311  	91.327608 
4280.115736  	91.359415 
4281.080160  	91.361713 
4282.044585  	91.386271 
4283.009009  	91.409045 
4283.973434  	91.441069 
4284.937858  	91.376155 
4285.902282  	91.286915 
4286.866707  	91.338194 
4287.831131  	91.401584 
4288.795556  	91.449328 
4289.759980  	91.425061 
4290.724405  	91.342329 
4291.688829  	91.328340 
4292.653254  	91.355762 
4293.617678  	91.414268 
4294.582103  	91.431867 
4295.546527  	91.444902 
4296.510951  	91.475068 
4297.475376  	91.491627 
4298.439800  	91.454546 
4299.404225  	91.454670 
4300.368649  	91.457301 
4301.333074  	91.350538 
4302.297498  	91.251466 
4303.261923  	91.314179 
4304.226347  	91.423522 
4305.190772  	91.527267 
4306.155196  	91.509962 
4307.119620  	91.506213 
4308.084045  	91.493134 
4309.048469  	91.505175 
4310.012894  	91.494569 
4310.977318  	91.535873 
4311.941743  	91.500806 
4312.906167  	91.402451 
4313.870592  	91.369850 
4314.835016  	91.432982 
4315.799441  	91.423599 
4316.763865  	91.408864 
4317.728290  	91.431533 
4318.692714  	91.456743 
4319.657138  	91.494634 
4320.621563  	91.520790 
4321.585987  	91.463405 
4322.550412  	91.453618 
4323.514836  	91.422289 
4324.479261  	91.401295 
4325.443685  	91.405021 
4326.408110  	91.420509 
4327.372534  	91.434764 
4328.336959  	91.489942 
4329.301383  	91.441810 
4330.265807  	91.418847 
4331.230232  	91.463492 
4332.194656  	91.474415 
4333.159081  	91.492221 
4334.123505  	91.488145 
4335.087930  	91.424824 
4336.052354  	91.410580 
4337.016779  	91.484575 
4337.981203  	91.541556 
4338.945628  	91.490429 
4339.910052  	91.406645 
4340.874476  	91.364192 
4341.838901  	91.469782 
4342.803325  	91.456960 
4343.767750  	91.339748 
4344.732174  	91.363786 
4345.696599  	91.458812 
4346.661023  	91.482370 
4347.625448  	91.406883 
4348.589872  	91.392325 
4349.554297  	91.442687 
4350.518721  	91.476107 
4351.483145  	91.516199 
4352.447570  	91.477358 
4353.411994  	91.488846 
4354.376419  	91.471812 
4355.340843  	91.449412 
4356.305268  	91.477460 
4357.269692  	91.511810 
4358.234117  	91.538640 
4359.198541  	91.481442 
4360.162966  	91.491557 
4361.127390  	91.519739 
4362.091814  	91.454038 
4363.056239  	91.406482 
4364.020663  	91.470382 
4364.985088  	91.497378 
4365.949512  	91.404996 
4366.913937  	91.344871 
4367.878361  	91.362693 
4368.842786  	91.386811 
4369.807210  	91.432193 
4370.771635  	91.427930 
4371.736059  	91.414690 
4372.700484  	91.474407 
4373.664908  	91.516597 
4374.629332  	91.497818 
4375.593757  	91.492975 
4376.558181  	91.502120 
4377.522606  	91.493831 
4378.487030  	91.454184 
4379.451455  	91.424551 
4380.415879  	91.421683 
4381.380304  	91.420344 
4382.344728  	91.420818 
4383.309153  	91.414358 
4384.273577  	91.394832 
4385.238001  	91.350240 
4386.202426  	91.322985 
4387.166850  	91.368794 
4388.131275  	91.406203 
4389.095699  	91.423462 
4390.060124  	91.426139 
4391.024548  	91.400778 
4391.988973  	91.432759 
4392.953397  	91.484982 
4393.917822  	91.454756 
4394.882246  	91.414372 
4395.846670  	91.401611 
4396.811095  	91.362208 
4397.775519  	91.377982 
4398.739944  	91.466564 
4399.704368  	91.531839 
4400.668793  	91.524719 
4401.633217  	91.400463 
4402.597642  	91.399969 
4403.562066  	91.524506 
4404.526491  	91.520847 
4405.490915  	91.487867 
4406.455339  	91.440096 
4407.419764  	91.429135 
4408.384188  	91.472502 
4409.348613  	91.438923 
4410.313037  	91.362891 
4411.277462  	91.334319 
4412.241886  	91.362254 
4413.206311  	91.386410 
4414.170735  	91.397794 
4415.135160  	91.405904 
4416.099584  	91.417165 
4417.064008  	91.392983 
4418.028433  	91.306414 
4418.992857  	91.338396 
4419.957282  	91.348734 
4420.921706  	91.316296 
4421.886131  	91.330286 
4422.850555  	91.360659 
4423.814980  	91.335841 
4424.779404  	91.366625 
4425.743829  	91.376163 
4426.708253  	91.374041 
4427.672677  	91.351355 
4428.637102  	91.373325 
4429.601526  	91.418654 
4430.565951  	91.431304 
4431.530375  	91.402368 
4432.494800  	91.324048 
4433.459224  	91.274408 
4434.423649  	91.324013 
4435.388073  	91.374867 
4436.352498  	91.429401 
4437.316922  	91.447104 
4438.281347  	91.468916 
4439.245771  	91.422194 
4440.210195  	91.387260 
4441.174620  	91.380049 
4442.139044  	91.419226 
4443.103469  	91.450740 
4444.067893  	91.394397 
4445.032318  	91.387061 
4445.996742  	91.437693 
4446.961167  	91.436974 
4447.925591  	91.424202 
4448.890016  	91.413357 
4449.854440  	91.365077 
4450.818864  	91.352679 
4451.783289  	91.369187 
4452.747713  	91.323341 
4453.712138  	91.331006 
4454.676562  	91.330756 
4455.640987  	91.364614 
4456.605411  	91.406486 
4457.569836  	91.378682 
4458.534260  	91.311368 
4459.498685  	91.309386 
4460.463109  	91.333019 
4461.427533  	91.364870 
4462.391958  	91.409788 
4463.356382  	91.406675 
4464.320807  	91.341030 
4465.285231  	91.317520 
4466.249656  	91.330776 
4467.214080  	91.349797 
4468.178505  	91.390742 
4469.142929  	91.416603 
4470.107354  	91.398968 
4471.071778  	91.387240 
4472.036202  	91.402133 
4473.000627  	91.448151 
4473.965051  	91.415136 
4474.929476  	91.391081 
4475.893900  	91.435016 
4476.858325  	91.453833 
4477.822749  	91.404090 
4478.787174  	91.401675 
4479.751598  	91.441855 
4480.716023  	91.439708 
4481.680447  	91.370945 
4482.644871  	91.383270 
4483.609296  	91.433399 
4484.573720  	91.489703 
4485.538145  	91.480686 
4486.502569  	91.408290 
4487.466994  	91.388857 
4488.431418  	91.466002 
4489.395843  	91.429629 
4490.360267  	91.387647 
4491.324692  	91.417684 
4492.289116  	91.448310 
4493.253541  	91.416123 
4494.217965  	91.413318 
4495.182389  	91.400405 
4496.146814  	91.390881 
4497.111238  	91.407636 
4498.075663  	91.484125 
4499.040087  	91.489473 
4500.004512  	91.487123 
4500.968936  	91.487296 
4501.933361  	91.468159 
4502.897785  	91.457504 
4503.862210  	91.456984 
4504.826634  	91.487069 
4505.791058  	91.488007 
4506.755483  	91.474294 
4507.719907  	91.489255 
4508.684332  	91.518225 
4509.648756  	91.441758 
4510.613181  	91.339793 
4511.577605  	91.465819 
4512.542030  	91.517570 
4513.506454  	91.536297 
4514.470879  	91.472352 
4515.435303  	91.371958 
4516.399727  	91.377626 
4517.364152  	91.404457 
4518.328576  	91.449027 
4519.293001  	91.476020 
4520.257425  	91.461111 
4521.221850  	91.383379 
4522.186274  	91.408965 
4523.150699  	91.418815 
4524.115123  	91.344642 
4525.079548  	91.285736 
4526.043972  	91.296175 
4527.008396  	91.397097 
4527.972821  	91.406929 
4528.937245  	91.401594 
4529.901670  	91.407987 
4530.866094  	91.467737 
4531.830519  	91.491681 
4532.794943  	91.407156 
4533.759368  	91.378768 
4534.723792  	91.461304 
4535.688217  	91.418152 
4536.652641  	91.366049 
4537.617065  	91.422755 
4538.581490  	91.505587 
4539.545914  	91.488013 
4540.510339  	91.487544 
4541.474763  	91.399042 
4542.439188  	91.354363 
4543.403612  	91.414402 
4544.368037  	91.484395 
4545.332461  	91.406216 
4546.296886  	91.418458 
4547.261310  	91.439696 
4548.225734  	91.453796 
4549.190159  	91.466201 
4550.154583  	91.479509 
4551.119008  	91.399141 
4552.083432  	91.337395 
4553.047857  	91.404416 
4554.012281  	91.561852 
4554.976706  	91.504426 
4555.941130  	91.418861 
4556.905555  	91.380457 
4557.869979  	91.454503 
4558.834404  	91.510658 
4559.798828  	91.397027 
4560.763252  	91.331472 
4561.727677  	91.377806 
4562.692101  	91.441770 
4563.656526  	91.552169 
4564.620950  	91.545045 
4565.585375  	91.412566 
4566.549799  	91.388527 
4567.514224  	91.410426 
4568.478648  	91.408534 
4569.443073  	91.423133 
4570.407497  	91.400801 
4571.371921  	91.396644 
4572.336346  	91.413410 
4573.300770  	91.434882 
4574.265195  	91.401694 
4575.229619  	91.338491 
4576.194044  	91.305924 
4577.158468  	91.352116 
4578.122893  	91.453620 
4579.087317  	91.430257 
4580.051742  	91.371584 
4581.016166  	91.450796 
4581.980590  	91.492055 
4582.945015  	91.456254 
4583.909439  	91.478088 
4584.873864  	91.466563 
4585.838288  	91.383715 
4586.802713  	91.394765 
4587.767137  	91.375698 
4588.731562  	91.390780 
4589.695986  	91.400395 
4590.660411  	91.379764 
4591.624835  	91.388932 
4592.589259  	91.398051 
4593.553684  	91.380408 
4594.518108  	91.372281 
4595.482533  	91.384218 
4596.446957  	91.387537 
4597.411382  	91.288171 
4598.375806  	91.347435 
4599.340231  	91.455870 
4600.304655  	91.426608 
4601.269080  	91.374180 
4602.233504  	91.371909 
4603.197928  	91.391670 
4604.162353  	91.417824 
4605.126777  	91.403845 
4606.091202  	91.435544 
4607.055626  	91.450197 
4608.020051  	91.402413 
4608.984475  	91.365241 
4609.948900  	91.419115 
4610.913324  	91.462576 
4611.877749  	91.449538 
4612.842173  	91.388346 
4613.806598  	91.457496 
4614.771022  	91.497380 
4615.735446  	91.504085 
4616.699871  	91.407421 
4617.664295  	91.293529 
4618.628720  	91.369077 
4619.593144  	91.462486 
4620.557569  	91.419472 
4621.521993  	91.352993 
4622.486418  	91.375760 
4623.450842  	91.462993 
4624.415267  	91.425034 
4625.379691  	91.401161 
4626.344115  	91.360525 
4627.308540  	91.408294 
4628.272964  	91.452460 
4629.237389  	91.390458 
4630.201813  	91.350633 
4631.166238  	91.400359 
4632.130662  	91.412050 
4633.095087  	91.339358 
4634.059511  	91.341804 
4635.023936  	91.443419 
4635.988360  	91.460244 
4636.952784  	91.386746 
4637.917209  	91.388585 
4638.881633  	91.398181 
4639.846058  	91.390194 
4640.810482  	91.384917 
4641.774907  	91.295854 
4642.739331  	91.237378 
4643.703756  	91.239116 
4644.668180  	91.264121 
4645.632605  	91.230405 
4646.597029  	91.344568 
4647.561453  	91.461568 
4648.525878  	91.487532 
4649.490302  	91.473422 
4650.454727  	91.451630 
4651.419151  	91.357612 
4652.383576  	91.342652 
4653.348000  	91.357820 
4654.312425  	91.408939 
4655.276849  	91.430881 
4656.241274  	91.369822 
4657.205698  	91.361894 
4658.170122  	91.396976 
4659.134547  	91.384910 
4660.098971  	91.278196 
4661.063396  	91.281523 
4662.027820  	91.361542 
4662.992245  	91.362039 
4663.956669  	91.380128 
4664.921094  	91.424180 
4665.885518  	91.419824 
4666.849943  	91.403440 
4667.814367  	91.318310 
4668.778791  	91.356941 
4669.743216  	91.432469 
4670.707640  	91.410029 
4671.672065  	91.284029 
4672.636489  	91.212943 
4673.600914  	91.295821 
4674.565338  	91.427809 
4675.529763  	91.434488 
4676.494187  	91.442540 
4677.458612  	91.496934 
4678.423036  	91.591217 
4679.387461  	91.610616 
4680.351885  	91.492068 
4681.316309  	91.405277 
4682.280734  	91.316723 
4683.245158  	91.308688 
4684.209583  	91.385421 
4685.174007  	91.425372 
4686.138432  	91.369655 
4687.102856  	91.311216 
4688.067281  	91.309655 
4689.031705  	91.286204 
4689.996130  	91.292048 
4690.960554  	91.360905 
4691.924978  	91.347940 
4692.889403  	91.305579 
4693.853827  	91.301962 
4694.818252  	91.373033 
4695.782676  	91.396950 
4696.747101  	91.332196 
4697.711525  	91.351987 
4698.675950  	91.312258 
4699.640374  	91.187034 