##TITLE=No Description
##DATA TYPE=INFRARED SPECTRUM
##XUNITS=1/CM
##YUNITS=%T
400.236149  	121.644817 
401.200574  	112.193511 
402.164998  	94.767619 
403.129423  	98.945102 
404.093847  	106.721315 
405.058272  	90.691677 
406.022696  	87.179486 
406.987120  	87.556264 
407.951545  	87.018832 
408.915969  	79.030798 
409.880394  	80.801254 
410.844818  	97.236235 
411.809243  	106.573071 
412.773667  	100.419099 
413.738092  	89.513478 
414.702516  	79.322550 
415.666941  	77.680078 
416.631365  	85.645614 
417.595789  	94.943911 
418.560214  	94.894072 
419.524638  	88.136707 
420.489063  	84.947783 
421.453487  	84.275289 
422.417912  	85.703634 
423.382336  	87.382825 
424.346761  	85.534358 
425.311185  	82.770849 
426.275610  	85.294888 
427.240034  	86.559313 
428.204458  	87.539838 
429.168883  	88.359999 
430.133307  	86.732432 
431.097732  	83.542748 
432.062156  	80.529664 
433.026581  	78.418451 
433.991005  	79.080052 
434.955430  	79.981653 
435.919854  	79.793059 
436.884279  	79.718410 
437.848703  	81.075687 
438.813127  	82.593881 
439.777552  	83.520582 
440.741976  	84.029650 
441.706401  	84.307386 
442.670825  	84.740009 
443.635250  	84.438030 
444.599674  	84.113195 
445.564099  	83.881296 
446.528523  	84.229444 
447.492948  	85.688139 
448.457372  	86.675393 
449.421796  	85.672864 
450.386221  	84.534352 
451.350645  	85.105776 
452.315070  	84.616892 
453.279494  	84.698908 
454.243919  	86.376984 
455.208343  	86.162880 
456.172768  	85.406750 
457.137192  	85.831711 
458.101617  	86.109433 
459.066041  	85.798908 
460.030466  	85.433642 
460.994890  	85.585823 
461.959314  	85.685433 
462.923739  	85.638356 
463.888163  	85.696535 
464.852588  	85.802860 
465.817012  	86.442337 
466.781437  	86.054959 
467.745861  	84.529953 
468.710286  	83.585466 
469.674710  	83.011366 
470.639135  	83.464885 
471.603559  	83.422045 
472.567983  	84.191235 
473.532408  	85.377182 
474.496832  	84.553264 
475.461257  	84.871683 
476.425681  	84.612759 
477.390106  	84.981871 
478.354530  	85.879888 
479.318955  	85.402028 
480.283379  	84.598470 
481.247804  	84.720814 
482.212228  	84.810162 
483.176652  	85.349316 
484.141077  	85.431466 
485.105501  	84.298866 
486.069926  	83.672382 
487.034350  	84.339083 
487.998775  	84.928251 
488.963199  	85.099157 
489.927624  	85.170909 
490.892048  	84.100637 
491.856473  	83.102544 
492.820897  	83.377411 
493.785321  	83.600977 
494.749746  	83.031691 
495.714170  	82.822896 
496.678595  	82.515307 
497.643019  	81.990319 
498.607444  	81.836388 
499.571868  	81.238669 
500.536293  	80.787797 
501.500717  	80.564526 
502.465142  	80.262010 
503.429566  	80.195176 
504.393990  	80.197964 
505.358415  	80.195231 
506.322839  	79.465584 
507.287264  	79.458502 
508.251688  	80.841769 
509.216113  	82.301465 
510.180537  	83.076444 
511.144962  	83.677899 
512.109386  	84.456398 
513.073811  	84.890949 
514.038235  	84.878567 
515.002660  	84.580047 
515.967084  	84.260987 
516.931508  	84.244870 
517.895933  	84.799690 
518.860357  	84.873431 
519.824782  	84.468178 
520.789206  	85.125933 
521.753631  	85.601449 
522.718055  	85.393899 
523.682480  	84.826611 
524.646904  	84.532039 
525.611329  	84.429453 
526.575753  	84.773116 
527.540177  	85.575941 
528.504602  	86.117800 
529.469026  	86.254060 
530.433451  	86.205364 
531.397875  	86.454832 
532.362300  	86.674605 
533.326724  	86.916540 
534.291149  	86.736641 
535.255573  	86.438451 
536.219998  	86.418110 
537.184422  	87.064602 
538.148846  	87.040406 
539.113271  	87.015782 
540.077695  	86.986733 
541.042120  	87.228992 
542.006544  	87.527000 
542.970969  	87.612148 
543.935393  	87.586684 
544.899818  	87.399982 
545.864242  	87.351042 
546.828667  	87.483472 
547.793091  	87.435356 
548.757515  	87.690021 
549.721940  	88.093258 
550.686364  	88.161368 
551.650789  	88.530793 
552.615213  	88.106400 
553.579638  	88.199381 
554.544062  	88.171840 
555.508487  	88.050385 
556.472911  	88.194373 
557.437336  	88.134194 
558.401760  	88.074645 
559.366184  	88.310122 
560.330609  	88.312551 
561.295033  	88.348492 
562.259458  	88.399181 
563.223882  	87.979165 
564.188307  	87.648384 
565.152731  	87.961374 
566.117156  	88.012899 
567.081580  	87.680557 
568.046005  	87.818436 
569.010429  	87.964849 
569.974853  	88.008704 
570.939278  	87.903969 
571.903702  	87.729884 
572.868127  	87.825066 
573.832551  	87.797141 
574.796976  	87.872535 
575.761400  	87.295163 
576.725825  	87.283877 
577.690249  	87.718908 
578.654674  	87.970222 
579.619098  	87.942885 
580.583523  	87.619171 
581.547947  	87.911409 
582.512371  	88.245470 
583.476796  	88.062618 
584.441220  	87.693152 
585.405645  	87.665848 
586.370069  	88.093276 
587.334494  	88.282016 
588.298918  	88.388582 
589.263343  	88.303251 
590.227767  	88.194245 
591.192192  	87.852448 
592.156616  	87.692875 
593.121040  	88.121357 
594.085465  	88.287153 
595.049889  	88.257664 
596.014314  	88.182328 
596.978738  	88.154700 
597.943163  	88.142408 
598.907587  	88.044204 
599.872012  	87.790621 
600.836436  	87.868781 
601.800861  	88.038607 
602.765285  	87.846740 
603.729709  	87.871834 
604.694134  	88.002229 
605.658558  	88.003503 
606.622983  	87.980964 
607.587407  	87.710951 
608.551832  	87.695720 
609.516256  	87.976957 
610.480681  	87.956006 
611.445105  	87.863422 
612.409530  	87.889268 
613.373954  	87.961029 
614.338378  	87.707234 
615.302803  	87.427574 
616.267227  	87.577308 
617.231652  	87.698204 
618.196076  	87.722266 
619.160501  	87.684734 
620.124925  	87.297165 
621.089350  	87.109780 
622.053774  	87.182456 
623.018199  	87.444539 
623.982623  	87.269830 
624.947047  	87.093702 
625.911472  	86.890058 
626.875896  	86.888983 
627.840321  	86.701169 
628.804745  	86.582472 
629.769170  	86.162050 
630.733594  	85.468553 
631.698019  	85.236464 
632.662443  	85.417989 
633.626868  	85.739085 
634.591292  	86.173310 
635.555717  	86.239242 
636.520141  	86.661993 
637.484565  	86.740807 
638.448990  	86.646818 
639.413414  	86.618862 
640.377839  	86.652325 
641.342263  	86.521898 
642.306688  	86.250300 
643.271112  	86.285404 
644.235537  	86.331419 
645.199961  	86.288571 
646.164386  	86.324566 
647.128810  	86.212589 
648.093234  	86.000103 
649.057659  	85.840485 
650.022083  	85.872906 
650.986508  	85.918696 
651.950932  	85.768384 
652.915357  	85.613326 
653.879781  	85.606152 
654.844206  	85.585205 
655.808630  	85.439156 
656.773055  	85.297199 
657.737479  	85.297225 
658.701903  	85.108144 
659.666328  	84.866600 
660.630752  	84.813431 
661.595177  	84.807121 
662.559601  	84.727746 
663.524026  	84.623538 
664.488450  	84.488795 
665.452875  	84.324281 
666.417299  	84.301103 
667.381724  	84.415681 
668.346148  	83.550562 
669.310572  	83.225086 
670.274997  	83.292625 
671.239421  	83.275900 
672.203846  	83.159774 
673.168270  	82.907852 
674.132695  	82.474651 
675.097119  	82.076257 
676.061544  	81.658882 
677.025968  	81.330126 
677.990393  	80.979977 
678.954817  	80.704395 
679.919241  	80.528816 
680.883666  	80.334437 
681.848090  	80.311103 
682.812515  	80.320787 
683.776939  	80.125536 
684.741364  	79.896576 
685.705788  	79.616920 
686.670213  	79.469309 
687.634637  	79.067808 
688.599062  	78.651437 
689.563486  	78.185889 
690.527910  	77.767202 
691.492335  	77.324046 
692.456759  	76.827612 
693.421184  	76.174608 
694.385608  	75.532707 
695.350033  	74.740072 
696.314457  	73.789307 
697.278882  	72.666707 
698.243306  	71.482553 
699.207731  	70.294474 
700.172155  	69.143516 
701.136580  	67.920489 
702.101004  	66.835072 
703.065428  	65.869634 
704.029853  	64.913822 
704.994277  	63.843280 
705.958702  	62.837047 
706.923126  	61.696170 
707.887551  	60.414693 
708.851975  	59.065156 
709.816400  	57.634785 
710.780824  	56.035147 
711.745249  	54.327321 
712.709673  	52.601618 
713.674097  	50.697754 
714.638522  	48.617895 
715.602946  	46.431031 
716.567371  	44.235377 
717.531795  	42.200860 
718.496220  	40.302768 
719.460644  	38.863790 
720.425069  	37.895485 
721.389493  	37.618209 
722.353918  	37.903255 
723.318342  	38.837208 
724.282766  	40.616879 
725.247191  	43.159824 
726.211615  	46.055290 
727.176040  	49.188493 
728.140464  	52.219575 
729.104889  	55.099944 
730.069313  	57.926779 
731.033738  	60.884725 
731.998162  	63.843497 
732.962587  	66.814720 
733.927011  	69.739446 
734.891435  	72.653434 
735.855860  	75.537065 
736.820284  	78.334019 
737.784709  	80.920955 
738.749133  	83.244856 
739.713558  	85.187966 
740.677982  	86.801280 
741.642407  	88.148665 
742.606831  	89.295790 
743.571256  	90.086433 
744.535680  	90.599375 
745.500104  	91.090551 
746.464529  	91.536026 
747.428953  	91.711399 
748.393378  	91.812761 
749.357802  	91.835379 
750.322227  	91.890376 
751.286651  	91.923981 
752.251076  	92.007731 
753.215500  	92.071574 
754.179925  	92.063809 
755.144349  	92.057921 
756.108774  	92.048006 
757.073198  	92.037680 
758.037622  	92.047745 
759.002047  	91.873164 
759.966471  	91.753342 
760.930896  	91.727093 
761.895320  	91.673457 
762.859745  	91.617349 
763.824169  	91.626680 
764.788594  	91.514746 
765.753018  	91.328443 
766.717443  	91.149383 
767.681867  	91.002369 
768.646291  	90.836833 
769.610716  	90.729439 
770.575140  	90.588589 
771.539565  	90.453000 
772.503989  	90.170730 
773.468414  	90.010084 
774.432838  	90.001669 
775.397263  	89.914452 
776.361687  	89.722628 
777.326112  	89.614990 
778.290536  	89.514156 
779.254960  	89.339009 
780.219385  	89.067993 
781.183809  	89.131135 
782.148234  	88.954587 
783.112658  	88.844879 
784.077083  	88.414667 
785.041507  	87.906667 
786.005932  	87.590923 
786.970356  	87.063011 
787.934781  	86.485354 
788.899205  	85.996604 
789.863629  	85.667677 
790.828054  	85.299176 
791.792478  	84.872825 
792.756903  	84.674797 
793.721327  	84.864242 
794.685752  	85.280384 
795.650176  	85.941400 
796.614601  	86.701750 
797.579025  	87.295000 
798.543450  	87.523486 
799.507874  	87.633830 
800.472298  	87.848205 
801.436723  	87.949254 
802.401147  	87.884809 
803.365572  	87.839035 
804.329996  	87.883663 
805.294421  	87.838194 
806.258845  	87.785864 
807.223270  	87.817300 
808.187694  	87.859866 
809.152119  	87.870583 
810.116543  	87.847862 
811.080967  	87.848326 
812.045392  	87.832110 
813.009816  	87.762678 
813.974241  	87.728566 
814.938665  	87.770157 
815.903090  	87.766793 
816.867514  	87.708426 
817.831939  	87.667506 
818.796363  	87.654150 
819.760788  	87.581964 
820.725212  	87.528020 
821.689637  	87.416738 
822.654061  	87.310430 
823.618485  	87.182694 
824.582910  	87.026977 
825.547334  	86.790183 
826.511759  	86.546307 
827.476183  	86.392672 
828.440608  	86.207121 
829.405032  	85.895305 
830.369457  	85.570364 
831.333881  	85.399950 
832.298306  	85.214412 
833.262730  	84.873917 
834.227154  	84.531104 
835.191579  	84.203758 
836.156003  	83.819502 
837.120428  	83.350636 
838.084852  	82.860311 
839.049277  	82.457996 
840.013701  	82.047036 
840.978126  	81.569823 
841.942550  	81.174071 
842.906975  	80.633557 
843.871399  	79.985071 
844.835823  	79.427215 
845.800248  	78.978716 
846.764672  	78.688912 
847.729097  	78.657028 
848.693521  	78.802703 
849.657946  	79.142100 
850.622370  	79.666136 
851.586795  	80.136647 
852.551219  	80.437452 
853.515644  	80.753989 
854.480068  	81.052248 
855.444492  	81.187867 
856.408917  	81.323088 
857.373341  	81.528545 
858.337766  	81.692567 
859.302190  	81.786059 
860.266615  	81.860020 
861.231039  	81.899950 
862.195464  	81.787436 
863.159888  	81.444114 
864.124313  	81.025382 
865.088737  	80.464808 
866.053161  	79.588661 
867.017586  	78.316459 
867.982010  	76.569190 
868.946435  	74.288126 
869.910859  	71.425472 
870.875284  	68.485583 
871.839708  	66.852350 
872.804133  	67.773328 
873.768557  	70.691667 
874.732982  	73.871326 
875.697406  	76.350688 
876.661831  	78.128102 
877.626255  	79.578415 
878.590679  	80.877542 
879.555104  	81.989267 
880.519528  	82.910444 
881.483953  	83.701305 
882.448377  	84.437677 
883.412802  	85.134844 
884.377226  	85.772250 
885.341651  	86.249960 
886.306075  	86.581063 
887.270500  	86.952690 
888.234924  	87.244183 
889.199348  	87.304417 
890.163773  	87.267777 
891.128197  	87.301325 
892.092622  	87.288573 
893.057046  	87.219898 
894.021471  	87.193345 
894.985895  	87.191302 
895.950320  	87.104878 
896.914744  	87.021049 
897.879169  	87.025071 
898.843593  	87.072340 
899.808017  	87.139619 
900.772442  	87.173495 
901.736866  	87.257923 
902.701291  	87.470010 
903.665715  	87.699504 
904.630140  	87.843302 
905.594564  	87.963498 
906.558989  	88.185856 
907.523413  	88.440386 
908.487838  	88.568025 
909.452262  	88.706672 
910.416686  	88.927220 
911.381111  	89.138961 
912.345535  	89.211680 
913.309960  	89.265940 
914.274384  	89.306188 
915.238809  	89.327623 
916.203233  	89.345429 
917.167658  	89.424857 
918.132082  	89.486483 
919.096507  	89.516364 
920.060931  	89.591092 
921.025355  	89.629522 
921.989780  	89.559342 
922.954204  	89.469704 
923.918629  	89.426622 
924.883053  	89.403544 
925.847478  	89.379983 
926.811902  	89.320252 
927.776327  	89.261157 
928.740751  	89.214733 
929.705176  	89.208460 
930.669600  	89.149667 
931.634024  	89.075702 
932.598449  	89.044514 
933.562873  	88.986633 
934.527298  	88.900357 
935.491722  	88.767647 
936.456147  	88.694769 
937.420571  	88.695100 
938.384996  	88.606612 
939.349420  	88.504266 
940.313845  	88.466735 
941.278269  	88.399426 
942.242694  	88.267480 
943.207118  	88.133599 
944.171542  	88.022233 
945.135967  	87.914230 
946.100391  	87.782417 
947.064816  	87.627832 
948.029240  	87.527798 
948.993665  	87.427403 
949.958089  	87.289828 
950.922514  	87.134382 
951.886938  	86.981950 
952.851363  	86.761153 
953.815787  	86.497331 
954.780211  	86.315438 
955.744636  	86.172953 
956.709060  	85.953564 
957.673485  	85.635574 
958.637909  	85.303460 
959.602334  	84.979056 
960.566758  	84.667121 
961.531183  	84.321795 
962.495607  	83.922678 
963.460032  	83.539890 
964.424456  	83.114946 
965.388880  	82.601051 
966.353305  	82.132740 
967.317729  	81.741918 
968.282154  	81.362186 
969.246578  	80.995726 
970.211003  	80.749333 
971.175427  	80.640953 
972.139852  	80.673569 
973.104276  	80.858469 
974.068701  	81.195813 
975.033125  	81.622110 
975.997549  	82.070788 
976.961974  	82.505987 
977.926398  	82.972565 
978.890823  	83.422563 
979.855247  	83.764704 
980.819672  	84.037381 
981.784096  	84.327763 
982.748521  	84.578180 
983.712945  	84.677622 
984.677370  	84.687847 
985.641794  	84.719467 
986.606218  	84.739202 
987.570643  	84.704730 
988.535067  	84.672366 
989.499492  	84.700022 
990.463916  	84.731038 
991.428341  	84.805607 
992.392765  	84.846790 
993.357190  	84.849183 
994.321614  	84.821122 
995.286039  	84.767519 
996.250463  	84.689829 
997.214888  	84.564239 
998.179312  	84.419508 
999.143736  	84.247515 
1000.108161  	84.021118 
1001.072585  	83.788193 
1002.037010  	83.572525 
1003.001434  	83.281581 
1003.965859  	82.928263 
1004.930283  	82.517223 
1005.894708  	82.042928 
1006.859132  	81.453242 
1007.823557  	80.709106 
1008.787981  	79.872280 
1009.752405  	78.878375 
1010.716830  	77.607202 
1011.681254  	76.020891 
1012.645679  	74.094062 
1013.610103  	71.755735 
1014.574528  	69.222230 
1015.538952  	66.950754 
1016.503377  	65.366776 
1017.467801  	64.705694 
1018.432226  	64.984697 
1019.396650  	65.924487 
1020.361074  	67.266644 
1021.325499  	68.740506 
1022.289923  	70.042003 
1023.254348  	71.283927 
1024.218772  	72.806190 
1025.183197  	74.748606 
1026.147621  	76.792364 
1027.112046  	78.541911 
1028.076470  	79.778547 
1029.040895  	80.508639 
1030.005319  	80.889777 
1030.969743  	81.022456 
1031.934168  	81.070702 
1032.898592  	81.053073 
1033.863017  	80.936715 
1034.827441  	80.740571 
1035.791866  	80.513444 
1036.756290  	80.319116 
1037.720715  	80.122809 
1038.685139  	79.899806 
1039.649564  	79.727255 
1040.613988  	79.616356 
1041.578412  	79.471150 
1042.542837  	79.381129 
1043.507261  	79.370830 
1044.471686  	79.338930 
1045.436110  	79.344706 
1046.400535  	79.436636 
1047.364959  	79.554560 
1048.329384  	79.629308 
1049.293808  	79.717598 
1050.258233  	79.891841 
1051.222657  	80.060916 
1052.187081  	80.148663 
1053.151506  	80.194007 
1054.115930  	80.268701 
1055.080355  	80.291048 
1056.044779  	80.217258 
1057.009204  	80.091064 
1057.973628  	79.906044 
1058.938053  	79.695537 
1059.902477  	79.410976 
1060.866902  	79.048365 
1061.831326  	78.725093 
1062.795751  	78.355055 
1063.760175  	77.821981 
1064.724599  	77.239539 
1065.689024  	76.713706 
1066.653448  	76.142704 
1067.617873  	75.452729 
1068.582297  	74.720659 
1069.546722  	73.974399 
1070.511146  	73.159438 
1071.475571  	72.265108 
1072.439995  	71.356269 
1073.404420  	70.391221 
1074.368844  	69.268314 
1075.333268  	68.045537 
1076.297693  	66.779157 
1077.262117  	65.493625 
1078.226542  	64.169825 
1079.190966  	62.840323 
1080.155391  	61.567164 
1081.119815  	60.413684 
1082.084240  	59.315932 
1083.048664  	58.342907 
1084.013089  	57.525700 
1084.977513  	56.796516 
1085.941937  	56.089858 
1086.906362  	55.525674 
1087.870786  	55.059387 
1088.835211  	54.573858 
1089.799635  	54.073178 
1090.764060  	53.628077 
1091.728484  	53.299452 
1092.692909  	52.993046 
1093.657333  	52.678148 
1094.621758  	52.494005 
1095.586182  	52.474169 
1096.550606  	52.455150 
1097.515031  	52.498782 
1098.479455  	52.726992 
1099.443880  	53.049672 
1100.408304  	53.366493 
1101.372729  	53.773298 
1102.337153  	54.365153 
1103.301578  	54.985639 
1104.266002  	55.559488 
1105.230427  	56.193669 
1106.194851  	56.942263 
1107.159275  	57.669837 
1108.123700  	58.323016 
1109.088124  	58.943119 
1110.052549  	59.511298 
1111.016973  	59.938231 
1111.981398  	60.204332 
1112.945822  	60.442535 
1113.910247  	60.671313 
1114.874671  	60.735942 
1115.839096  	60.646104 
1116.803520  	60.509532 
1117.767945  	60.330418 
1118.732369  	60.146993 
1119.696793  	60.077908 
1120.661218  	60.154435 
1121.625642  	60.296725 
1122.590067  	60.497655 
1123.554491  	60.781093 
1124.518916  	61.152113 
1125.483340  	61.592758 
1126.447765  	62.076255 
1127.412189  	62.661351 
1128.376614  	63.385525 
1129.341038  	64.180942 
1130.305462  	65.111078 
1131.269887  	66.203957 
1132.234311  	67.351061 
1133.198736  	68.559138 
1134.163160  	69.860577 
1135.127585  	71.212565 
1136.092009  	72.563900 
1137.056434  	73.910650 
1138.020858  	75.265702 
1138.985283  	76.514376 
1139.949707  	77.607562 
1140.914131  	78.660632 
1141.878556  	79.643618 
1142.842980  	80.515579 
1143.807405  	81.366210 
1144.771829  	82.178560 
1145.736254  	82.905564 
1146.700678  	83.568225 
1147.665103  	84.139561 
1148.629527  	84.651935 
1149.593952  	85.165259 
1150.558376  	85.640206 
1151.522800  	86.042977 
1152.487225  	86.384925 
1153.451649  	86.697257 
1154.416074  	87.026295 
1155.380498  	87.278282 
1156.344923  	87.478066 
1157.309347  	87.683388 
1158.273772  	87.831013 
1159.238196  	87.879647 
1160.202621  	87.978653 
1161.167045  	88.074476 
1162.131469  	88.075952 
1163.095894  	88.045031 
1164.060318  	88.029713 
1165.024743  	87.953993 
1165.989167  	87.798746 
1166.953592  	87.557410 
1167.918016  	87.252161 
1168.882441  	86.910223 
1169.846865  	86.511844 
1170.811290  	86.116071 
1171.775714  	85.807913 
1172.740138  	85.595359 
1173.704563  	85.422068 
1174.668987  	85.289412 
1175.633412  	85.371604 
1176.597836  	85.551851 
1177.562261  	85.699039 
1178.526685  	85.840909 
1179.491110  	86.046693 
1180.455534  	86.273778 
1181.419959  	86.488249 
1182.384383  	86.666986 
1183.348808  	86.831379 
1184.313232  	86.998683 
1185.277656  	87.069762 
1186.242081  	87.062740 
1187.206505  	87.062288 
1188.170930  	87.036636 
1189.135354  	86.920313 
1190.099779  	86.786489 
1191.064203  	86.679012 
1192.028628  	86.477297 
1192.993052  	86.176311 
1193.957477  	85.911386 
1194.921901  	85.663248 
1195.886325  	85.334687 
1196.850750  	84.927876 
1197.815174  	84.536393 
1198.779599  	84.194637 
1199.744023  	83.864695 
1200.708448  	83.450798 
1201.672872  	83.006997 
1202.637297  	82.611151 
1203.601721  	82.214402 
1204.566146  	81.762161 
1205.530570  	81.312519 
1206.494994  	80.890593 
1207.459419  	80.469828 
1208.423843  	79.983847 
1209.388268  	79.487285 
1210.352692  	79.005161 
1211.317117  	78.430676 
1212.281541  	77.813827 
1213.245966  	77.237716 
1214.210390  	76.599545 
1215.174815  	75.863071 
1216.139239  	75.073889 
1217.103663  	74.261160 
1218.068088  	73.401036 
1219.032512  	72.484488 
1219.996937  	71.574321 
1220.961361  	70.701347 
1221.925786  	69.822487 
1222.890210  	68.962268 
1223.854635  	68.160106 
1224.819059  	67.356515 
1225.783484  	66.489769 
1226.747908  	65.592394 
1227.712332  	64.629573 
1228.676757  	63.489262 
1229.641181  	62.190970 
1230.605606  	60.833805 
1231.570030  	59.428513 
1232.534455  	57.996899 
1233.498879  	56.543130 
1234.463304  	55.159747 
1235.427728  	53.896107 
1236.392153  	52.723054 
1237.356577  	51.676446 
1238.321002  	50.825111 
1239.285426  	50.144209 
1240.249850  	49.602082 
1241.214275  	49.214263 
1242.178699  	48.991900 
1243.143124  	48.851129 
1244.107548  	48.782277 
1245.071973  	48.853663 
1246.036397  	49.015363 
1247.000822  	49.188303 
1247.965246  	49.371138 
1248.929671  	49.592064 
1249.894095  	49.877105 
1250.858519  	50.161923 
1251.822944  	50.384269 
1252.787368  	50.623825 
1253.751793  	50.923140 
1254.716217  	51.159680 
1255.680642  	51.358767 
1256.645066  	51.583905 
1257.609491  	51.808135 
1258.573915  	51.998092 
1259.538340  	52.177585 
1260.502764  	52.423935 
1261.467188  	52.859634 
1262.431613  	53.319092 
1263.396037  	53.822880 
1264.360462  	54.407239 
1265.324886  	55.026850 
1266.289311  	55.695716 
1267.253735  	56.438109 
1268.218160  	57.201337 
1269.182584  	57.979999 
1270.147009  	58.737641 
1271.111433  	59.540101 
1272.075857  	60.339824 
1273.040282  	61.195182 
1274.004706  	61.960415 
1274.969131  	62.704221 
1275.933555  	63.426622 
1276.897980  	64.145150 
1277.862404  	64.847857 
1278.826829  	65.538564 
1279.791253  	66.201115 
1280.755678  	66.862436 
1281.720102  	67.568911 
1282.684526  	68.262194 
1283.648951  	68.902956 
1284.613375  	69.542498 
1285.577800  	70.213696 
1286.542224  	70.857466 
1287.506649  	71.385547 
1288.471073  	72.047018 
1289.435498  	72.868285 
1290.399922  	73.610913 
1291.364347  	74.340073 
1292.328771  	75.112094 
1293.293195  	75.885859 
1294.257620  	76.673632 
1295.222044  	77.407110 
1296.186469  	78.096388 
1297.150893  	78.874283 
1298.115318  	79.772409 
1299.079742  	80.534680 
1300.044167  	81.256881 
1301.008591  	81.981237 
1301.973016  	82.638983 
1302.937440  	83.202200 
1303.901865  	83.713054 
1304.866289  	84.156098 
1305.830713  	84.551981 
1306.795138  	84.912729 
1307.759562  	85.210632 
1308.723987  	85.572168 
1309.688411  	86.081082 
1310.652836  	86.443325 
1311.617260  	86.645758 
1312.581685  	86.637666 
1313.546109  	86.937574 
1314.510534  	87.311722 
1315.474958  	87.730354 
1316.439382  	87.885752 
1317.403807  	87.938365 
1318.368231  	88.081445 
1319.332656  	88.140410 
1320.297080  	88.573949 
1321.261505  	88.933646 
1322.225929  	89.227978 
1323.190354  	89.354913 
1324.154778  	89.508949 
1325.119203  	89.629711 
1326.083627  	89.641777 
1327.048051  	89.610496 
1328.012476  	89.502067 
1328.976900  	89.261373 
1329.941325  	88.842615 
1330.905749  	88.334394 
1331.870174  	87.600384 
1332.834598  	86.574105 
1333.799023  	85.329795 
1334.763447  	83.885611 
1335.727872  	82.122683 
1336.692296  	80.053342 
1337.656720  	78.432290 
1338.621145  	76.710309 
1339.585569  	75.196660 
1340.549994  	75.030979 
1341.514418  	76.184606 
1342.478843  	77.368158 
1343.443267  	78.557334 
1344.407692  	80.068808 
1345.372116  	81.742118 
1346.336541  	83.427782 
1347.300965  	84.951253 
1348.265389  	86.204688 
1349.229814  	87.149243 
1350.194238  	88.078332 
1351.158663  	88.854226 
1352.123087  	89.374622 
1353.087512  	89.777054 
1354.051936  	89.963838 
1355.016361  	89.941187 
1355.980785  	90.326080 
1356.945210  	90.577890 
1357.909634  	90.516571 
1358.874059  	90.566795 
1359.838483  	90.546428 
1360.802907  	89.859036 
1361.767332  	89.307033 
1362.731756  	88.441269 
1363.696181  	88.280133 
1364.660605  	89.304285 
1365.625030  	89.333091 
1366.589454  	89.042102 
1367.553879  	88.562211 
1368.518303  	87.895066 
1369.482728  	87.807500 
1370.447152  	88.159155 
1371.411576  	88.145420 
1372.376001  	88.010146 
1373.340425  	87.382569 
1374.304850  	86.904204 
1375.269274  	87.415738 
1376.233699  	88.315032 
1377.198123  	88.539735 
1378.162548  	88.357198 
1379.126972  	88.482908 
1380.091397  	88.666086 
1381.055821  	88.835894 
1382.020245  	88.870818 
1382.984670  	88.835866 
1383.949094  	88.810850 
1384.913519  	88.736039 
1385.877943  	88.308738 
1386.842368  	87.311597 
1387.806792  	87.036130 
1388.771217  	88.055741 
1389.735641  	88.510138 
1390.700066  	88.425190 
1391.664490  	88.389695 
1392.628914  	88.348165 
1393.593339  	87.745863 
1394.557763  	86.397764 
1395.522188  	86.014732 
1396.486612  	86.497069 
1397.451037  	86.254104 
1398.415461  	85.321015 
1399.379886  	84.638416 
1400.344310  	84.806295 
1401.308735  	84.670629 
1402.273159  	83.772841 
1403.237583  	82.649588 
1404.202008  	81.023592 
1405.166432  	78.995854 
1406.130857  	78.081024 
1407.095281  	77.436204 
1408.059706  	76.529357 
1409.024130  	76.094711 
1409.988555  	76.121436 
1410.952979  	76.870159 
1411.917404  	78.121944 
1412.881828  	80.157884 
1413.846252  	82.176386 
1414.810677  	84.007176 
1415.775101  	85.298658 
1416.739526  	86.138195 
1417.703950  	86.786761 
1418.668375  	87.080044 
1419.632799  	87.464464 
1420.597224  	89.763984 
1421.561648  	90.741278 
1422.526073  	91.046228 
1423.490497  	90.328584 
1424.454922  	90.129933 
1425.419346  	91.333169 
1426.383770  	91.779778 
1427.348195  	91.742651 
1428.312619  	91.487989 
1429.277044  	91.004524 
1430.241468  	90.542786 
1431.205893  	90.917256 
1432.170317  	90.856155 
1433.134742  	90.484543 
1434.099166  	90.502300 
1435.063591  	90.207602 
1436.028015  	88.890164 
1436.992439  	87.797732 
1437.956864  	89.146708 
1438.921288  	89.821618 
1439.885713  	89.843575 
1440.850137  	89.793331 
1441.814562  	89.745793 
1442.778986  	89.713876 
1443.743411  	89.603621 
1444.707835  	89.480211 
1445.672260  	89.299989 
1446.636684  	89.027561 
1447.601108  	88.191463 
1448.565533  	88.031740 
1449.529957  	88.777515 
1450.494382  	88.873996 
1451.458806  	88.395878 
1452.423231  	87.992112 
1453.387655  	88.362785 
1454.352080  	87.995520 
1455.316504  	86.897676 
1456.280929  	85.990654 
1457.245353  	85.315281 
1458.209777  	85.565803 
1459.174202  	86.540894 
1460.138626  	88.044021 
1461.103051  	88.939776 
1462.067475  	89.180092 
1463.031900  	89.202452 
1463.996324  	88.790787 
1464.960749  	87.885594 
1465.925173  	88.352507 
1466.889598  	88.817629 
1467.854022  	88.611535 
1468.818446  	88.245869 
1469.782871  	87.603136 
1470.747295  	86.657516 
1471.711720  	84.974485 
1472.676144  	84.181675 
1473.640569  	85.232856 
1474.604993  	87.108839 
1475.569418  	87.509179 
1476.533842  	87.337836 
1477.498267  	88.857643 
1478.462691  	89.804623 
1479.427116  	90.117074 
1480.391540  	90.124217 
1481.355964  	89.844102 
1482.320389  	90.545374 
1483.284813  	91.203048 
1484.249238  	91.487865 
1485.213662  	91.479008 
1486.178087  	91.097658 
1487.142511  	90.633117 
1488.106936  	90.869802 
1489.071360  	90.102546 
1490.035785  	88.820374 
1491.000209  	90.101564 
1491.964633  	91.842424 
1492.929058  	92.558376 
1493.893482  	92.618958 
1494.857907  	92.287776 
1495.822331  	91.244837 
1496.786756  	90.527133 
1497.751180  	91.063173 
1498.715605  	90.431196 
1499.680029  	90.220951 
1500.644454  	90.319365 
1501.608878  	89.419168 
1502.573302  	88.646287 
1503.537727  	88.068173 
1504.502151  	86.909522 
1505.466576  	84.930723 
1506.431000  	81.642563 
1507.395425  	81.651148 
1508.359849  	84.442117 
1509.324274  	86.622251 
1510.288698  	88.353267 
1511.253123  	89.906262 
1512.217547  	90.043348 
1513.181971  	90.913928 
1514.146396  	91.457721 
1515.110820  	90.607063 
1516.075245  	89.617834 
1517.039669  	88.383693 
1518.004094  	90.009415 
1518.968518  	91.331408 
1519.932943  	90.463189 
1520.897367  	88.105891 
1521.861792  	88.403294 
1522.826216  	89.701982 
1523.790640  	90.696624 
1524.755065  	90.353680 
1525.719489  	89.829407 
1526.683914  	90.405059 
1527.648338  	90.144727 
1528.612763  	90.582217 
1529.577187  	91.660020 
1530.541612  	92.017959 
1531.506036  	91.274044 
1532.470461  	90.750183 
1533.434885  	89.850535 
1534.399309  	90.199982 
1535.363734  	91.182509 
1536.328158  	91.677618 
1537.292583  	91.809373 
1538.257007  	90.858084 
1539.221432  	88.315032 
1540.185856  	87.888465 
1541.150281  	89.191470 
1542.114705  	89.192039 
1543.079130  	89.167430 
1544.043554  	89.362132 
1545.007979  	89.068722 
1545.972403  	90.120914 
1546.936827  	91.545319 
1547.901252  	91.828381 
1548.865676  	91.303323 
1549.830101  	89.576179 
1550.794525  	90.008787 
1551.758950  	91.442332 
1552.723374  	91.500795 
1553.687799  	90.671091 
1554.652223  	89.671375 
1555.616648  	90.645278 
1556.581072  	90.900833 
1557.545496  	89.730788 
1558.509921  	85.940202 
1559.474345  	85.397885 
1560.438770  	88.147037 
1561.403194  	90.538679 
1562.367619  	91.354263 
1563.332043  	91.580679 
1564.296468  	91.221296 
1565.260892  	90.865163 
1566.225317  	91.422500 
1567.189741  	91.598056 
1568.154165  	91.137103 
1569.118590  	89.790058 
1570.083014  	89.393548 
1571.047439  	90.664760 
1572.011863  	90.976186 
1572.976288  	90.791297 
1573.940712  	90.531528 
1574.905137  	90.016746 
1575.869561  	88.844942 
1576.833986  	88.002996 
1577.798410  	88.844137 
1578.762834  	89.544479 
1579.727259  	89.894565 
1580.691683  	90.173841 
1581.656108  	90.433436 
1582.620532  	90.701746 
1583.584957  	90.956041 
1584.549381  	91.247232 
1585.513806  	91.451443 
1586.478230  	91.618316 
1587.442655  	91.736328 
1588.407079  	91.800646 
1589.371503  	91.709589 
1590.335928  	91.681362 
1591.300352  	91.754087 
1592.264777  	91.804163 
1593.229201  	91.821122 
1594.193626  	91.568570 
1595.158050  	91.464981 
1596.122475  	91.557118 
1597.086899  	91.612418 
1598.051324  	91.719053 
1599.015748  	91.679069 
1599.980173  	91.625527 
1600.944597  	91.380852 
1601.909021  	91.241894 
1602.873446  	90.988367 
1603.837870  	90.918887 
1604.802295  	91.070512 
1605.766719  	91.012561 
1606.731144  	90.620092 
1607.695568  	90.383596 
1608.659993  	90.295030 
1609.624417  	89.891142 
1610.588842  	90.091020 
1611.553266  	90.243369 
1612.517690  	90.148876 
1613.482115  	90.079068 
1614.446539  	89.945601 
1615.410964  	89.574904 
1616.375388  	88.689793 
1617.339813  	88.618414 
1618.304237  	89.688603 
1619.268662  	90.132283 
1620.233086  	90.199093 
1621.197511  	90.195329 
1622.161935  	89.852832 
1623.126359  	88.950948 
1624.090784  	89.038422 
1625.055208  	89.953511 
1626.019633  	90.134064 
1626.984057  	89.845424 
1627.948482  	89.291547 
1628.912906  	89.701057 
1629.877331  	90.032921 
1630.841755  	90.011930 
1631.806180  	89.942941 
1632.770604  	89.871219 
1633.735028  	89.549662 
1634.699453  	88.659082 
1635.663877  	86.951916 
1636.628302  	87.746067 
1637.592726  	87.980628 
1638.557151  	88.708010 
1639.521575  	89.140633 
1640.486000  	89.089394 
1641.450424  	89.049323 
1642.414849  	88.969425 
1643.379273  	88.975123 
1644.343697  	88.837545 
1645.308122  	88.008476 
1646.272546  	86.501031 
1647.236971  	85.907355 
1648.201395  	86.262718 
1649.165820  	87.512873 
1650.130244  	88.029462 
1651.094669  	87.692527 
1652.059093  	86.677484 
1653.023518  	83.487267 
1653.987942  	83.056065 
1654.952366  	85.331792 
1655.916791  	86.619770 
1656.881215  	86.808232 
1657.845640  	86.880220 
1658.810064  	86.888126 
1659.774489  	86.722512 
1660.738913  	86.172001 
1661.703338  	85.428976 
1662.667762  	84.479778 
1663.632187  	84.507234 
1664.596611  	84.747612 
1665.561036  	84.541850 
1666.525460  	84.138272 
1667.489884  	83.392325 
1668.454309  	81.898541 
1669.418733  	80.841140 
1670.383158  	81.311298 
1671.347582  	80.871294 
1672.312007  	80.709896 
1673.276431  	80.851084 
1674.240856  	80.258546 
1675.205280  	78.888061 
1676.169705  	78.705389 
1677.134129  	79.001623 
1678.098553  	78.582746 
1679.062978  	77.670627 
1680.027402  	76.047230 
1680.991827  	75.610163 
1681.956251  	75.681304 
1682.920676  	74.376695 
1683.885100  	71.001167 
1684.849525  	70.814234 
1685.813949  	73.556064 
1686.778374  	73.917867 
1687.742798  	73.079505 
1688.707222  	72.111738 
1689.671647  	71.615241 
1690.636071  	70.986394 
1691.600496  	70.523116 
1692.564920  	69.633389 
1693.529345  	68.349648 
1694.493769  	66.831066 
1695.458194  	64.676804 
1696.422618  	62.423582 
1697.387043  	61.792164 
1698.351467  	60.739798 
1699.315891  	59.030827 
1700.280316  	55.596965 
1701.244740  	54.586297 
1702.209165  	54.413552 
1703.173589  	53.311442 
1704.138014  	51.595389 
1705.102438  	50.028687 
1706.066863  	48.907366 
1707.031287  	47.817979 
1707.995712  	47.403588 
1708.960136  	46.933079 
1709.924560  	46.235452 
1710.888985  	45.998873 
1711.853409  	46.189458 
1712.817834  	46.225512 
1713.782258  	46.155011 
1714.746683  	46.349938 
1715.711107  	47.728860 
1716.675532  	48.601160 
1717.639956  	48.789493 
1718.604381  	51.017946 
1719.568805  	53.771746 
1720.533230  	55.430335 
1721.497654  	56.741272 
1722.462078  	57.937401 
1723.426503  	58.959220 
1724.390927  	60.526622 
1725.355352  	61.993109 
1726.319776  	63.261485 
1727.284201  	64.524980 
1728.248625  	65.831950 
1729.213050  	66.501205 
1730.177474  	67.120333 
1731.141899  	69.182017 
1732.106323  	70.411213 
1733.070747  	70.386283 
1734.035172  	70.063744 
1734.999596  	73.517849 
1735.964021  	76.238577 
1736.928445  	77.569950 
1737.892870  	78.809118 
1738.857294  	79.691926 
1739.821719  	80.401890 
1740.786143  	82.561134 
1741.750568  	84.063657 
1742.714992  	84.382922 
1743.679416  	84.713391 
1744.643841  	86.396304 
1745.608265  	87.727104 
1746.572690  	88.218060 
1747.537114  	88.452866 
1748.501539  	88.685780 
1749.465963  	89.358284 
1750.430388  	89.982051 
1751.394812  	89.610011 
1752.359237  	91.048913 
1753.323661  	92.335366 
1754.288085  	92.892938 
1755.252510  	93.060578 
1756.216934  	92.532204 
1757.181359  	92.035666 
1758.145783  	92.742863 
1759.110208  	93.247043 
1760.074632  	93.480178 
1761.039057  	93.014660 
1762.003481  	92.170553 
1762.967906  	93.122326 
1763.932330  	93.829890 
1764.896754  	93.989518 
1765.861179  	94.022518 
1766.825603  	93.893552 
1767.790028  	93.037819 
1768.754452  	92.791060 
1769.718877  	93.736421 
1770.683301  	93.500438 
1771.647726  	92.414987 
1772.612150  	91.943407 
1773.576575  	93.017207 
1774.540999  	93.726894 
1775.505423  	93.393289 
1776.469848  	93.643949 
1777.434272  	94.283711 
1778.398697  	94.150886 
1779.363121  	93.839565 
1780.327546  	93.439899 
1781.291970  	93.358789 
1782.256395  	94.026792 
1783.220819  	94.340138 
1784.185244  	94.025910 
1785.149668  	93.478092 
1786.114093  	93.976778 
1787.078517  	94.371946 
1788.042941  	94.373913 
1789.007366  	94.271669 
1789.971790  	93.954701 
1790.936215  	93.067719 
1791.900639  	92.658975 
1792.865064  	92.553027 
1793.829488  	93.465663 
1794.793913  	93.937930 
1795.758337  	93.374826 
1796.722762  	93.389440 
1797.687186  	94.103370 
1798.651610  	94.127720 
1799.616035  	93.555116 
1800.580459  	93.487334 
1801.544884  	93.355849 
1802.509308  	93.188409 
1803.473733  	93.860098 
1804.438157  	94.311436 
1805.402582  	94.299381 
1806.367006  	94.243186 
1807.331431  	93.994028 
1808.295855  	93.876816 
1809.260279  	94.165042 
1810.224704  	93.736637 
1811.189128  	93.375677 
1812.153553  	93.689028 
1813.117977  	94.044776 
1814.082402  	94.379728 
1815.046826  	94.425896 
1816.011251  	94.438110 
1816.975675  	94.193998 
1817.940100  	94.043862 
1818.904524  	94.303715 
1819.868948  	94.420348 
1820.833373  	94.389134 
1821.797797  	94.299808 
1822.762222  	94.079375 
1823.726646  	94.064039 
1824.691071  	93.556897 
1825.655495  	92.960289 
1826.619920  	93.924537 
1827.584344  	94.306886 
1828.548769  	93.907845 
1829.513193  	92.838894 
1830.477617  	92.850090 
1831.442042  	93.949035 
1832.406466  	94.295599 
1833.370891  	94.187433 
1834.335315  	94.432641 
1835.299740  	94.639226 
1836.264164  	94.499627 
1837.228589  	94.038073 
1838.193013  	94.171435 
1839.157438  	94.542458 
1840.121862  	94.657241 
1841.086287  	94.641544 
1842.050711  	94.315323 
1843.015135  	93.966794 
1843.979560  	93.261811 
1844.943984  	93.024549 
1845.908409  	93.950700 
1846.872833  	94.238627 
1847.837258  	93.822257 
1848.801682  	94.106840 
1849.766107  	94.698431 
1850.730531  	94.931162 
1851.694956  	94.973804 
1852.659380  	94.876342 
1853.623804  	94.892613 
1854.588229  	94.915504 
1855.552653  	94.982375 
1856.517078  	94.957318 
1857.481502  	94.895705 
1858.445927  	94.715424 
1859.410351  	94.676174 
1860.374776  	94.751309 
1861.339200  	94.716507 
1862.303625  	94.785048 
1863.268049  	94.937879 
1864.232473  	94.889623 
1865.196898  	94.830204 
1866.161322  	94.507265 
1867.125747  	94.163766 
1868.090171  	93.676895 
1869.054596  	93.192796 
1870.019020  	93.583034 
1870.983445  	94.371354 
1871.947869  	94.867872 
1872.912294  	95.125261 
1873.876718  	95.138154 
1874.841142  	95.085714 
1875.805567  	95.067921 
1876.769991  	95.107983 
1877.734416  	95.092015 
1878.698840  	95.050218 
1879.663265  	94.962373 
1880.627689  	94.998137 
1881.592114  	94.981596 
1882.556538  	95.028077 
1883.520963  	95.080758 
1884.485387  	94.953504 
1885.449811  	94.869444 
1886.414236  	95.020079 
1887.378660  	95.040046 
1888.343085  	94.893984 
1889.307509  	94.156516 
1890.271934  	94.039599 
1891.236358  	94.693734 
1892.200783  	94.988300 
1893.165207  	95.007693 
1894.129632  	94.839272 
1895.094056  	94.450667 
1896.058480  	94.591139 
1897.022905  	94.950223 
1897.987329  	94.993501 
1898.951754  	94.997074 
1899.916178  	95.042511 
1900.880603  	95.008984 
1901.845027  	94.886287 
1902.809452  	94.836352 
1903.773876  	94.828514 
1904.738301  	94.899739 
1905.702725  	94.956467 
1906.667150  	94.980142 
1907.631574  	94.723764 
1908.595998  	94.577038 
1909.560423  	94.522465 
1910.524847  	94.493972 
1911.489272  	94.859107 
1912.453696  	94.829710 
1913.418121  	94.740022 
1914.382545  	94.754186 
1915.346970  	94.875851 
1916.311394  	94.898223 
1917.275819  	94.534732 
1918.240243  	93.829131 
1919.204667  	94.321223 
1920.169092  	94.718449 
1921.133516  	94.617128 
1922.097941  	94.099578 
1923.062365  	93.673036 
1924.026790  	94.440820 
1924.991214  	94.985286 
1925.955639  	94.834839 
1926.920063  	94.842692 
1927.884488  	94.902113 
1928.848912  	94.999352 
1929.813336  	95.019369 
1930.777761  	94.920780 
1931.742185  	94.871922 
1932.706610  	94.888252 
1933.671034  	94.885843 
1934.635459  	94.959511 
1935.599883  	94.867105 
1936.564308  	94.831933 
1937.528732  	94.732040 
1938.493157  	94.803697 
1939.457581  	94.974974 
1940.422005  	94.910734 
1941.386430  	94.489765 
1942.350854  	93.518897 
1943.315279  	93.456605 
1944.279703  	94.370507 
1945.244128  	94.464444 
1946.208552  	94.320846 
1947.172977  	94.344550 
1948.137401  	94.504848 
1949.101826  	94.410204 
1950.066250  	94.442169 
1951.030674  	94.550870 
1951.995099  	94.547799 
1952.959523  	94.494880 
1953.923948  	94.363725 
1954.888372  	94.225826 
1955.852797  	94.441756 
1956.817221  	94.648748 
1957.781646  	94.688494 
1958.746070  	94.553163 
1959.710495  	94.521728 
1960.674919  	94.316109 
1961.639344  	94.342068 
1962.603768  	94.339221 
1963.568192  	94.335877 
1964.532617  	94.537254 
1965.497041  	94.643933 
1966.461466  	94.625894 
1967.425890  	94.414379 
1968.390315  	94.642303 
1969.354739  	94.701619 
1970.319164  	94.551645 
1971.283588  	94.962684 
1972.248013  	94.974785 
1973.212437  	95.016659 
1974.176861  	95.198020 
1975.141286  	95.084402 
1976.105710  	95.361192 
1977.070135  	95.905821 
1978.034559  	95.511527 
1978.998984  	94.816108 
1979.963408  	94.668958 
1980.927833  	94.810887 
1981.892257  	94.861064 
1982.856682  	94.944669 
1983.821106  	94.947228 
1984.785530  	94.962220 
1985.749955  	94.955796 
1986.714379  	94.894670 
1987.678804  	94.627742 
1988.643228  	94.576734 
1989.607653  	94.764579 
1990.572077  	94.903824 
1991.536502  	94.338876 
1992.500926  	93.867232 
1993.465351  	94.293105 
1994.429775  	94.888601 
1995.394199  	94.906233 
1996.358624  	94.951673 
1997.323048  	94.883183 
1998.287473  	94.791877 
1999.251897  	94.962113 
2000.216322  	95.296521 
2001.180746  	95.337962 
2002.145171  	95.270215 
2003.109595  	95.506464 
2004.074020  	95.670910 
2005.038444  	95.495327 
2006.002868  	95.466271 
2006.967293  	95.180050 
2007.931717  	94.842914 
2008.896142  	94.957718 
2009.860566  	95.157505 
2010.824991  	95.352821 
2011.789415  	95.478303 
2012.753840  	95.358571 
2013.718264  	94.978145 
2014.682689  	94.919895 
2015.647113  	95.257781 
2016.611537  	94.924496 
2017.575962  	94.903580 
2018.540386  	95.102007 
2019.504811  	95.249323 
2020.469235  	95.620727 
2021.433660  	95.970641 
2022.398084  	95.896303 
2023.362509  	95.772955 
2024.326933  	95.623244 
2025.291358  	95.614734 
2026.255782  	95.611490 
2027.220207  	95.694819 
2028.184631  	95.638345 
2029.149055  	95.960500 
2030.113480  	96.012310 
2031.077904  	95.933824 
2032.042329  	95.676878 
2033.006753  	95.810916 
2033.971178  	95.981036 
2034.935602  	95.801063 
2035.900027  	95.601168 
2036.864451  	95.802141 
2037.828876  	95.949838 
2038.793300  	95.721455 
2039.757724  	95.163219 
2040.722149  	94.755360 
2041.686573  	94.655800 
2042.650998  	94.959536 
2043.615422  	95.105010 
2044.579847  	95.188086 
2045.544271  	95.444354 
2046.508696  	95.586643 
2047.473120  	95.312139 
2048.437545  	95.275862 
2049.401969  	95.324847 
2050.366393  	95.021117 
2051.330818  	94.778372 
2052.295242  	95.172888 
2053.259667  	95.487705 
2054.224091  	95.253725 
2055.188516  	94.918676 
2056.152940  	94.902477 
2057.117365  	94.848352 
2058.081789  	94.986807 
2059.046214  	95.099073 
2060.010638  	94.987251 
2060.975062  	94.914218 
2061.939487  	95.101338 
2062.903911  	94.932770 
2063.868336  	94.706452 
2064.832760  	94.636283 
2065.797185  	94.743739 
2066.761609  	94.891591 
2067.726034  	95.037999 
2068.690458  	95.053540 
2069.654883  	95.050157 
2070.619307  	95.025164 
2071.583731  	95.029742 
2072.548156  	94.912292 
2073.512580  	94.877509 
2074.477005  	94.756665 
2075.441429  	94.741274 
2076.405854  	94.762979 
2077.370278  	94.666596 
2078.334703  	94.634298 
2079.299127  	94.772194 
2080.263552  	94.847545 
2081.227976  	94.761717 
2082.192401  	94.662859 
2083.156825  	94.645714 
2084.121249  	94.693680 
2085.085674  	94.841092 
2086.050098  	94.710558 
2087.014523  	94.578864 
2087.978947  	94.739911 
2088.943372  	94.761809 
2089.907796  	94.627870 
2090.872221  	94.782798 
2091.836645  	95.030482 
2092.801070  	95.020907 
2093.765494  	94.970151 
2094.729918  	94.877040 
2095.694343  	94.759093 
2096.658767  	94.785941 
2097.623192  	94.752013 
2098.587616  	94.676757 
2099.552041  	94.764820 
2100.516465  	94.806512 
2101.480890  	94.809601 
2102.445314  	94.789362 
2103.409739  	94.737782 
2104.374163  	94.736909 
2105.338587  	94.746232 
2106.303012  	94.697613 
2107.267436  	94.571082 
2108.231861  	94.617473 
2109.196285  	94.687312 
2110.160710  	94.801465 
2111.125134  	94.797161 
2112.089559  	94.711553 
2113.053983  	94.680758 
2114.018408  	94.671541 
2114.982832  	94.629708 
2115.947256  	94.695094 
2116.911681  	94.773712 
2117.876105  	94.934184 
2118.840530  	94.992117 
2119.804954  	94.989445 
2120.769379  	95.031492 
2121.733803  	95.077728 
2122.698228  	95.071552 
2123.662652  	95.012460 
2124.627077  	94.961810 
2125.591501  	95.027328 
2126.555925  	95.218156 
2127.520350  	95.221665 
2128.484774  	95.230894 
2129.449199  	95.412611 
2130.413623  	95.438416 
2131.378048  	95.417468 
2132.342472  	95.504055 
2133.306897  	95.548678 
2134.271321  	95.352742 
2135.235746  	95.175536 
2136.200170  	95.032941 
2137.164594  	95.271487 
2138.129019  	95.483149 
2139.093443  	95.338692 
2140.057868  	95.305072 
2141.022292  	95.384214 
2141.986717  	95.224965 
2142.951141  	95.152504 
2143.915566  	95.541288 
2144.879990  	95.523266 
2145.844415  	95.547333 
2146.808839  	95.688968 
2147.773264  	95.524995 
2148.737688  	95.455584 
2149.702112  	95.559807 
2150.666537  	95.742615 
2151.630961  	95.608761 
2152.595386  	95.806064 
2153.559810  	96.068017 
2154.524235  	96.282993 
2155.488659  	96.579414 
2156.453084  	96.710113 
2157.417508  	96.584729 
2158.381933  	96.441923 
2159.346357  	95.417879 
2160.310781  	94.919449 
2161.275206  	95.171616 
2162.239630  	95.642371 
2163.204055  	95.850295 
2164.168479  	95.628939 
2165.132904  	94.941783 
2166.097328  	95.112195 
2167.061753  	95.579758 
2168.026177  	95.621683 
2168.990602  	95.283883 
2169.955026  	94.983228 
2170.919450  	95.434943 
2171.883875  	95.698721 
2172.848299  	95.521272 
2173.812724  	95.481526 
2174.777148  	95.525546 
2175.741573  	95.384428 
2176.705997  	95.319548 
2177.670422  	95.460674 
2178.634846  	95.519627 
2179.599271  	95.585207 
2180.563695  	95.756093 
2181.528119  	95.905341 
2182.492544  	95.791672 
2183.456968  	95.406491 
2184.421393  	94.969330 
2185.385817  	95.228287 
2186.350242  	95.331907 
2187.314666  	95.084100 
2188.279091  	94.990937 
2189.243515  	95.156737 
2190.207940  	95.239940 
2191.172364  	95.468214 
2192.136788  	95.557621 
2193.101213  	95.580131 
2194.065637  	95.392938 
2195.030062  	95.118767 
2195.994486  	94.968160 
2196.958911  	95.138848 
2197.923335  	95.253853 
2198.887760  	95.407960 
2199.852184  	95.542010 
2200.816609  	95.498476 
2201.781033  	95.396040 
2202.745458  	95.461596 
2203.709882  	95.521860 
2204.674306  	95.377201 
2205.638731  	95.283032 
2206.603155  	95.285195 
2207.567580  	95.193814 
2208.532004  	95.083684 
2209.496429  	95.095314 
2210.460853  	95.073128 
2211.425278  	95.256084 
2212.389702  	95.223297 
2213.354127  	94.993564 
2214.318551  	94.930500 
2215.282975  	94.895434 
2216.247400  	94.973205 
2217.211824  	95.065718 
2218.176249  	95.068337 
2219.140673  	95.028327 
2220.105098  	95.041888 
2221.069522  	95.091095 
2222.033947  	95.103800 
2222.998371  	95.125561 
2223.962796  	95.087104 
2224.927220  	95.046450 
2225.891644  	94.997581 
2226.856069  	95.046353 
2227.820493  	95.131737 
2228.784918  	95.073310 
2229.749342  	95.012548 
2230.713767  	94.962700 
2231.678191  	94.815993 
2232.642616  	94.848715 
2233.607040  	95.134956 
2234.571465  	95.127179 
2235.535889  	94.950646 
2236.500313  	94.877779 
2237.464738  	94.833536 
2238.429162  	94.898136 
2239.393587  	94.858515 
2240.358011  	94.911854 
2241.322436  	95.128646 
2242.286860  	95.008135 
2243.251285  	94.854304 
2244.215709  	94.959698 
2245.180134  	94.946073 
2246.144558  	94.804951 
2247.108982  	94.795998 
2248.073407  	94.870676 
2249.037831  	94.904003 
2250.002256  	94.777097 
2250.966680  	94.756993 
2251.931105  	94.873740 
2252.895529  	94.928918 
2253.859954  	94.869940 
2254.824378  	94.741623 
2255.788803  	94.627029 
2256.753227  	94.598854 
2257.717651  	94.677593 
2258.682076  	94.630047 
2259.646500  	94.601931 
2260.610925  	94.630911 
2261.575349  	94.555640 
2262.539774  	94.626396 
2263.504198  	94.740470 
2264.468623  	94.634393 
2265.433047  	94.584924 
2266.397472  	94.621770 
2267.361896  	94.614253 
2268.326321  	94.593647 
2269.290745  	94.546272 
2270.255169  	94.533114 
2271.219594  	94.579222 
2272.184018  	94.615278 
2273.148443  	94.527378 
2274.112867  	94.467743 
2275.077292  	94.502129 
2276.041716  	94.456943 
2277.006141  	94.456324 
2277.970565  	94.531258 
2278.934990  	94.547136 
2279.899414  	94.474010 
2280.863838  	94.505922 
2281.828263  	94.514684 
2282.792687  	94.422530 
2283.757112  	94.411201 
2284.721536  	94.357965 
2285.685961  	94.274356 
2286.650385  	94.313215 
2287.614810  	94.302555 
2288.579234  	94.223184 
2289.543659  	94.155556 
2290.508083  	94.281766 
2291.472507  	94.302664 
2292.436932  	94.305470 
2293.401356  	94.282194 
2294.365781  	94.221860 
2295.330205  	94.251588 
2296.294630  	94.193107 
2297.259054  	94.149737 
2298.223479  	94.073102 
2299.187903  	94.081757 
2300.152328  	94.110001 
2301.116752  	94.072528 
2302.081176  	94.102554 
2303.045601  	94.005958 
2304.010025  	94.085756 
2304.974450  	93.917595 
2305.938874  	93.981689 
2306.903299  	93.962389 
2307.867723  	93.996049 
2308.832148  	93.832537 
2309.796572  	93.816507 
2310.760997  	93.839190 
2311.725421  	93.807006 
2312.689845  	93.949179 
2313.654270  	93.914410 
2314.618694  	93.972622 
2315.583119  	93.970256 
2316.547543  	94.028048 
2317.511968  	93.936040 
2318.476392  	93.931040 
2319.440817  	93.907306 
2320.405241  	93.941379 
2321.369666  	93.851670 
2322.334090  	93.867190 
2323.298515  	93.793716 
2324.262939  	93.806057 
2325.227363  	94.177746 
2326.191788  	94.554584 
2327.156212  	94.695591 
2328.120637  	94.707287 
2329.085061  	94.718104 
2330.049486  	94.763825 
2331.013910  	94.732552 
2331.978335  	94.828550 
2332.942759  	94.988958 
2333.907184  	95.023661 
2334.871608  	95.045564 
2335.836032  	95.231224 
2336.800457  	95.305435 
2337.764881  	95.246679 
2338.729306  	95.214456 
2339.693730  	95.170912 
2340.658155  	95.235865 
2341.622579  	95.258622 
2342.587004  	95.148772 
2343.551428  	95.004444 
2344.515853  	94.804282 
2345.480277  	94.704221 
2346.444701  	94.635358 
2347.409126  	94.570977 
2348.373550  	94.355361 
2349.337975  	94.278701 
2350.302399  	94.415115 
2351.266824  	94.668373 
2352.231248  	94.950372 
2353.195673  	95.096549 
2354.160097  	95.114452 
2355.124522  	95.120627 
2356.088946  	95.156650 
2357.053370  	95.295047 
2358.017795  	95.415900 
2358.982219  	95.443772 
2359.946644  	95.587166 
2360.911068  	95.622763 
2361.875493  	95.430497 
2362.839917  	95.380990 
2363.804342  	95.346330 
2364.768766  	95.217094 
2365.733191  	95.297325 
2366.697615  	95.252743 
2367.662039  	95.087953 
2368.626464  	94.928324 
2369.590888  	94.696860 
2370.555313  	94.547800 
2371.519737  	94.505939 
2372.484162  	94.446801 
2373.448586  	94.400341 
2374.413011  	94.306175 
2375.377435  	94.148361 
2376.341860  	94.040841 
2377.306284  	93.991463 
2378.270708  	93.943891 
2379.235133  	93.874410 
2380.199557  	93.929935 
2381.163982  	94.062293 
2382.128406  	94.163531 
2383.092831  	94.247152 
2384.057255  	94.322099 
2385.021680  	94.413271 
2385.986104  	94.505793 
2386.950529  	94.544697 
2387.914953  	94.621922 
2388.879378  	94.648577 
2389.843802  	94.687894 
2390.808226  	94.711475 
2391.772651  	94.673908 
2392.737075  	94.661377 
2393.701500  	94.731794 
2394.665924  	94.750455 
2395.630349  	94.708747 
2396.594773  	94.659485 
2397.559198  	94.635381 
2398.523622  	94.733491 
2399.488047  	94.769015 
2400.452471  	94.702691 
2401.416895  	94.690620 
2402.381320  	94.705883 
2403.345744  	94.754579 
2404.310169  	94.768828 
2405.274593  	94.709113 
2406.239018  	94.667118 
2407.203442  	94.653180 
2408.167867  	94.674175 
2409.132291  	94.694644 
2410.096716  	94.664021 
2411.061140  	94.607685 
2412.025564  	94.612267 
2412.989989  	94.639324 
2413.954413  	94.664920 
2414.918838  	94.756868 
2415.883262  	94.771214 
2416.847687  	94.739245 
2417.812111  	94.774658 
2418.776536  	94.786030 
2419.740960  	94.740716 
2420.705385  	94.697350 
2421.669809  	94.642624 
2422.634233  	94.650060 
2423.598658  	94.660261 
2424.563082  	94.668084 
2425.527507  	94.690498 
2426.491931  	94.695128 
2427.456356  	94.672869 
2428.420780  	94.750955 
2429.385205  	94.785205 
2430.349629  	94.781626 
2431.314054  	94.757124 
2432.278478  	94.767037 
2433.242902  	94.790908 
2434.207327  	94.748989 
2435.171751  	94.746237 
2436.136176  	94.760012 
2437.100600  	94.787433 
2438.065025  	94.773281 
2439.029449  	94.805998 
2439.993874  	94.821429 
2440.958298  	94.772801 
2441.922723  	94.745697 
2442.887147  	94.719675 
2443.851572  	94.711108 
2444.815996  	94.745699 
2445.780420  	94.749104 
2446.744845  	94.679852 
2447.709269  	94.711466 
2448.673694  	94.759843 
2449.638118  	94.744076 
2450.602543  	94.697617 
2451.566967  	94.666597 
2452.531392  	94.656389 
2453.495816  	94.670592 
2454.460241  	94.687131 
2455.424665  	94.718678 
2456.389089  	94.722634 
2457.353514  	94.710596 
2458.317938  	94.708018 
2459.282363  	94.707393 
2460.246787  	94.723982 
2461.211212  	94.713501 
2462.175636  	94.736805 
2463.140061  	94.758888 
2464.104485  	94.777037 
2465.068910  	94.728801 
2466.033334  	94.688631 
2466.997758  	94.783723 
2467.962183  	94.841500 
2468.926607  	94.780582 
2469.891032  	94.717305 
2470.855456  	94.713682 
2471.819881  	94.738270 
2472.784305  	94.764962 
2473.748730  	94.798468 
2474.713154  	94.835443 
2475.677579  	94.769482 
2476.642003  	94.719151 
2477.606427  	94.719778 
2478.570852  	94.753769 
2479.535276  	94.749065 
2480.499701  	94.719628 
2481.464125  	94.747640 
2482.428550  	94.798555 
2483.392974  	94.806708 
2484.357399  	94.814128 
2485.321823  	94.746738 
2486.286248  	94.660392 
2487.250672  	94.691479 
2488.215096  	94.783579 
2489.179521  	94.749234 
2490.143945  	94.689505 
2491.108370  	94.624934 
2492.072794  	94.650363 
2493.037219  	94.710585 
2494.001643  	94.748096 
2494.966068  	94.782036 
2495.930492  	94.793308 
2496.894917  	94.730965 
2497.859341  	94.700569 
2498.823765  	94.691605 
2499.788190  	94.654990 
2500.752614  	94.651890 
2501.717039  	94.671968 
2502.681463  	94.664795 
2503.645888  	94.695411 
2504.610312  	94.668942 
2505.574737  	94.650340 
2506.539161  	94.689398 
2507.503586  	94.695810 
2508.468010  	94.671867 
2509.432435  	94.650016 
2510.396859  	94.653166 
2511.361283  	94.702662 
2512.325708  	94.699773 
2513.290132  	94.688313 
2514.254557  	94.708590 
2515.218981  	94.641328 
2516.183406  	94.617622 
2517.147830  	94.636482 
2518.112255  	94.585362 
2519.076679  	94.592510 
2520.041104  	94.645818 
2521.005528  	94.640089 
2521.969952  	94.536519 
2522.934377  	94.484513 
2523.898801  	94.588190 
2524.863226  	94.700468 
2525.827650  	94.654138 
2526.792075  	94.616524 
2527.756499  	94.584717 
2528.720924  	94.580637 
2529.685348  	94.527977 
2530.649773  	94.581006 
2531.614197  	94.667801 
2532.578621  	94.643822 
2533.543046  	94.609770 
2534.507470  	94.635493 
2535.471895  	94.655335 
2536.436319  	94.635070 
2537.400744  	94.585255 
2538.365168  	94.548838 
2539.329593  	94.560704 
2540.294017  	94.552968 
2541.258442  	94.607768 
2542.222866  	94.657845 
2543.187290  	94.644481 
2544.151715  	94.625356 
2545.116139  	94.591767 
2546.080564  	94.573372 
2547.044988  	94.501378 
2548.009413  	94.418681 
2548.973837  	94.453773 
2549.938262  	94.486651 
2550.902686  	94.549024 
2551.867111  	94.557191 
2552.831535  	94.529763 
2553.795959  	94.569141 
2554.760384  	94.601787 
2555.724808  	94.530475 
2556.689233  	94.444050 
2557.653657  	94.444710 
2558.618082  	94.470101 
2559.582506  	94.539141 
2560.546931  	94.541796 
2561.511355  	94.493136 
2562.475780  	94.514709 
2563.440204  	94.516967 
2564.404629  	94.561616 
2565.369053  	94.603348 
2566.333477  	94.602858 
2567.297902  	94.615632 
2568.262326  	94.591500 
2569.226751  	94.498427 
2570.191175  	94.424610 
2571.155600  	94.492495 
2572.120024  	94.521834 
2573.084449  	94.530176 
2574.048873  	94.504976 
2575.013298  	94.456728 
2575.977722  	94.448850 
2576.942146  	94.485310 
2577.906571  	94.507181 
2578.870995  	94.501025 
2579.835420  	94.476585 
2580.799844  	94.507823 
2581.764269  	94.471213 
2582.728693  	94.530832 
2583.693118  	94.592340 
2584.657542  	94.538337 
2585.621967  	94.507432 
2586.586391  	94.505632 
2587.550815  	94.513882 
2588.515240  	94.522314 
2589.479664  	94.513555 
2590.444089  	94.494975 
2591.408513  	94.481274 
2592.372938  	94.496785 
2593.337362  	94.503955 
2594.301787  	94.474488 
2595.266211  	94.469124 
2596.230636  	94.518097 
2597.195060  	94.535852 
2598.159484  	94.531601 
2599.123909  	94.544005 
2600.088333  	94.547749 
2601.052758  	94.515294 
2602.017182  	94.516724 
2602.981607  	94.553626 
2603.946031  	94.586595 
2604.910456  	94.598758 
2605.874880  	94.557575 
2606.839305  	94.486501 
2607.803729  	94.479324 
2608.768153  	94.531210 
2609.732578  	94.508320 
2610.697002  	94.458538 
2611.661427  	94.461514 
2612.625851  	94.498467 
2613.590276  	94.546228 
2614.554700  	94.534546 
2615.519125  	94.508944 
2616.483549  	94.497885 
2617.447974  	94.469554 
2618.412398  	94.492223 
2619.376822  	94.528076 
2620.341247  	94.526226 
2621.305671  	94.503380 
2622.270096  	94.486314 
2623.234520  	94.475042 
2624.198945  	94.473021 
2625.163369  	94.523127 
2626.127794  	94.503893 
2627.092218  	94.477011 
2628.056643  	94.500982 
2629.021067  	94.501513 
2629.985492  	94.517484 
2630.949916  	94.538356 
2631.914340  	94.491872 
2632.878765  	94.469641 
2633.843189  	94.497357 
2634.807614  	94.509253 
2635.772038  	94.496659 
2636.736463  	94.434951 
2637.700887  	94.437222 
2638.665312  	94.480852 
2639.629736  	94.480053 
2640.594161  	94.491644 
2641.558585  	94.529121 
2642.523009  	94.508765 
2643.487434  	94.511601 
2644.451858  	94.545343 
2645.416283  	94.550275 
2646.380707  	94.544453 
2647.345132  	94.538395 
2648.309556  	94.543836 
2649.273981  	94.551830 
2650.238405  	94.578455 
2651.202830  	94.575251 
2652.167254  	94.515912 
2653.131678  	94.509454 
2654.096103  	94.545629 
2655.060527  	94.555930 
2656.024952  	94.551302 
2656.989376  	94.536578 
2657.953801  	94.529780 
2658.918225  	94.556150 
2659.882650  	94.588576 
2660.847074  	94.597542 
2661.811499  	94.596766 
2662.775923  	94.585491 
2663.740347  	94.596949 
2664.704772  	94.636578 
2665.669196  	94.679194 
2666.633621  	94.669980 
2667.598045  	94.651705 
2668.562470  	94.632180 
2669.526894  	94.621114 
2670.491319  	94.613897 
2671.455743  	94.646321 
2672.420168  	94.664322 
2673.384592  	94.657748 
2674.349016  	94.632269 
2675.313441  	94.638176 
2676.277865  	94.667023 
2677.242290  	94.679776 
2678.206714  	94.667708 
2679.171139  	94.658719 
2680.135563  	94.658289 
2681.099988  	94.664702 
2682.064412  	94.660312 
2683.028837  	94.652733 
2683.993261  	94.633311 
2684.957686  	94.645055 
2685.922110  	94.657029 
2686.886534  	94.616465 
2687.850959  	94.595861 
2688.815383  	94.627758 
2689.779808  	94.641798 
2690.744232  	94.615959 
2691.708657  	94.617742 
2692.673081  	94.633508 
2693.637506  	94.638067 
2694.601930  	94.649970 
2695.566355  	94.668553 
2696.530779  	94.665156 
2697.495203  	94.664308 
2698.459628  	94.679896 
2699.424052  	94.677776 
2700.388477  	94.655188 
2701.352901  	94.626734 
2702.317326  	94.616171 
2703.281750  	94.643782 
2704.246175  	94.653730 
2705.210599  	94.629644 
2706.175024  	94.641925 
2707.139448  	94.627427 
2708.103872  	94.594876 
2709.068297  	94.606484 
2710.032721  	94.626829 
2710.997146  	94.640978 
2711.961570  	94.640884 
2712.925995  	94.643621 
2713.890419  	94.663768 
2714.854844  	94.676553 
2715.819268  	94.675822 
2716.783693  	94.646698 
2717.748117  	94.649616 
2718.712541  	94.657107 
2719.676966  	94.646139 
2720.641390  	94.647881 
2721.605815  	94.650488 
2722.570239  	94.647237 
2723.534664  	94.647085 
2724.499088  	94.617139 
2725.463513  	94.602101 
2726.427937  	94.606451 
2727.392362  	94.608754 
2728.356786  	94.600674 
2729.321210  	94.587542 
2730.285635  	94.587403 
2731.250059  	94.550552 
2732.214484  	94.552303 
2733.178908  	94.599753 
2734.143333  	94.595576 
2735.107757  	94.562200 
2736.072182  	94.565086 
2737.036606  	94.597370 
2738.001031  	94.594988 
2738.965455  	94.565229 
2739.929879  	94.557248 
2740.894304  	94.577584 
2741.858728  	94.579760 
2742.823153  	94.562150 
2743.787577  	94.561869 
2744.752002  	94.568153 
2745.716426  	94.548429 
2746.680851  	94.532501 
2747.645275  	94.554649 
2748.609700  	94.570867 
2749.574124  	94.576075 
2750.538549  	94.561997 
2751.502973  	94.517264 
2752.467397  	94.545204 
2753.431822  	94.567908 
2754.396246  	94.554593 
2755.360671  	94.561903 
2756.325095  	94.606121 
2757.289520  	94.578780 
2758.253944  	94.563902 
2759.218369  	94.583206 
2760.182793  	94.576694 
2761.147218  	94.557896 
2762.111642  	94.561515 
2763.076066  	94.581199 
2764.040491  	94.582834 
2765.004915  	94.564999 
2765.969340  	94.550914 
2766.933764  	94.561751 
2767.898189  	94.548116 
2768.862613  	94.510500 
2769.827038  	94.508426 
2770.791462  	94.533336 
2771.755887  	94.516255 
2772.720311  	94.526203 
2773.684735  	94.551042 
2774.649160  	94.534476 
2775.613584  	94.507462 
2776.578009  	94.504064 
2777.542433  	94.532638 
2778.506858  	94.525517 
2779.471282  	94.512823 
2780.435707  	94.505463 
2781.400131  	94.482152 
2782.364556  	94.502920 
2783.328980  	94.518941 
2784.293404  	94.514979 
2785.257829  	94.529318 
2786.222253  	94.540695 
2787.186678  	94.549530 
2788.151102  	94.521625 
2789.115527  	94.546251 
2790.079951  	94.537220 
2791.044376  	94.506594 
2792.008800  	94.479139 
2792.973225  	94.473759 
2793.937649  	94.472767 
2794.902073  	94.466050 
2795.866498  	94.466349 
2796.830922  	94.470396 
2797.795347  	94.476415 
2798.759771  	94.462781 
2799.724196  	94.427494 
2800.688620  	94.412616 
2801.653045  	94.403984 
2802.617469  	94.409342 
2803.581894  	94.420494 
2804.546318  	94.418252 
2805.510743  	94.410416 
2806.475167  	94.395201 
2807.439591  	94.385551 
2808.404016  	94.404756 
2809.368440  	94.440727 
2810.332865  	94.463256 
2811.297289  	94.406069 
2812.261714  	94.380348 
2813.226138  	94.417983 
2814.190563  	94.386822 
2815.154987  	94.389328 
2816.119412  	94.430430 
2817.083836  	94.413323 
2818.048260  	94.387634 
2819.012685  	94.393303 
2819.977109  	94.439599 
2820.941534  	94.434469 
2821.905958  	94.436517 
2822.870383  	94.428411 
2823.834807  	94.433903 
2824.799232  	94.422949 
2825.763656  	94.421280 
2826.728081  	94.418650 
2827.692505  	94.405520 
2828.656929  	94.434993 
2829.621354  	94.428011 
2830.585778  	94.404636 
2831.550203  	94.388031 
2832.514627  	94.384084 
2833.479052  	94.401341 
2834.443476  	94.427857 
2835.407901  	94.434911 
2836.372325  	94.371775 
2837.336750  	94.341585 
2838.301174  	94.344759 
2839.265598  	94.345638 
2840.230023  	94.351971 
2841.194447  	94.364382 
2842.158872  	94.341196 
2843.123296  	94.340443 
2844.087721  	94.320740 
2845.052145  	94.279288 
2846.016570  	94.244474 
2846.980994  	94.252703 
2847.945419  	94.264851 
2848.909843  	94.244605 
2849.874267  	94.198467 
2850.838692  	94.177356 
2851.803116  	94.172662 
2852.767541  	94.168439 
2853.731965  	94.151249 
2854.696390  	94.153757 
2855.660814  	94.190301 
2856.625239  	94.187174 
2857.589663  	94.148906 
2858.554088  	94.138287 
2859.518512  	94.133052 
2860.482936  	94.123195 
2861.447361  	94.111788 
2862.411785  	94.143626 
2863.376210  	94.169324 
2864.340634  	94.139696 
2865.305059  	94.114034 
2866.269483  	94.128006 
2867.233908  	94.113396 
2868.198332  	94.087493 
2869.162757  	94.097262 
2870.127181  	94.115283 
2871.091606  	94.108559 
2872.056030  	94.109884 
2873.020454  	94.105867 
2873.984879  	94.073227 
2874.949303  	94.032154 
2875.913728  	94.008663 
2876.878152  	94.021299 
2877.842577  	94.032414 
2878.807001  	94.035324 
2879.771426  	94.031859 
2880.735850  	93.980997 
2881.700275  	93.977029 
2882.664699  	93.981059 
2883.629123  	93.944013 
2884.593548  	93.953749 
2885.557972  	93.961400 
2886.522397  	93.916737 
2887.486821  	93.889415 
2888.451246  	93.878880 
2889.415670  	93.863732 
2890.380095  	93.857654 
2891.344519  	93.868447 
2892.308944  	93.873474 
2893.273368  	93.885915 
2894.237792  	93.890494 
2895.202217  	93.842330 
2896.166641  	93.840797 
2897.131066  	93.789316 
2898.095490  	93.771309 
2899.059915  	93.789471 
2900.024339  	93.710867 
2900.988764  	93.679762 
2901.953188  	93.706038 
2902.917613  	93.667451 
2903.882037  	93.577341 
2904.846461  	93.547373 
2905.810886  	93.486655 
2906.775310  	93.448488 
2907.739735  	93.421985 
2908.704159  	93.389949 
2909.668584  	93.412551 
2910.633008  	93.435878 
2911.597433  	93.464706 
2912.561857  	93.545086 
2913.526282  	93.621648 
2914.490706  	93.647120 
2915.455130  	93.657817 
2916.419555  	93.703688 
2917.383979  	93.758967 
2918.348404  	93.802558 
2919.312828  	93.832300 
2920.277253  	93.813493 
2921.241677  	93.782082 
2922.206102  	93.826315 
2923.170526  	93.877672 
2924.134951  	93.901489 
2925.099375  	93.879169 
2926.063800  	93.863579 
2927.028224  	93.888514 
2927.992648  	93.925242 
2928.957073  	93.925887 
2929.921497  	93.896656 
2930.885922  	93.883434 
2931.850346  	93.874999 
2932.814771  	93.883397 
2933.779195  	93.892318 
2934.743620  	93.889380 
2935.708044  	93.872711 
2936.672469  	93.834896 
2937.636893  	93.827703 
2938.601317  	93.814356 
2939.565742  	93.789450 
2940.530166  	93.767946 
2941.494591  	93.729054 
2942.459015  	93.662302 
2943.423440  	93.608655 
2944.387864  	93.564427 
2945.352289  	93.516955 
2946.316713  	93.479818 
2947.281138  	93.443727 
2948.245562  	93.413832 
2949.209986  	93.329737 
2950.174411  	93.248137 
2951.138835  	93.214233 
2952.103260  	93.142550 
2953.067684  	93.073550 
2954.032109  	93.047095 
2954.996533  	93.033441 
2955.960958  	92.962937 
2956.925382  	92.887143 
2957.889807  	92.817697 
2958.854231  	92.735472 
2959.818655  	92.696249 
2960.783080  	92.689223 
2961.747504  	92.645611 
2962.711929  	92.605819 
2963.676353  	92.530411 
2964.640778  	92.461207 
2965.605202  	92.403578 
2966.569627  	92.344234 
2967.534051  	92.350394 
2968.498476  	92.367765 
2969.462900  	92.344420 
2970.427324  	92.320008 
2971.391749  	92.324673 
2972.356173  	92.390242 
2973.320598  	92.484135 
2974.285022  	92.548097 
2975.249447  	92.563051 
2976.213871  	92.633541 
2977.178296  	92.722020 
2978.142720  	92.770803 
2979.107145  	92.823309 
2980.071569  	92.926752 
2981.035993  	92.980448 
2982.000418  	93.036348 
2982.964842  	93.125292 
2983.929267  	93.173234 
2984.893691  	93.213541 
2985.858116  	93.250127 
2986.822540  	93.311142 
2987.786965  	93.351275 
2988.751389  	93.353188 
2989.715814  	93.393094 
2990.680238  	93.452420 
2991.644663  	93.497995 
2992.609087  	93.479633 
2993.573511  	93.474916 
2994.537936  	93.514731 
2995.502360  	93.577418 
2996.466785  	93.573208 
2997.431209  	93.561815 
2998.395634  	93.589294 
2999.360058  	93.622590 
3000.324483  	93.649538 
3001.288907  	93.640796 
3002.253332  	93.642471 
3003.217756  	93.646395 
3004.182180  	93.607401 
3005.146605  	93.570149 
3006.111029  	93.627294 
3007.075454  	93.701192 
3008.039878  	93.752893 
3009.004303  	93.785421 
3009.968727  	93.774509 
3010.933152  	93.736245 
3011.897576  	93.701242 
3012.862001  	93.670678 
3013.826425  	93.780615 
3014.790849  	93.890124 
3015.755274  	93.859023 
3016.719698  	93.891484 
3017.684123  	93.962389 
3018.648547  	94.009758 
3019.612972  	93.994319 
3020.577396  	94.026334 
3021.541821  	94.073980 
3022.506245  	94.083304 
3023.470670  	94.108816 
3024.435094  	94.181883 
3025.399518  	94.186320 
3026.363943  	94.197428 
3027.328367  	94.242843 
3028.292792  	94.272013 
3029.257216  	94.314310 
3030.221641  	94.274569 
3031.186065  	94.144681 
3032.150490  	94.079548 
3033.114914  	94.208465 
3034.079339  	94.244518 
3035.043763  	94.216602 
3036.008187  	94.258185 
3036.972612  	94.332059 
3037.937036  	94.298682 
3038.901461  	94.256764 
3039.865885  	94.303484 
3040.830310  	94.367679 
3041.794734  	94.344202 
3042.759159  	94.285541 
3043.723583  	94.298880 
3044.688008  	94.303608 
3045.652432  	94.302593 
3046.616857  	94.262229 
3047.581281  	94.205493 
3048.545705  	94.122075 
3049.510130  	94.071985 
3050.474554  	94.065261 
3051.438979  	94.056494 
3052.403403  	94.053490 
3053.367828  	94.028796 
3054.332252  	93.992677 
3055.296677  	94.005336 
3056.261101  	93.925815 
3057.225526  	93.879659 
3058.189950  	93.968852 
3059.154374  	94.042890 
3060.118799  	94.055460 
3061.083223  	94.090959 
3062.047648  	94.108502 
3063.012072  	94.067315 
3063.976497  	93.973834 
3064.940921  	93.927569 
3065.905346  	94.000297 
3066.869770  	93.972778 
3067.834195  	93.958025 
3068.798619  	94.017145 
3069.763043  	94.035846 
3070.727468  	94.076465 
3071.691892  	94.090824 
3072.656317  	94.037288 
3073.620741  	94.029580 
3074.585166  	94.075812 
3075.549590  	94.100022 
3076.514015  	94.107521 
3077.478439  	94.068441 
3078.442864  	94.022049 
3079.407288  	93.999988 
3080.371712  	94.007837 
3081.336137  	94.036153 
3082.300561  	94.025756 
3083.264986  	94.074565 
3084.229410  	94.131450 
3085.193835  	94.112348 
3086.158259  	94.120007 
3087.122684  	94.092591 
3088.087108  	94.066971 
3089.051533  	94.111481 
3090.015957  	94.163096 
3090.980381  	94.217959 
3091.944806  	94.232336 
3092.909230  	94.205379 
3093.873655  	94.174734 
3094.838079  	94.170052 
3095.802504  	94.167702 
3096.766928  	94.216786 
3097.731353  	94.240569 
3098.695777  	94.204781 
3099.660202  	94.180056 
3100.624626  	94.107358 
3101.589050  	94.062076 
3102.553475  	94.081649 
3103.517899  	94.090599 
3104.482324  	94.129866 
3105.446748  	94.154628 
3106.411173  	94.158894 
3107.375597  	94.182359 
3108.340022  	94.229487 
3109.304446  	94.222514 
3110.268871  	94.171535 
3111.233295  	94.195789 
3112.197720  	94.191871 
3113.162144  	94.191814 
3114.126568  	94.222264 
3115.090993  	94.208391 
3116.055417  	94.221676 
3117.019842  	94.289854 
3117.984266  	94.286450 
3118.948691  	94.224317 
3119.913115  	94.313239 
3120.877540  	94.368782 
3121.841964  	94.260896 
3122.806389  	94.192280 
3123.770813  	94.276405 
3124.735237  	94.308880 
3125.699662  	94.285046 
3126.664086  	94.273507 
3127.628511  	94.305960 
3128.592935  	94.369821 
3129.557360  	94.346909 
3130.521784  	94.331886 
3131.486209  	94.372663 
3132.450633  	94.325383 
3133.415058  	94.219983 
3134.379482  	94.347709 
3135.343906  	94.464617 
3136.308331  	94.456945 
3137.272755  	94.409256 
3138.237180  	94.420242 
3139.201604  	94.459753 
3140.166029  	94.481760 
3141.130453  	94.514304 
3142.094878  	94.487239 
3143.059302  	94.405875 
3144.023727  	94.414055 
3144.988151  	94.465216 
3145.952575  	94.432584 
3146.917000  	94.400544 
3147.881424  	94.435827 
3148.845849  	94.511530 
3149.810273  	94.506199 
3150.774698  	94.481918 
3151.739122  	94.489767 
3152.703547  	94.492097 
3153.667971  	94.491169 
3154.632396  	94.533944 
3155.596820  	94.508707 
3156.561244  	94.420180 
3157.525669  	94.451178 
3158.490093  	94.464436 
3159.454518  	94.449120 
3160.418942  	94.450550 
3161.383367  	94.490298 
3162.347791  	94.494736 
3163.312216  	94.471811 
3164.276640  	94.475101 
3165.241065  	94.521485 
3166.205489  	94.545058 
3167.169914  	94.512252 
3168.134338  	94.437462 
3169.098762  	94.426671 
3170.063187  	94.432777 
3171.027611  	94.452485 
3171.992036  	94.462978 
3172.956460  	94.467112 
3173.920885  	94.473753 
3174.885309  	94.457121 
3175.849734  	94.433161 
3176.814158  	94.398724 
3177.778583  	94.325060 
3178.743007  	94.337971 
3179.707431  	94.431100 
3180.671856  	94.506190 
3181.636280  	94.574684 
3182.600705  	94.528613 
3183.565129  	94.454929 
3184.529554  	94.465676 
3185.493978  	94.453547 
3186.458403  	94.444553 
3187.422827  	94.441909 
3188.387252  	94.457127 
3189.351676  	94.477389 
3190.316100  	94.492295 
3191.280525  	94.505013 
3192.244949  	94.483766 
3193.209374  	94.511313 
3194.173798  	94.520352 
3195.138223  	94.492314 
3196.102647  	94.434199 
3197.067072  	94.345832 
3198.031496  	94.333824 
3198.995921  	94.477517 
3199.960345  	94.547283 
3200.924769  	94.541256 
3201.889194  	94.517247 
3202.853618  	94.466992 
3203.818043  	94.428085 
3204.782467  	94.443082 
3205.746892  	94.461694 
3206.711316  	94.425306 
3207.675741  	94.452570 
3208.640165  	94.491274 
3209.604590  	94.461392 
3210.569014  	94.418741 
3211.533438  	94.461547 
3212.497863  	94.424947 
3213.462287  	94.376940 
3214.426712  	94.326240 
3215.391136  	94.343356 
3216.355561  	94.412314 
3217.319985  	94.485936 
3218.284410  	94.475812 
3219.248834  	94.422942 
3220.213259  	94.412070 
3221.177683  	94.492382 
3222.142107  	94.550696 
3223.106532  	94.529847 
3224.070956  	94.510510 
3225.035381  	94.474908 
3225.999805  	94.471449 
3226.964230  	94.494322 
3227.928654  	94.451183 
3228.893079  	94.472529 
3229.857503  	94.518248 
3230.821928  	94.483098 
3231.786352  	94.462102 
3232.750777  	94.451767 
3233.715201  	94.464952 
3234.679625  	94.474126 
3235.644050  	94.449954 
3236.608474  	94.440870 
3237.572899  	94.475600 
3238.537323  	94.516132 
3239.501748  	94.502537 
3240.466172  	94.449540 
3241.430597  	94.476048 
3242.395021  	94.518040 
3243.359446  	94.462672 
3244.323870  	94.381039 
3245.288294  	94.312135 
3246.252719  	94.368612 
3247.217143  	94.468495 
3248.181568  	94.497027 
3249.145992  	94.461371 
3250.110417  	94.470760 
3251.074841  	94.491240 
3252.039266  	94.491013 
3253.003690  	94.478965 
3253.968115  	94.401331 
3254.932539  	94.318146 
3255.896963  	94.345218 
3256.861388  	94.349705 
3257.825812  	94.396797 
3258.790237  	94.438163 
3259.754661  	94.442971 
3260.719086  	94.471290 
3261.683510  	94.516953 
3262.647935  	94.502930 
3263.612359  	94.511273 
3264.576784  	94.529770 
3265.541208  	94.471918 
3266.505632  	94.485380 
3267.470057  	94.505680 
3268.434481  	94.475233 
3269.398906  	94.440414 
3270.363330  	94.415569 
3271.327755  	94.442789 
3272.292179  	94.432248 
3273.256604  	94.394321 
3274.221028  	94.404174 
3275.185453  	94.490263 
3276.149877  	94.436321 
3277.114301  	94.384289 
3278.078726  	94.374999 
3279.043150  	94.323916 
3280.007575  	94.341286 
3280.971999  	94.379721 
3281.936424  	94.394486 
3282.900848  	94.389110 
3283.865273  	94.347903 
3284.829697  	94.349389 
3285.794122  	94.368799 
3286.758546  	94.382702 
3287.722971  	94.389238 
3288.687395  	94.358018 
3289.651819  	94.389023 
3290.616244  	94.392847 
3291.580668  	94.347628 
3292.545093  	94.289489 
3293.509517  	94.288358 
3294.473942  	94.351079 
3295.438366  	94.379830 
3296.402791  	94.366917 
3297.367215  	94.372071 
3298.331640  	94.387155 
3299.296064  	94.474276 
3300.260488  	94.475816 
3301.224913  	94.427259 
3302.189337  	94.460900 
3303.153762  	94.411822 
3304.118186  	94.376085 
3305.082611  	94.444273 
3306.047035  	94.458784 
3307.011460  	94.486648 
3307.975884  	94.430401 
3308.940309  	94.329266 
3309.904733  	94.338834 
3310.869157  	94.350964 
3311.833582  	94.356624 
3312.798006  	94.421533 
3313.762431  	94.451581 
3314.726855  	94.494211 
3315.691280  	94.446272 
3316.655704  	94.393955 
3317.620129  	94.390105 
3318.584553  	94.398858 
3319.548978  	94.362749 
3320.513402  	94.415633 
3321.477826  	94.467517 
3322.442251  	94.487312 
3323.406675  	94.518262 
3324.371100  	94.497696 
3325.335524  	94.455825 
3326.299949  	94.412060 
3327.264373  	94.354109 
3328.228798  	94.357598 
3329.193222  	94.334645 
3330.157647  	94.303507 
3331.122071  	94.326628 
3332.086495  	94.415402 
3333.050920  	94.462537 
3334.015344  	94.444647 
3334.979769  	94.342813 
3335.944193  	94.318460 
3336.908618  	94.250587 
3337.873042  	94.274948 
3338.837467  	94.385190 
3339.801891  	94.388237 
3340.766316  	94.421305 
3341.730740  	94.398485 
3342.695164  	94.369403 
3343.659589  	94.440860 
3344.624013  	94.561992 
3345.588438  	94.560290 
3346.552862  	94.485737 
3347.517287  	94.434883 
3348.481711  	94.439669 
3349.446136  	94.451526 
3350.410560  	94.484223 
3351.374985  	94.569204 
3352.339409  	94.575806 
3353.303834  	94.509037 
3354.268258  	94.489104 
3355.232682  	94.483660 
3356.197107  	94.389672 
3357.161531  	94.345376 
3358.125956  	94.426685 
3359.090380  	94.479572 
3360.054805  	94.396219 
3361.019229  	94.374015 
3361.983654  	94.354846 
3362.948078  	94.421445 
3363.912503  	94.460429 
3364.876927  	94.391364 
3365.841351  	94.386674 
3366.805776  	94.395343 
3367.770200  	94.391827 
3368.734625  	94.456471 
3369.699049  	94.491513 
3370.663474  	94.533847 
3371.627898  	94.549305 
3372.592323  	94.477413 
3373.556747  	94.433667 
3374.521172  	94.447331 
3375.485596  	94.456073 
3376.450020  	94.478768 
3377.414445  	94.485170 
3378.378869  	94.457378 
3379.343294  	94.509815 
3380.307718  	94.540702 
3381.272143  	94.642994 
3382.236567  	94.562395 
3383.200992  	94.373823 
3384.165416  	94.284873 
3385.129841  	94.309978 
3386.094265  	94.376797 
3387.058689  	94.429095 
3388.023114  	94.473958 
3388.987538  	94.500174 
3389.951963  	94.438774 
3390.916387  	94.434000 
3391.880812  	94.363349 
3392.845236  	94.118238 
3393.809661  	94.156580 
3394.774085  	94.381787 
3395.738510  	94.380818 
3396.702934  	94.301797 
3397.667358  	94.171445 
3398.631783  	94.273153 
3399.596207  	94.482620 
3400.560632  	94.480958 
3401.525056  	94.428065 
3402.489481  	94.445627 
3403.453905  	94.351954 
3404.418330  	94.298051 
3405.382754  	94.362106 
3406.347179  	94.391440 
3407.311603  	94.307089 
3408.276028  	94.255592 
3409.240452  	94.214888 
3410.204876  	94.189170 
3411.169301  	94.227573 
3412.133725  	94.301863 
3413.098150  	94.321902 
3414.062574  	94.258061 
3415.026999  	94.212132 
3415.991423  	94.153625 
3416.955848  	94.144874 
3417.920272  	94.128972 
3418.884697  	94.028809 
3419.849121  	93.771584 
3420.813545  	93.488476 
3421.777970  	93.494363 
3422.742394  	93.632164 
3423.706819  	93.761320 
3424.671243  	93.841286 
3425.635668  	93.846401 
3426.600092  	93.818550 
3427.564517  	93.804712 
3428.528941  	93.758478 
3429.493366  	93.772408 
3430.457790  	93.794808 
3431.422214  	93.732174 
3432.386639  	93.752935 
3433.351063  	93.852676 
3434.315488  	93.942415 
3435.279912  	93.951297 
3436.244337  	93.928524 
3437.208761  	93.942648 
3438.173186  	93.992434 
3439.137610  	93.991414 
3440.102035  	94.007268 
3441.066459  	93.985069 
3442.030883  	93.873068 
3442.995308  	93.688263 
3443.959732  	93.842527 
3444.924157  	93.950698 
3445.888581  	93.879420 
3446.853006  	93.524929 
3447.817430  	93.245993 
3448.781855  	93.785566 
3449.746279  	94.092599 
3450.710704  	94.138894 
3451.675128  	94.203298 
3452.639552  	94.212366 
3453.603977  	94.205147 
3454.568401  	94.252818 
3455.532826  	94.178037 
3456.497250  	94.150604 
3457.461675  	94.202191 
3458.426099  	94.234549 
3459.390524  	94.206337 
3460.354948  	94.175361 
3461.319373  	94.052267 
3462.283797  	93.961653 
3463.248221  	94.008974 
3464.212646  	94.261030 
3465.177070  	94.318241 
3466.141495  	94.218651 
3467.105919  	94.051217 
3468.070344  	94.192547 
3469.034768  	94.330274 
3469.999193  	94.310475 
3470.963617  	94.333146 
3471.928042  	94.357176 
3472.892466  	94.377224 
3473.856891  	94.392691 
3474.821315  	94.267326 
3475.785739  	94.280475 
3476.750164  	94.343986 
3477.714588  	94.358752 
3478.679013  	94.370788 
3479.643437  	94.305244 
3480.607862  	94.007392 
3481.572286  	93.856678 
3482.536711  	93.727755 
3483.501135  	93.966321 
3484.465560  	94.248051 
3485.429984  	94.251828 
3486.394408  	94.264303 
3487.358833  	94.234278 
3488.323257  	93.985100 
3489.287682  	94.006635 
3490.252106  	94.251517 
3491.216531  	94.300905 
3492.180955  	94.381649 
3493.145380  	94.421432 
3494.109804  	94.396569 
3495.074229  	94.269676 
3496.038653  	94.046419 
3497.003077  	93.923882 
3497.967502  	94.167766 
3498.931926  	94.362784 
3499.896351  	94.234423 
3500.860775  	94.100331 
3501.825200  	93.833573 
3502.789624  	93.436461 
3503.754049  	93.301669 
3504.718473  	93.597931 
3505.682898  	93.947254 
3506.647322  	94.256857 
3507.611746  	94.368208 
3508.576171  	94.080022 
3509.540595  	93.449937 
3510.505020  	93.568809 
3511.469444  	93.948628 
3512.433869  	94.042783 
3513.398293  	94.109398 
3514.362718  	94.195696 
3515.327142  	94.326388 
3516.291567  	94.362943 
3517.255991  	94.235607 
3518.220415  	94.136523 
3519.184840  	94.065891 
3520.149264  	94.078392 
3521.113689  	94.226362 
3522.078113  	94.107227 
3523.042538  	93.332237 
3524.006962  	92.898845 
3524.971387  	93.252635 
3525.935811  	93.452452 
3526.900236  	93.397231 
3527.864660  	93.243315 
3528.829085  	93.317328 
3529.793509  	93.527949 
3530.757933  	93.803103 
3531.722358  	93.856604 
3532.686782  	94.107757 
3533.651207  	94.270586 
3534.615631  	94.267839 
3535.580056  	93.982103 
3536.544480  	93.368001 
3537.508905  	93.491833 
3538.473329  	94.045604 
3539.437754  	94.090647 
3540.402178  	94.123424 
3541.366602  	94.145290 
3542.331027  	94.124265 
3543.295451  	93.854961 
3544.259876  	93.498434 
3545.224300  	92.737403 
3546.188725  	92.490364 
3547.153149  	92.534466 
3548.117574  	92.950103 
3549.081998  	93.727703 
3550.046423  	93.990994 
3551.010847  	93.947625 
3551.975271  	93.375160 
3552.939696  	93.025777 
3553.904120  	93.374272 
3554.868545  	93.735562 
3555.832969  	94.101108 
3556.797394  	94.071503 
3557.761818  	94.036672 
3558.726243  	94.145360 
3559.690667  	93.818584 
3560.655092  	93.351831 
3561.619516  	93.759206 
3562.583940  	93.787102 
3563.548365  	93.597891 
3564.512789  	93.425291 
3565.477214  	92.758292 
3566.441638  	90.808592 
3567.406063  	90.578978 
3568.370487  	91.006584 
3569.334912  	92.356076 
3570.299336  	93.498048 
3571.263761  	93.723561 
3572.228185  	94.064877 
3573.192609  	94.108104 
3574.157034  	93.963874 
3575.121458  	93.843470 
3576.085883  	93.919754 
3577.050307  	93.894273 
3578.014732  	93.936284 
3578.979156  	94.013310 
3579.943581  	93.667435 
3580.908005  	93.645584 
3581.872430  	94.018317 
3582.836854  	94.051123 
3583.801278  	93.914271 
3584.765703  	93.928975 
3585.730127  	93.596559 
3586.694552  	92.069283 
3587.658976  	91.001090 
3588.623401  	91.353005 
3589.587825  	92.318788 
3590.552250  	93.619089 
3591.516674  	94.047196 
3592.481099  	93.974292 
3593.445523  	93.323812 
3594.409948  	93.316353 
3595.374372  	92.997806 
3596.338796  	92.722523 
3597.303221  	93.495396 
3598.267645  	93.586780 
3599.232070  	93.246603 
3600.196494  	93.331931 
3601.160919  	93.083084 
3602.125343  	93.309235 
3603.089768  	93.643392 
3604.054192  	93.977685 
3605.018617  	94.135609 
3605.983041  	93.974111 
3606.947465  	92.953697 
3607.911890  	92.334802 
3608.876314  	92.673694 
3609.840739  	92.320423 
3610.805163  	93.227130 
3611.769588  	93.438667 
3612.734012  	92.245071 
3613.698437  	92.174941 
3614.662861  	92.515216 
3615.627286  	92.554405 
3616.591710  	93.413656 
3617.556134  	92.928504 
3618.520559  	92.067430 
3619.484983  	92.068074 
3620.449408  	92.016833 
3621.413832  	92.662280 
3622.378257  	93.357158 
3623.342681  	93.789964 
3624.307106  	93.943699 
3625.271530  	93.927014 
3626.235955  	93.480902 
3627.200379  	93.242544 
3628.164803  	92.495364 
3629.129228  	89.877774 
3630.093652  	90.160605 
3631.058077  	92.465946 
3632.022501  	93.476250 
3632.986926  	93.598537 
3633.951350  	92.927639 
3634.915775  	93.186670 
3635.880199  	93.919135 
3636.844624  	94.059462 
3637.809048  	93.860308 
3638.773472  	93.741668 
3639.737897  	94.032313 
3640.702321  	94.128736 
3641.666746  	93.824972 
3642.631170  	93.366379 
3643.595595  	93.591915 
3644.560019  	93.982622 
3645.524444  	93.743012 
3646.488868  	92.795054 
3647.453293  	90.975243 
3648.417717  	90.966121 
3649.382142  	90.930499 
3650.346566  	90.069191 
3651.310990  	90.265835 
3652.275415  	92.209445 
3653.239839  	93.593262 
3654.204264  	93.971998 
3655.168688  	93.920057 
3656.133113  	93.132604 
3657.097537  	92.636406 
3658.061962  	93.687713 
3659.026386  	94.012389 
3659.990811  	93.902188 
3660.955235  	94.073270 
3661.919659  	94.336738 
3662.884084  	94.327448 
3663.848508  	94.315384 
3664.812933  	94.275269 
3665.777357  	94.305928 
3666.741782  	94.378833 
3667.706206  	94.317185 
3668.670631  	93.402825 
3669.635055  	92.229243 
3670.599480  	91.712403 
3671.563904  	92.053326 
3672.528328  	93.521807 
3673.492753  	93.900640 
3674.457177  	92.904444 
3675.421602  	90.154785 
3676.386026  	90.297076 
3677.350451  	92.212426 
3678.314875  	93.089899 
3679.279300  	93.101741 
3680.243724  	93.082715 
3681.208149  	93.932070 
3682.172573  	94.349733 
3683.136997  	94.323003 
3684.101422  	94.218119 
3685.065846  	94.120194 
3686.030271  	94.281816 
3686.994695  	94.180028 
3687.959120  	93.541830 
3688.923544  	92.323485 
3689.887969  	92.652585 
3690.852393  	92.351230 
3691.816818  	92.033350 
3692.781242  	93.521697 
3693.745666  	94.082281 
3694.710091  	94.169987 
3695.674515  	94.282959 
3696.638940  	94.154138 
3697.603364  	94.243169 
3698.567789  	94.484064 
3699.532213  	94.427067 
3700.496638  	94.381142 
3701.461062  	93.752507 
3702.425487  	93.002431 
3703.389911  	93.846662 
3704.354335  	94.382184 
3705.318760  	94.296216 
3706.283184  	94.288774 
3707.247609  	94.451164 
3708.212033  	94.440997 
3709.176458  	93.819620 
3710.140882  	92.952395 
3711.105307  	92.811451 
3712.069731  	92.028947 
3713.034156  	91.895236 
3713.998580  	93.320755 
3714.963005  	93.547677 
3715.927429  	93.746789 
3716.891853  	94.284328 
3717.856278  	94.437937 
3718.820702  	93.874130 
3719.785127  	93.513604 
3720.749551  	94.071445 
3721.713976  	93.748102 
3722.678400  	92.382865 
3723.642825  	92.894600 
3724.607249  	93.408512 
3725.571674  	92.779673 
3726.536098  	92.541206 
3727.500522  	92.732548 
3728.464947  	93.715406 
3729.429371  	94.344190 
3730.393796  	94.219976 
3731.358220  	93.888490 
3732.322645  	93.156509 
3733.287069  	92.980411 
3734.251494  	92.625185 
3735.215918  	89.769098 
3736.180343  	89.796435 
3737.144767  	91.401260 
3738.109191  	92.366086 
3739.073616  	92.810039 
3740.038040  	93.445909 
3741.002465  	93.232223 
3741.966889  	93.215051 
3742.931314  	93.724414 
3743.895738  	92.995650 
3744.860163  	89.595923 
3745.824587  	91.386483 
3746.789012  	92.777262 
3747.753436  	92.922282 
3748.717860  	92.821511 
3749.682285  	92.080270 
3750.646709  	91.874200 
3751.611134  	91.941055 
3752.575558  	90.794606 
3753.539983  	92.108829 
3754.504407  	93.282712 
3755.468832  	93.894091 
3756.433256  	93.646966 
3757.397681  	93.520466 
3758.362105  	93.743214 
3759.326529  	92.969949 
3760.290954  	92.358646 
3761.255378  	93.685487 
3762.219803  	94.230129 
3763.184227  	94.307564 
3764.148652  	94.341289 
3765.113076  	94.066559 
3766.077501  	93.206409 
3767.041925  	93.691244 
3768.006350  	94.294547 
3768.970774  	94.104166 
3769.935199  	93.093502 
3770.899623  	92.995182 
3771.864047  	93.908913 
3772.828472  	94.317511 
3773.792896  	94.424305 
3774.757321  	94.538092 
3775.721745  	94.652449 
3776.686170  	94.738555 
3777.650594  	94.602063 
3778.615019  	94.187753 
3779.579443  	93.397367 
3780.543868  	93.411903 
3781.508292  	94.252715 
3782.472716  	94.408367 
3783.437141  	94.435665 
3784.401565  	94.123551 
3785.365990  	93.622431 
3786.330414  	93.973505 
3787.294839  	94.348932 
3788.259263  	94.509736 
3789.223688  	94.513337 
3790.188112  	94.505453 
3791.152537  	94.618767 
3792.116961  	94.667404 
3793.081385  	94.696856 
3794.045810  	94.677743 
3795.010234  	94.513384 
3795.974659  	94.025738 
3796.939083  	93.195798 
3797.903508  	93.436917 
3798.867932  	94.020405 
3799.832357  	94.121309 
3800.796781  	93.255358 
3801.761206  	91.732317 
3802.725630  	92.097492 
3803.690054  	93.232591 
3804.654479  	94.116604 
3805.618903  	94.262025 
3806.583328  	93.747624 
3807.547752  	92.952519 
3808.512177  	93.765007 
3809.476601  	94.315387 
3810.441026  	94.379860 
3811.405450  	94.466857 
3812.369875  	94.588604 
3813.334299  	94.648403 
3814.298723  	94.471324 
3815.263148  	93.937050 
3816.227572  	92.573976 
3817.191997  	92.812977 
3818.156421  	93.877968 
3819.120846  	93.905915 
3820.085270  	93.237804 
3821.049695  	91.730506 
3822.014119  	91.376768 
3822.978544  	93.057766 
3823.942968  	93.771132 
3824.907392  	94.002354 
3825.871817  	93.956352 
3826.836241  	93.430347 
3827.800666  	93.464587 
3828.765090  	94.109177 
3829.729515  	94.427840 
3830.693939  	94.352709 
3831.658364  	93.612655 
3832.622788  	93.422579 
3833.587213  	94.169974 
3834.551637  	94.001641 
3835.516062  	93.188896 
3836.480486  	93.650118 
3837.444910  	93.470848 
3838.409335  	92.100532 
3839.373759  	92.556553 
3840.338184  	92.369385 
3841.302608  	92.295959 
3842.267033  	93.494949 
3843.231457  	93.750445 
3844.195882  	92.977200 
3845.160306  	93.629080 
3846.124731  	94.288072 
3847.089155  	94.434854 
3848.053579  	94.468102 
3849.018004  	94.295170 
3849.982428  	93.778689 
3850.946853  	93.755604 
3851.911277  	93.122405 
3852.875702  	91.512691 
3853.840126  	90.927804 
3854.804551  	90.892079 
3855.768975  	92.800002 
3856.733400  	93.249114 
3857.697824  	92.857732 
3858.662248  	93.756337 
3859.626673  	94.450130 
3860.591097  	94.472773 
3861.555522  	93.927554 
3862.519946  	93.237182 
3863.484371  	93.501735 
3864.448795  	92.936689 
3865.413220  	91.841496 
3866.377644  	93.069779 
3867.342069  	94.135850 
3868.306493  	94.132248 
3869.270917  	93.008784 
3870.235342  	91.033221 
3871.199766  	92.150031 
3872.164191  	93.466632 
3873.128615  	93.847570 
3874.093040  	92.659325 
3875.057464  	92.423434 
3876.021889  	94.081048 
3876.986313  	94.607230 
3877.950738  	94.575682 
3878.915162  	94.447774 
3879.879586  	93.630733 
3880.844011  	91.855040 
3881.808435  	92.860339 
3882.772860  	93.925475 
3883.737284  	93.634289 
3884.701709  	93.536753 
3885.666133  	92.832111 
3886.630558  	92.300264 
3887.594982  	93.879934 
3888.559407  	94.513381 
3889.523831  	94.447421 
3890.488256  	94.038096 
3891.452680  	92.908338 
3892.417104  	92.684773 
3893.381529  	93.706664 
3894.345953  	93.761956 
3895.310378  	94.029009 
3896.274802  	94.495835 
3897.239227  	94.531409 
3898.203651  	93.968340 
3899.168076  	92.988254 
3900.132500  	92.712151 
3901.096925  	93.463938 
3902.061349  	92.338873 
3903.025773  	92.156182 
3903.990198  	92.721671 
3904.954622  	92.223368 
3905.919047  	92.519093 
3906.883471  	93.346560 
3907.847896  	94.305328 
3908.812320  	94.596518 
3909.776745  	94.612318 
3910.741169  	94.620184 
3911.705594  	94.624812 
3912.670018  	94.593564 
3913.634442  	94.603178 
3914.598867  	94.659166 
3915.563291  	94.537778 
3916.527716  	93.723590 
3917.492140  	92.908453 
3918.456565  	93.639710 
3919.420989  	94.037774 
3920.385414  	93.401157 
3921.349838  	93.809786 
3922.314263  	94.537165 
3923.278687  	94.283425 
3924.243111  	93.479116 
3925.207536  	92.998701 
3926.171960  	93.672003 
3927.136385  	94.466941 
3928.100809  	94.580819 
3929.065234  	94.367151 
3930.029658  	94.010448 
3930.994083  	93.814814 
3931.958507  	93.503786 
3932.922932  	93.042138 
3933.887356  	93.708105 
3934.851780  	94.177902 
3935.816205  	94.502817 
3936.780629  	94.653129 
3937.745054  	94.576212 
3938.709478  	94.378444 
3939.673903  	94.547002 
3940.638327  	94.649896 
3941.602752  	94.473570 
3942.567176  	93.633517 
3943.531601  	93.144140 
3944.496025  	93.944694 
3945.460449  	94.406377 
3946.424874  	94.504369 
3947.389298  	93.985481 
3948.353723  	93.588146 
3949.318147  	93.850787 
3950.282572  	93.633260 
3951.246996  	93.934509 
3952.211421  	94.512440 
3953.175845  	94.460219 
3954.140270  	94.511970 
3955.104694  	94.623570 
3956.069119  	94.552003 
3957.033543  	94.386858 
3957.997967  	94.380547 
3958.962392  	94.489014 
3959.926816  	94.580434 
3960.891241  	94.492881 
3961.855665  	94.043209 
3962.820090  	93.974786 
3963.784514  	94.480699 
3964.748939  	94.561180 
3965.713363  	94.616241 
3966.677788  	94.690843 
3967.642212  	94.695605 
3968.606636  	94.535916 
3969.571061  	94.373516 
3970.535485  	94.488822 
3971.499910  	94.567299 
3972.464334  	94.374957 
3973.428759  	94.466239 
3974.393183  	94.563808 
3975.357608  	94.418513 
3976.322032  	94.264907 
3977.286457  	94.430273 
3978.250881  	94.667235 
3979.215305  	94.679343 
3980.179730  	94.620519 
3981.144154  	94.580187 
3982.108579  	94.514894 
3983.073003  	94.531694 
3984.037428  	94.677437 
3985.001852  	94.715961 
3985.966277  	94.704262 
3986.930701  	94.719326 
3987.895126  	94.704561 
3988.859550  	94.657513 
3989.823974  	94.589290 
3990.788399  	94.435848 
3991.752823  	94.483247 
3992.717248  	94.607628 
3993.681672  	94.596773 
3994.646097  	94.521591 
3995.610521  	94.437938 
3996.574946  	94.619748 
3997.539370  	94.730923 
3998.503795  	94.685424 
3999.468219  	94.660531 
4000.432643  	94.728448 
4001.397068  	94.726290 
4002.361492  	94.723837 
4003.325917  	94.699935 
4004.290341  	94.709402 
4005.254766  	94.694425 
4006.219190  	94.680364 
4007.183615  	94.653477 
4008.148039  	94.562387 
4009.112464  	94.454466 
4010.076888  	94.575438 
4011.041313  	94.693915 
4012.005737  	94.760469 
4012.970161  	94.740654 
4013.934586  	94.705011 
4014.899010  	94.681171 
4015.863435  	94.653560 
4016.827859  	94.672093 
4017.792284  	94.713503 
4018.756708  	94.696512 
4019.721133  	94.626653 
4020.685557  	94.613458 
4021.649982  	94.641362 
4022.614406  	94.661137 
4023.578830  	94.662930 
4024.543255  	94.607102 
4025.507679  	94.566632 
4026.472104  	94.627168 
4027.436528  	94.726423 
4028.400953  	94.723501 
4029.365377  	94.690730 
4030.329802  	94.651078 
4031.294226  	94.660654 
4032.258651  	94.683681 
4033.223075  	94.743124 
4034.187499  	94.775896 
4035.151924  	94.717022 
4036.116348  	94.667704 
4037.080773  	94.714638 
4038.045197  	94.753253 
4039.009622  	94.758497 
4039.974046  	94.717900 
4040.938471  	94.719628 
4041.902895  	94.730503 
4042.867320  	94.737399 
4043.831744  	94.649518 
4044.796168  	94.565963 
4045.760593  	94.553276 
4046.725017  	94.629915 
4047.689442  	94.671014 
4048.653866  	94.682580 
4049.618291  	94.673644 
4050.582715  	94.705756 
4051.547140  	94.713176 
4052.511564  	94.703310 
4053.475989  	94.678425 
4054.440413  	94.674790 
4055.404837  	94.660363 
4056.369262  	94.708537 
4057.333686  	94.752682 
4058.298111  	94.760046 
4059.262535  	94.750128 
4060.226960  	94.679621 
4061.191384  	94.637858 
4062.155809  	94.679252 
4063.120233  	94.711442 
4064.084658  	94.705661 
4065.049082  	94.699807 
4066.013506  	94.699719 
4066.977931  	94.674814 
4067.942355  	94.654752 
4068.906780  	94.669950 
4069.871204  	94.710779 
4070.835629  	94.686254 
4071.800053  	94.647460 
4072.764478  	94.609803 
4073.728902  	94.568165 
4074.693327  	94.602924 
4075.657751  	94.672122 
4076.622176  	94.648636 
4077.586600  	94.658751 
4078.551024  	94.678499 
4079.515449  	94.635536 
4080.479873  	94.628534 
4081.444298  	94.667684 
4082.408722  	94.642093 
4083.373147  	94.581687 
4084.337571  	94.552938 
4085.301996  	94.557941 
4086.266420  	94.563206 
4087.230845  	94.586443 
4088.195269  	94.579365 
4089.159693  	94.575202 
4090.124118  	94.561613 
4091.088542  	94.576212 
4092.052967  	94.598353 
4093.017391  	94.592614 
4093.981816  	94.598007 
4094.946240  	94.618413 
4095.910665  	94.661363 
4096.875089  	94.714550 
4097.839514  	94.679463 
4098.803938  	94.580187 
4099.768362  	94.589442 
4100.732787  	94.672073 
4101.697211  	94.678026 
4102.661636  	94.655892 
4103.626060  	94.660536 
4104.590485  	94.606927 
4105.554909  	94.577446 
4106.519334  	94.592516 
4107.483758  	94.551253 
4108.448183  	94.601210 
4109.412607  	94.658675 
4110.377031  	94.659138 
4111.341456  	94.638647 
4112.305880  	94.666785 
4113.270305  	94.658537 
4114.234729  	94.674422 
4115.199154  	94.717339 
4116.163578  	94.694514 
4117.128003  	94.680721 
4118.092427  	94.673271 
4119.056852  	94.647733 
4120.021276  	94.624483 
4120.985700  	94.636015 
4121.950125  	94.662764 
4122.914549  	94.626904 
4123.878974  	94.663797 
4124.843398  	94.695109 
4125.807823  	94.692804 
4126.772247  	94.699050 
4127.736672  	94.729263 
4128.701096  	94.731503 
4129.665521  	94.722144 
4130.629945  	94.748115 
4131.594370  	94.744222 
4132.558794  	94.748805 
4133.523218  	94.709444 
4134.487643  	94.670310 
4135.452067  	94.697950 
4136.416492  	94.693268 
4137.380916  	94.667882 
4138.345341  	94.616306 
4139.309765  	94.582883 
4140.274190  	94.643114 
4141.238614  	94.660921 
4142.203039  	94.674572 
4143.167463  	94.775276 
4144.131887  	94.726813 
4145.096312  	94.672760 
4146.060736  	94.690597 
4147.025161  	94.699370 
4147.989585  	94.684519 
4148.954010  	94.669410 
4149.918434  	94.674883 
4150.882859  	94.719405 
4151.847283  	94.707852 
4152.811708  	94.664531 
4153.776132  	94.696376 
4154.740556  	94.705972 
4155.704981  	94.692027 
4156.669405  	94.682357 
4157.633830  	94.702260 
4158.598254  	94.705744 
4159.562679  	94.686327 
4160.527103  	94.674261 
4161.491528  	94.654253 
4162.455952  	94.685039 
4163.420377  	94.735157 
4164.384801  	94.752141 
4165.349225  	94.721807 
4166.313650  	94.735058 
4167.278074  	94.723829 
4168.242499  	94.735898 
4169.206923  	94.772056 
4170.171348  	94.767927 
4171.135772  	94.758629 
4172.100197  	94.746372 
4173.064621  	94.750095 
4174.029046  	94.760676 
4174.993470  	94.713101 
4175.957894  	94.756707 
4176.922319  	94.809972 
4177.886743  	94.780329 
4178.851168  	94.750269 
4179.815592  	94.731371 
4180.780017  	94.722710 
4181.744441  	94.769179 
4182.708866  	94.752081 
4183.673290  	94.712701 
4184.637715  	94.723660 
4185.602139  	94.738584 
4186.566563  	94.693167 
4187.530988  	94.717866 
4188.495412  	94.749881 
4189.459837  	94.798295 
4190.424261  	94.789045 
4191.388686  	94.770492 
4192.353110  	94.768944 
4193.317535  	94.755512 
4194.281959  	94.743613 
4195.246384  	94.775706 
4196.210808  	94.748273 
4197.175233  	94.690767 
4198.139657  	94.726903 
4199.104081  	94.785960 
4200.068506  	94.777666 
4201.032930  	94.769348 
4201.997355  	94.824401 
4202.961779  	94.853503 
4203.926204  	94.776256 
4204.890628  	94.715101 
4205.855053  	94.710889 
4206.819477  	94.737204 
4207.783902  	94.750338 
4208.748326  	94.755338 
4209.712750  	94.756945 
4210.677175  	94.762692 
4211.641599  	94.761628 
4212.606024  	94.742934 
4213.570448  	94.764724 
4214.534873  	94.812852 
4215.499297  	94.740266 
4216.463722  	94.732092 
4217.428146  	94.692199 
4218.392571  	94.716809 
4219.356995  	94.780384 
4220.321419  	94.758426 
4221.285844  	94.776251 
4222.250268  	94.836735 
4223.214693  	94.723323 
4224.179117  	94.641303 
4225.143542  	94.683533 
4226.107966  	94.775658 
4227.072391  	94.808718 
4228.036815  	94.781419 
4229.001240  	94.795419 
4229.965664  	94.748961 
4230.930088  	94.715133 
4231.894513  	94.758351 
4232.858937  	94.748036 
4233.823362  	94.783094 
4234.787786  	94.795908 
4235.752211  	94.741147 
4236.716635  	94.733137 
4237.681060  	94.807530 
4238.645484  	94.790313 
4239.609909  	94.697634 
4240.574333  	94.672820 
4241.538757  	94.756224 
4242.503182  	94.800337 
4243.467606  	94.791507 
4244.432031  	94.734998 
4245.396455  	94.718100 
4246.360880  	94.789929 
4247.325304  	94.779631 
4248.289729  	94.728881 
4249.254153  	94.748997 
4250.218578  	94.776210 
4251.183002  	94.789958 
4252.147427  	94.769297 
4253.111851  	94.730364 
4254.076275  	94.710802 
4255.040700  	94.730381 
4256.005124  	94.740778 
4256.969549  	94.782520 
4257.933973  	94.792857 
4258.898398  	94.750028 
4259.862822  	94.722123 
4260.827247  	94.702994 
4261.791671  	94.697200 
4262.756096  	94.730532 
4263.720520  	94.752694 
4264.684944  	94.766413 
4265.649369  	94.767887 
4266.613793  	94.788848 
4267.578218  	94.736907 
4268.542642  	94.714089 
4269.507067  	94.708363 
4270.471491  	94.711603 
4271.435916  	94.741775 
4272.400340  	94.724441 
4273.364765  	94.718539 
4274.329189  	94.715408 
4275.293613  	94.745133 
4276.258038  	94.759166 
4277.222462  	94.701421 
4278.186887  	94.660909 
4279.151311  	94.622394 
4280.115736  	94.648876 
4281.080160  	94.719553 
4282.044585  	94.695439 
4283.009009  	94.645740 
4283.973434  	94.676580 
4284.937858  	94.673239 
4285.902282  	94.647668 
4286.866707  	94.667697 
4287.831131  	94.719107 
4288.795556  	94.788489 
4289.759980  	94.790747 
4290.724405  	94.666624 
4291.688829  	94.640582 
4292.653254  	94.735234 
4293.617678  	94.777038 
4294.582103  	94.805602 
4295.546527  	94.811415 
4296.510951  	94.782011 
4297.475376  	94.782595 
4298.439800  	94.767915 
4299.404225  	94.759162 
4300.368649  	94.773005 
4301.333074  	94.759408 
4302.297498  	94.659948 
4303.261923  	94.633405 
4304.226347  	94.713020 
4305.190772  	94.831627 
4306.155196  	94.826032 
4307.119620  	94.743280 
4308.084045  	94.642651 
4309.048469  	94.651831 
4310.012894  	94.684983 
4310.977318  	94.696692 
4311.941743  	94.721245 
4312.906167  	94.716100 
4313.870592  	94.705739 
4314.835016  	94.724014 
4315.799441  	94.693896 
4316.763865  	94.694978 
4317.728290  	94.753250 
4318.692714  	94.810693 
4319.657138  	94.763250 
4320.621563  	94.729624 
4321.585987  	94.719204 
4322.550412  	94.747726 
4323.514836  	94.743917 
4324.479261  	94.776963 
4325.443685  	94.767987 
4326.408110  	94.785722 
4327.372534  	94.793040 
4328.336959  	94.803590 
4329.301383  	94.805510 
4330.265807  	94.803642 
4331.230232  	94.844152 
4332.194656  	94.826501 
4333.159081  	94.786151 
4334.123505  	94.785676 
4335.087930  	94.776946 
4336.052354  	94.755796 
4337.016779  	94.772840 
4337.981203  	94.793777 
4338.945628  	94.755046 
4339.910052  	94.768694 
4340.874476  	94.805100 
4341.838901  	94.821481 
4342.803325  	94.773214 
4343.767750  	94.745108 
4344.732174  	94.711149 
4345.696599  	94.737514 
4346.661023  	94.789147 
4347.625448  	94.751540 
4348.589872  	94.739147 
4349.554297  	94.812808 
4350.518721  	94.846515 
4351.483145  	94.843607 
4352.447570  	94.813060 
4353.411994  	94.813702 
4354.376419  	94.770239 
4355.340843  	94.747609 
4356.305268  	94.777955 
4357.269692  	94.799148 
4358.234117  	94.849054 
4359.198541  	94.830663 
4360.162966  	94.818908 
4361.127390  	94.808400 
4362.091814  	94.792726 
4363.056239  	94.753031 
4364.020663  	94.774360 
4364.985088  	94.739781 
4365.949512  	94.697252 
4366.913937  	94.746527 
4367.878361  	94.712431 
4368.842786  	94.734897 
4369.807210  	94.847794 
4370.771635  	94.851880 
4371.736059  	94.764524 
4372.700484  	94.742854 
4373.664908  	94.774439 
4374.629332  	94.826941 
4375.593757  	94.787917 
4376.558181  	94.770281 
4377.522606  	94.810726 
4378.487030  	94.728882 
4379.451455  	94.712332 
4380.415879  	94.762266 
4381.380304  	94.743876 
4382.344728  	94.776445 
4383.309153  	94.796093 
4384.273577  	94.840097 
4385.238001  	94.874640 
4386.202426  	94.823670 
4387.166850  	94.752097 
4388.131275  	94.704147 
4389.095699  	94.683286 
4390.060124  	94.727764 
4391.024548  	94.795291 
4391.988973  	94.803179 
4392.953397  	94.773537 
4393.917822  	94.760869 
4394.882246  	94.715804 
4395.846670  	94.751615 
4396.811095  	94.775659 
4397.775519  	94.744631 
4398.739944  	94.769609 
4399.704368  	94.847126 
4400.668793  	94.844778 
4401.633217  	94.700153 
4402.597642  	94.647637 
4403.562066  	94.821832 
4404.526491  	94.923436 
4405.490915  	94.897674 
4406.455339  	94.763550 
4407.419764  	94.709933 
4408.384188  	94.759916 
4409.348613  	94.807676 
4410.313037  	94.801415 
4411.277462  	94.762926 
4412.241886  	94.761377 
4413.206311  	94.817063 
4414.170735  	94.815143 
4415.135160  	94.821539 
4416.099584  	94.832313 
4417.064008  	94.748781 
4418.028433  	94.672192 
4418.992857  	94.697714 
4419.957282  	94.693577 
4420.921706  	94.688419 
4421.886131  	94.693422 
4422.850555  	94.663482 
4423.814980  	94.642824 
4424.779404  	94.680950 
4425.743829  	94.732415 
4426.708253  	94.742918 
4427.672677  	94.689811 
4428.637102  	94.708512 
4429.601526  	94.785323 
4430.565951  	94.753963 
4431.530375  	94.677642 
4432.494800  	94.612870 
4433.459224  	94.555990 
4434.423649  	94.621558 
4435.388073  	94.664785 
4436.352498  	94.768203 
4437.316922  	94.832210 
4438.281347  	94.806620 
4439.245771  	94.710245 
4440.210195  	94.730139 
4441.174620  	94.762962 
4442.139044  	94.743555 
4443.103469  	94.791181 
4444.067893  	94.762408 
4445.032318  	94.798688 
4445.996742  	94.773790 
4446.961167  	94.688898 
4447.925591  	94.669177 
4448.890016  	94.655698 
4449.854440  	94.681624 
4450.818864  	94.731874 
4451.783289  	94.750695 
4452.747713  	94.719566 
4453.712138  	94.738443 
4454.676562  	94.708241 
4455.640987  	94.650469 
4456.605411  	94.721760 
4457.569836  	94.736637 
4458.534260  	94.630587 
4459.498685  	94.610943 
4460.463109  	94.666531 
4461.427533  	94.638534 
4462.391958  	94.607192 
4463.356382  	94.677928 
4464.320807  	94.732483 
4465.285231  	94.693665 
4466.249656  	94.682356 
4467.214080  	94.717999 
4468.178505  	94.676843 
4469.142929  	94.694909 
4470.107354  	94.782210 
4471.071778  	94.769129 
4472.036202  	94.731292 
4473.000627  	94.758459 
4473.965051  	94.707829 
4474.929476  	94.654370 
4475.893900  	94.699831 
4476.858325  	94.769402 
4477.822749  	94.802133 
4478.787174  	94.782562 
4479.751598  	94.799104 
4480.716023  	94.804223 
4481.680447  	94.786177 
4482.644871  	94.815736 
4483.609296  	94.791142 
4484.573720  	94.812664 
4485.538145  	94.835856 
4486.502569  	94.798034 
4487.466994  	94.743088 
4488.431418  	94.780257 
4489.395843  	94.747539 
4490.360267  	94.763047 
4491.324692  	94.844162 
4492.289116  	94.821229 
4493.253541  	94.773669 
4494.217965  	94.756939 
4495.182389  	94.755569 
4496.146814  	94.750791 
4497.111238  	94.761715 
4498.075663  	94.819995 
4499.040087  	94.808622 
4500.004512  	94.812970 
4500.968936  	94.826440 
4501.933361  	94.794440 
4502.897785  	94.782184 
4503.862210  	94.808565 
4504.826634  	94.792294 
4505.791058  	94.792672 
4506.755483  	94.785958 
4507.719907  	94.770583 
4508.684332  	94.832845 
4509.648756  	94.803784 
4510.613181  	94.722615 
4511.577605  	94.839253 
4512.542030  	94.905423 
4513.506454  	94.913410 
4514.470879  	94.846175 
4515.435303  	94.750387 
4516.399727  	94.714675 
4517.364152  	94.719578 
4518.328576  	94.770199 
4519.293001  	94.795787 
4520.257425  	94.785481 
4521.221850  	94.730730 
4522.186274  	94.768884 
4523.150699  	94.814353 
4524.115123  	94.758935 
4525.079548  	94.714505 
4526.043972  	94.786514 
4527.008396  	94.857615 
4527.972821  	94.851536 
4528.937245  	94.796042 
4529.901670  	94.720942 
4530.866094  	94.750822 
4531.830519  	94.815830 
4532.794943  	94.774376 
4533.759368  	94.732676 
4534.723792  	94.737542 
4535.688217  	94.718070 
4536.652641  	94.741602 
4537.617065  	94.767507 
4538.581490  	94.830327 
4539.545914  	94.827644 
4540.510339  	94.814181 
4541.474763  	94.767519 
4542.439188  	94.739181 
4543.403612  	94.772952 
4544.368037  	94.803976 
4545.332461  	94.806116 
4546.296886  	94.862013 
4547.261310  	94.844208 
4548.225734  	94.792437 
4549.190159  	94.781677 
4550.154583  	94.810220 
4551.119008  	94.721776 
4552.083432  	94.762499 
4553.047857  	94.785325 
4554.012281  	94.843084 
4554.976706  	94.789429 
4555.941130  	94.725748 
4556.905555  	94.759822 
4557.869979  	94.838889 
4558.834404  	94.830430 
4559.798828  	94.725131 
4560.763252  	94.665631 
4561.727677  	94.663046 
4562.692101  	94.708031 
4563.656526  	94.842696 
4564.620950  	94.887201 
4565.585375  	94.854701 
4566.549799  	94.853621 
4567.514224  	94.879385 
4568.478648  	94.809934 
4569.443073  	94.723219 
4570.407497  	94.686484 
4571.371921  	94.756397 
4572.336346  	94.704313 
4573.300770  	94.714757 
4574.265195  	94.744626 
4575.229619  	94.772145 
4576.194044  	94.784180 
4577.158468  	94.746078 
4578.122893  	94.800031 
4579.087317  	94.830352 
4580.051742  	94.815547 
4581.016166  	94.871853 
4581.980590  	94.912150 
4582.945015  	94.925256 
4583.909439  	94.918379 
4584.873864  	94.824691 
4585.838288  	94.728702 
4586.802713  	94.804514 
4587.767137  	94.801418 
4588.731562  	94.807730 
4589.695986  	94.813215 
4590.660411  	94.807145 
4591.624835  	94.790940 
4592.589259  	94.819711 
4593.553684  	94.856909 
4594.518108  	94.778029 
4595.482533  	94.714269 
4596.446957  	94.755813 
4597.411382  	94.716345 
4598.375806  	94.681642 
4599.340231  	94.761260 
4600.304655  	94.834049 
4601.269080  	94.815896 
4602.233504  	94.764519 
4603.197928  	94.736956 
4604.162353  	94.734274 
4605.126777  	94.739768 
4606.091202  	94.729360 
4607.055626  	94.768908 
4608.020051  	94.798717 
4608.984475  	94.847008 
4609.948900  	94.880845 
4610.913324  	94.813781 
4611.877749  	94.768983 
4612.842173  	94.796134 
4613.806598  	94.859918 
4614.771022  	94.864173 
4615.735446  	94.841502 
4616.699871  	94.853844 
4617.664295  	94.801448 
4618.628720  	94.732039 
4619.593144  	94.741055 
4620.557569  	94.804327 
4621.521993  	94.805593 
4622.486418  	94.745789 
4623.450842  	94.800773 
4624.415267  	94.821088 
4625.379691  	94.863811 
4626.344115  	94.840801 
4627.308540  	94.850266 
4628.272964  	94.824335 
4629.237389  	94.806570 
4630.201813  	94.744741 
4631.166238  	94.718115 
4632.130662  	94.764135 
4633.095087  	94.713989 
4634.059511  	94.686120 
4635.023936  	94.819030 
4635.988360  	94.884951 
4636.952784  	94.813519 
4637.917209  	94.822547 
4638.881633  	94.759250 
4639.846058  	94.719292 
4640.810482  	94.727767 
4641.774907  	94.733318 
4642.739331  	94.743532 
4643.703756  	94.662906 
4644.668180  	94.663994 
4645.632605  	94.629577 
4646.597029  	94.709973 
4647.561453  	94.742977 
4648.525878  	94.758698 
4649.490302  	94.816517 
4650.454727  	94.848125 
4651.419151  	94.829740 
4652.383576  	94.836044 
4653.348000  	94.843670 
4654.312425  	94.873792 
4655.276849  	94.880701 
4656.241274  	94.753164 
4657.205698  	94.741850 
4658.170122  	94.777783 
4659.134547  	94.698428 
4660.098971  	94.710576 
4661.063396  	94.806449 
4662.027820  	94.867223 
4662.992245  	94.809998 
4663.956669  	94.776897 
4664.921094  	94.796136 
4665.885518  	94.833450 
4666.849943  	94.824882 
4667.814367  	94.773695 
4668.778791  	94.784232 
4669.743216  	94.758921 
4670.707640  	94.686986 
4671.672065  	94.669976 
4672.636489  	94.692714 
4673.600914  	94.652900 
4674.565338  	94.684851 
4675.529763  	94.772538 
4676.494187  	94.874690 
4677.458612  	94.883580 
4678.423036  	94.833046 
4679.387461  	94.864764 
4680.351885  	94.805738 
4681.316309  	94.760744 
4682.280734  	94.737233 
4683.245158  	94.710415 
4684.209583  	94.735714 
4685.174007  	94.789754 
4686.138432  	94.799649 
4687.102856  	94.789874 
4688.067281  	94.752125 
4689.031705  	94.719667 
4689.996130  	94.719782 
4690.960554  	94.766672 
4691.924978  	94.811229 
4692.889403  	94.765775 
4693.853827  	94.715953 
4694.818252  	94.733835 
4695.782676  	94.798966 
4696.747101  	94.789825 
4697.711525  	94.844557 
4698.675950  	94.886217 
4699.640374  	94.785549 