##TITLE=No Description
##DATA TYPE=INFRARED SPECTRUM
##XUNITS=1/CM
##YUNITS=%T
400.236149  	118.184476 
401.200574  	107.164350 
402.164998  	86.641766 
403.129423  	79.733725 
404.093847  	95.831988 
405.058272  	97.602559 
406.022696  	87.314740 
406.987120  	95.600854 
407.951545  	103.630962 
408.915969  	87.560757 
409.880394  	81.975464 
410.844818  	90.683891 
411.809243  	99.652572 
412.773667  	98.262134 
413.738092  	89.203432 
414.702516  	77.351057 
415.666941  	75.270027 
416.631365  	81.526745 
417.595789  	84.214893 
418.560214  	87.398279 
419.524638  	86.675115 
420.489063  	78.924708 
421.453487  	75.539036 
422.417912  	75.504297 
423.382336  	79.054102 
424.346761  	79.079778 
425.311185  	75.227326 
426.275610  	75.544260 
427.240034  	77.277263 
428.204458  	77.609182 
429.168883  	75.270072 
430.133307  	71.468653 
431.097732  	69.079082 
432.062156  	69.124621 
433.026581  	69.054654 
433.991005  	69.515148 
434.955430  	70.612197 
435.919854  	72.610227 
436.884279  	73.102456 
437.848703  	73.971980 
438.813127  	75.737112 
439.777552  	77.154997 
440.741976  	77.063431 
441.706401  	78.175547 
442.670825  	79.390070 
443.635250  	77.908650 
444.599674  	78.531730 
445.564099  	80.128043 
446.528523  	81.288826 
447.492948  	81.675403 
448.457372  	82.826668 
449.421796  	82.435237 
450.386221  	81.357348 
451.350645  	81.581770 
452.315070  	81.147279 
453.279494  	80.799369 
454.243919  	81.741282 
455.208343  	81.449699 
456.172768  	81.345314 
457.137192  	81.036508 
458.101617  	80.443510 
459.066041  	80.340423 
460.030466  	79.852365 
460.994890  	80.005253 
461.959314  	80.274955 
462.923739  	80.485447 
463.888163  	80.373966 
464.852588  	79.979911 
465.817012  	80.728927 
466.781437  	80.902318 
467.745861  	79.973519 
468.710286  	79.782476 
469.674710  	79.325330 
470.639135  	78.719152 
471.603559  	79.125103 
472.567983  	80.261645 
473.532408  	79.707183 
474.496832  	79.002392 
475.461257  	79.240963 
476.425681  	78.867280 
477.390106  	78.706955 
478.354530  	79.244467 
479.318955  	78.994285 
480.283379  	78.744580 
481.247804  	79.165460 
482.212228  	79.038277 
483.176652  	79.252373 
484.141077  	79.270982 
485.105501  	78.770808 
486.069926  	78.322811 
487.034350  	78.465930 
487.998775  	78.601633 
488.963199  	78.586472 
489.927624  	78.454472 
490.892048  	77.364121 
491.856473  	76.507697 
492.820897  	76.762328 
493.785321  	76.553640 
494.749746  	75.919219 
495.714170  	75.382856 
496.678595  	75.126103 
497.643019  	74.784645 
498.607444  	74.435896 
499.571868  	73.835228 
500.536293  	73.630529 
501.500717  	73.664806 
502.465142  	73.203606 
503.429566  	72.959350 
504.393990  	72.760019 
505.358415  	72.544554 
506.322839  	72.708961 
507.287264  	73.515825 
508.251688  	75.015067 
509.216113  	76.841058 
510.180537  	77.856207 
511.144962  	78.737489 
512.109386  	79.405864 
513.073811  	79.648922 
514.038235  	79.821462 
515.002660  	79.842293 
515.967084  	79.630684 
516.931508  	79.737044 
517.895933  	79.986263 
518.860357  	79.907964 
519.824782  	79.669284 
520.789206  	79.846215 
521.753631  	80.207480 
522.718055  	80.243848 
523.682480  	80.011071 
524.646904  	79.978266 
525.611329  	80.301639 
526.575753  	80.306270 
527.540177  	80.436067 
528.504602  	80.603900 
529.469026  	80.376399 
530.433451  	80.038840 
531.397875  	80.342418 
532.362300  	80.889848 
533.326724  	81.445021 
534.291149  	81.263900 
535.255573  	81.192887 
536.219998  	81.940299 
537.184422  	82.390177 
538.148846  	81.909069 
539.113271  	81.860906 
540.077695  	81.838744 
541.042120  	81.802496 
542.006544  	82.170297 
542.970969  	82.256297 
543.935393  	82.499714 
544.899818  	82.479381 
545.864242  	82.566152 
546.828667  	82.603408 
547.793091  	82.043673 
548.757515  	81.900652 
549.721940  	82.557028 
550.686364  	82.639166 
551.650789  	82.884621 
552.615213  	82.872700 
553.579638  	82.926028 
554.544062  	82.811282 
555.508487  	82.599775 
556.472911  	82.453979 
557.437336  	82.570427 
558.401760  	82.859837 
559.366184  	82.973086 
560.330609  	82.768081 
561.295033  	82.432509 
562.259458  	82.371007 
563.223882  	82.287803 
564.188307  	82.175082 
565.152731  	82.493396 
566.117156  	82.550756 
567.081580  	82.180630 
568.046005  	82.287002 
569.010429  	82.509553 
569.974853  	82.424223 
570.939278  	82.224397 
571.903702  	82.223672 
572.868127  	82.306100 
573.832551  	82.250796 
574.796976  	82.278415 
575.761400  	81.862328 
576.725825  	81.883368 
577.690249  	82.079152 
578.654674  	82.036472 
579.619098  	81.963443 
580.583523  	81.954101 
581.547947  	82.056191 
582.512371  	82.234417 
583.476796  	82.064552 
584.441220  	81.828112 
585.405645  	82.059241 
586.370069  	82.349552 
587.334494  	82.169980 
588.298918  	82.100811 
589.263343  	81.990540 
590.227767  	81.984731 
591.192192  	81.815564 
592.156616  	81.540332 
593.121040  	81.791995 
594.085465  	82.016508 
595.049889  	81.976615 
596.014314  	81.792304 
596.978738  	81.660608 
597.943163  	81.667826 
598.907587  	81.577913 
599.872012  	81.465121 
600.836436  	81.488153 
601.800861  	81.582389 
602.765285  	81.560901 
603.729709  	81.580779 
604.694134  	81.590932 
605.658558  	81.469963 
606.622983  	81.344356 
607.587407  	81.228153 
608.551832  	81.140457 
609.516256  	81.091267 
610.480681  	80.990770 
611.445105  	81.071327 
612.409530  	81.251650 
613.373954  	81.324716 
614.338378  	81.177044 
615.302803  	80.771470 
616.267227  	80.485287 
617.231652  	80.730855 
618.196076  	80.837163 
619.160501  	80.673740 
620.124925  	80.469676 
621.089350  	80.368471 
622.053774  	80.541660 
623.018199  	80.617066 
623.982623  	80.338119 
624.947047  	80.062562 
625.911472  	79.950330 
626.875896  	79.894474 
627.840321  	79.629132 
628.804745  	79.332544 
629.769170  	78.769462 
630.733594  	78.046301 
631.698019  	77.889986 
632.662443  	78.300934 
633.626868  	78.886504 
634.591292  	79.292889 
635.555717  	79.505762 
636.520141  	79.785394 
637.484565  	79.860629 
638.448990  	79.854965 
639.413414  	79.847818 
640.377839  	79.848600 
641.342263  	79.845895 
642.306688  	79.672362 
643.271112  	79.618014 
644.235537  	79.592876 
645.199961  	79.418063 
646.164386  	79.315269 
647.128810  	79.254546 
648.093234  	79.122571 
649.057659  	79.055658 
650.022083  	78.944561 
650.986508  	78.824470 
651.950932  	78.724274 
652.915357  	78.600989 
653.879781  	78.485403 
654.844206  	78.458352 
655.808630  	78.322868 
656.773055  	78.116480 
657.737479  	78.149165 
658.701903  	78.129383 
659.666328  	77.906416 
660.630752  	77.631477 
661.595177  	77.517724 
662.559601  	77.515185 
663.524026  	77.370377 
664.488450  	77.161993 
665.452875  	76.939305 
666.417299  	76.860435 
667.381724  	76.911680 
668.346148  	76.891648 
669.310572  	76.439808 
670.274997  	76.151816 
671.239421  	76.040606 
672.203846  	75.898686 
673.168270  	75.636686 
674.132695  	75.248197 
675.097119  	74.961157 
676.061544  	74.521690 
677.025968  	74.088581 
677.990393  	73.734388 
678.954817  	73.420436 
679.919241  	73.185555 
680.883666  	73.168898 
681.848090  	73.113132 
682.812515  	73.078481 
683.776939  	73.092306 
684.741364  	73.035854 
685.705788  	72.817404 
686.670213  	72.703996 
687.634637  	72.513613 
688.599062  	72.149645 
689.563486  	71.796352 
690.527910  	71.427890 
691.492335  	71.003878 
692.456759  	70.447340 
693.421184  	69.818295 
694.385608  	69.338043 
695.350033  	68.663856 
696.314457  	67.834859 
697.278882  	66.964974 
698.243306  	66.059590 
699.207731  	65.050181 
700.172155  	64.040855 
701.136580  	63.080357 
702.101004  	62.280740 
703.065428  	61.634900 
704.029853  	60.963290 
704.994277  	60.149356 
705.958702  	59.341357 
706.923126  	58.406297 
707.887551  	57.520193 
708.851975  	56.766584 
709.816400  	55.785929 
710.780824  	54.631464 
711.745249  	53.522466 
712.709673  	52.330081 
713.674097  	50.978234 
714.638522  	49.546751 
715.602946  	48.089875 
716.567371  	46.653996 
717.531795  	45.191936 
718.496220  	43.613358 
719.460644  	42.113873 
720.425069  	40.744852 
721.389493  	39.529401 
722.353918  	38.584790 
723.318342  	38.125071 
724.282766  	38.231250 
725.247191  	39.169250 
726.211615  	40.994867 
727.176040  	43.461810 
728.140464  	46.164197 
729.104889  	49.001675 
730.069313  	51.873642 
731.033738  	54.758472 
731.998162  	57.679648 
732.962587  	60.770430 
733.927011  	63.856803 
734.891435  	66.914485 
735.855860  	69.977148 
736.820284  	72.940609 
737.784709  	75.673922 
738.749133  	78.094708 
739.713558  	80.145039 
740.677982  	81.886863 
741.642407  	83.151701 
742.606831  	84.045129 
743.571256  	84.702779 
744.535680  	85.055363 
745.500104  	85.235206 
746.464529  	85.346448 
747.428953  	85.301200 
748.393378  	85.249903 
749.357802  	85.061559 
750.322227  	84.921348 
751.286651  	84.812969 
752.251076  	84.644481 
753.215500  	84.559659 
754.179925  	84.351760 
755.144349  	84.214042 
756.108774  	84.142347 
757.073198  	83.962145 
758.037622  	83.760862 
759.002047  	83.498074 
759.966471  	83.294303 
760.930896  	83.091503 
761.895320  	82.911394 
762.859745  	82.879754 
763.824169  	82.837111 
764.788594  	82.557829 
765.753018  	82.267696 
766.717443  	82.068955 
767.681867  	81.849691 
768.646291  	81.532185 
769.610716  	81.321367 
770.575140  	81.184855 
771.539565  	81.012055 
772.503989  	80.718082 
773.468414  	80.482718 
774.432838  	80.327831 
775.397263  	80.159815 
776.361687  	79.941246 
777.326112  	79.740472 
778.290536  	79.524448 
779.254960  	79.325004 
780.219385  	79.086698 
781.183809  	78.759097 
782.148234  	78.448398 
783.112658  	78.261838 
784.077083  	77.997963 
785.041507  	77.678462 
786.005932  	77.321263 
786.970356  	76.773423 
787.934781  	76.145187 
788.899205  	75.680483 
789.863629  	75.348589 
790.828054  	75.030977 
791.792478  	74.722140 
792.756903  	74.686752 
793.721327  	75.019706 
794.685752  	75.635974 
795.650176  	76.522133 
796.614601  	77.472399 
797.579025  	78.119032 
798.543450  	78.251248 
799.507874  	78.178865 
800.472298  	78.237608 
801.436723  	78.267351 
802.401147  	78.192296 
803.365572  	78.066698 
804.329996  	78.008891 
805.294421  	77.936318 
806.258845  	77.799741 
807.223270  	77.740252 
808.187694  	77.685730 
809.152119  	77.644656 
810.116543  	77.543445 
811.080967  	77.399516 
812.045392  	77.309665 
813.009816  	77.222155 
813.974241  	77.207736 
814.938665  	77.230296 
815.903090  	77.221995 
816.867514  	77.168651 
817.831939  	77.089000 
818.796363  	76.963058 
819.760788  	76.822634 
820.725212  	76.761804 
821.689637  	76.571312 
822.654061  	76.378555 
823.618485  	76.200010 
824.582910  	75.955083 
825.547334  	75.678717 
826.511759  	75.469921 
827.476183  	75.331845 
828.440608  	75.118582 
829.405032  	74.756720 
830.369457  	74.453893 
831.333881  	74.173429 
832.298306  	73.851230 
833.262730  	73.512920 
834.227154  	73.209177 
835.191579  	72.903188 
836.156003  	72.505579 
837.120428  	72.068967 
838.084852  	71.670500 
839.049277  	71.332974 
840.013701  	70.908085 
840.978126  	70.420853 
841.942550  	70.045178 
842.906975  	69.614013 
843.871399  	69.136418 
844.835823  	68.715769 
845.800248  	68.465426 
846.764672  	68.475895 
847.729097  	68.729716 
848.693521  	69.103512 
849.657946  	69.678615 
850.622370  	70.346874 
851.586795  	70.928958 
852.551219  	71.341386 
853.515644  	71.698285 
854.480068  	72.043478 
855.444492  	72.276645 
856.408917  	72.426619 
857.373341  	72.633511 
858.337766  	72.872726 
859.302190  	73.020441 
860.266615  	73.015010 
861.231039  	72.899313 
862.195464  	72.718590 
863.159888  	72.358402 
864.124313  	71.939043 
865.088737  	71.364175 
866.053161  	70.603066 
867.017586  	69.570342 
867.982010  	68.182057 
868.946435  	66.431680 
869.910859  	64.288452 
870.875284  	62.066109 
871.839708  	60.722692 
872.804133  	61.245316 
873.768557  	63.422059 
874.732982  	65.873955 
875.697406  	67.747116 
876.661831  	69.132760 
877.626255  	70.307806 
878.590679  	71.388335 
879.555104  	72.289947 
880.519528  	72.994327 
881.483953  	73.600023 
882.448377  	74.174745 
883.412802  	74.756709 
884.377226  	75.248015 
885.341651  	75.582049 
886.306075  	75.773998 
887.270500  	75.924501 
888.234924  	76.095907 
889.199348  	76.135193 
890.163773  	76.060625 
891.128197  	76.024953 
892.092622  	76.006775 
893.057046  	75.881243 
894.021471  	75.728510 
894.985895  	75.708556 
895.950320  	75.620568 
896.914744  	75.473011 
897.879169  	75.385489 
898.843593  	75.412269 
899.808017  	75.476734 
900.772442  	75.569128 
901.736866  	75.632701 
902.701291  	75.776130 
903.665715  	75.972169 
904.630140  	76.114304 
905.594564  	76.177266 
906.558989  	76.308877 
907.523413  	76.527910 
908.487838  	76.671343 
909.452262  	76.722986 
910.416686  	76.824006 
911.381111  	76.937161 
912.345535  	76.956711 
913.309960  	76.897738 
914.274384  	76.858779 
915.238809  	76.855695 
916.203233  	76.804678 
917.167658  	76.748374 
918.132082  	76.749990 
919.096507  	76.733367 
920.060931  	76.675446 
921.025355  	76.569731 
921.989780  	76.463624 
922.954204  	76.333927 
923.918629  	76.226570 
924.883053  	76.153240 
925.847478  	76.036116 
926.811902  	75.879820 
927.776327  	75.766535 
928.740751  	75.646331 
929.705176  	75.546796 
930.669600  	75.466582 
931.634024  	75.300486 
932.598449  	75.138295 
933.562873  	75.009366 
934.527298  	74.874575 
935.491722  	74.729021 
936.456147  	74.595208 
937.420571  	74.497848 
938.384996  	74.296763 
939.349420  	74.093737 
940.313845  	73.966438 
941.278269  	73.853905 
942.242694  	73.691165 
943.207118  	73.462751 
944.171542  	73.292755 
945.135967  	73.142236 
946.100391  	72.931122 
947.064816  	72.694708 
948.029240  	72.486691 
948.993665  	72.295381 
949.958089  	72.058988 
950.922514  	71.823472 
951.886938  	71.652794 
952.851363  	71.423244 
953.815787  	71.115301 
954.780211  	70.877813 
955.744636  	70.676772 
956.709060  	70.450698 
957.673485  	70.172890 
958.637909  	69.884450 
959.602334  	69.595629 
960.566758  	69.307999 
961.531183  	68.998567 
962.495607  	68.686393 
963.460032  	68.414539 
964.424456  	68.116892 
965.388880  	67.772893 
966.353305  	67.531792 
967.317729  	67.429747 
968.282154  	67.316504 
969.246578  	67.247126 
970.211003  	67.328547 
971.175427  	67.506877 
972.139852  	67.764628 
973.104276  	68.163079 
974.068701  	68.670510 
975.033125  	69.206097 
975.997549  	69.686145 
976.961974  	70.066517 
977.926398  	70.381864 
978.890823  	70.648416 
979.855247  	70.846338 
980.819672  	70.990406 
981.784096  	71.069437 
982.748521  	71.041325 
983.712945  	70.930229 
984.677370  	70.744888 
985.641794  	70.578440 
986.606218  	70.386015 
987.570643  	70.191631 
988.535067  	70.053352 
989.499492  	69.966609 
990.463916  	69.859130 
991.428341  	69.715011 
992.392765  	69.555794 
993.357190  	69.388360 
994.321614  	69.186028 
995.286039  	68.970994 
996.250463  	68.734408 
997.214888  	68.471480 
998.179312  	68.221566 
999.143736  	67.922590 
1000.108161  	67.577102 
1001.072585  	67.222736 
1002.037010  	66.894014 
1003.001434  	66.510164 
1003.965859  	66.083335 
1004.930283  	65.664836 
1005.894708  	65.218495 
1006.859132  	64.678262 
1007.823557  	64.062766 
1008.787981  	63.388853 
1009.752405  	62.653384 
1010.716830  	61.795788 
1011.681254  	60.775372 
1012.645679  	59.614562 
1013.610103  	58.275168 
1014.574528  	56.844703 
1015.538952  	55.643179 
1016.503377  	55.054573 
1017.467801  	55.236314 
1018.432226  	56.129238 
1019.396650  	57.516302 
1020.361074  	59.174298 
1021.325499  	60.960361 
1022.289923  	62.786794 
1023.254348  	64.802744 
1024.218772  	67.129064 
1025.183197  	69.583085 
1026.147621  	71.733901 
1027.112046  	73.276670 
1028.076470  	74.067458 
1029.040895  	74.171692 
1030.005319  	73.789619 
1030.969743  	73.142936 
1031.934168  	72.454501 
1032.898592  	71.776256 
1033.863017  	71.031376 
1034.827441  	70.302639 
1035.791866  	69.698248 
1036.756290  	69.131941 
1037.720715  	68.605587 
1038.685139  	68.124950 
1039.649564  	67.691215 
1040.613988  	67.322957 
1041.578412  	66.996275 
1042.542837  	66.707315 
1043.507261  	66.503973 
1044.471686  	66.334183 
1045.436110  	66.153303 
1046.400535  	66.015134 
1047.364959  	65.960591 
1048.329384  	65.866693 
1049.293808  	65.761090 
1050.258233  	65.701226 
1051.222657  	65.673204 
1052.187081  	65.624414 
1053.151506  	65.526689 
1054.115930  	65.421934 
1055.080355  	65.262585 
1056.044779  	65.044189 
1057.009204  	64.807074 
1057.973628  	64.606125 
1058.938053  	64.381965 
1059.902477  	64.039747 
1060.866902  	63.638468 
1061.831326  	63.347116 
1062.795751  	63.029706 
1063.760175  	62.590324 
1064.724599  	62.142433 
1065.689024  	61.751659 
1066.653448  	61.317763 
1067.617873  	60.799659 
1068.582297  	60.279181 
1069.546722  	59.783383 
1070.511146  	59.235310 
1071.475571  	58.580058 
1072.439995  	57.931949 
1073.404420  	57.289417 
1074.368844  	56.545385 
1075.333268  	55.763335 
1076.297693  	54.974234 
1077.262117  	54.168955 
1078.226542  	53.353807 
1079.190966  	52.530642 
1080.155391  	51.726371 
1081.119815  	50.999708 
1082.084240  	50.325330 
1083.048664  	49.721919 
1084.013089  	49.226028 
1084.977513  	48.781946 
1085.941937  	48.363651 
1086.906362  	48.005455 
1087.870786  	47.716958 
1088.835211  	47.438147 
1089.799635  	47.139338 
1090.764060  	46.872347 
1091.728484  	46.740808 
1092.692909  	46.673833 
1093.657333  	46.569549 
1094.621758  	46.543938 
1095.586182  	46.623556 
1096.550606  	46.806567 
1097.515031  	47.041405 
1098.479455  	47.333118 
1099.443880  	47.726266 
1100.408304  	48.214737 
1101.372729  	48.735955 
1102.337153  	49.332314 
1103.301578  	50.039177 
1104.266002  	50.767814 
1105.230427  	51.468804 
1106.194851  	52.165435 
1107.159275  	52.883297 
1108.123700  	53.584931 
1109.088124  	54.209887 
1110.052549  	54.751176 
1111.016973  	55.202975 
1111.981398  	55.555001 
1112.945822  	55.823414 
1113.910247  	56.029538 
1114.874671  	56.092613 
1115.839096  	56.041590 
1116.803520  	56.004966 
1117.767945  	56.045796 
1118.732369  	56.242454 
1119.696793  	56.608562 
1120.661218  	57.062910 
1121.625642  	57.609756 
1122.590067  	58.271793 
1123.554491  	59.034942 
1124.518916  	59.899165 
1125.483340  	60.890495 
1126.447765  	61.985292 
1127.412189  	63.163456 
1128.376614  	64.387156 
1129.341038  	65.676721 
1130.305462  	67.059543 
1131.269887  	68.454500 
1132.234311  	69.792315 
1133.198736  	71.123477 
1134.163160  	72.427759 
1135.127585  	73.673787 
1136.092009  	74.834127 
1137.056434  	75.914032 
1138.020858  	76.949519 
1138.985283  	77.885481 
1139.949707  	78.715023 
1140.914131  	79.515636 
1141.878556  	80.255744 
1142.842980  	80.904294 
1143.807405  	81.538614 
1144.771829  	82.135424 
1145.736254  	82.649549 
1146.700678  	83.130613 
1147.665103  	83.547739 
1148.629527  	83.915355 
1149.593952  	84.253674 
1150.558376  	84.566434 
1151.522800  	84.837010 
1152.487225  	85.073286 
1153.451649  	85.276642 
1154.416074  	85.442080 
1155.380498  	85.519364 
1156.344923  	85.600668 
1157.309347  	85.680878 
1158.273772  	85.682179 
1159.238196  	85.622631 
1160.202621  	85.602327 
1161.167045  	85.544041 
1162.131469  	85.392142 
1163.095894  	85.201266 
1164.060318  	84.998225 
1165.024743  	84.740961 
1165.989167  	84.386374 
1166.953592  	83.965358 
1167.918016  	83.459147 
1168.882441  	82.882607 
1169.846865  	82.281173 
1170.811290  	81.680080 
1171.775714  	81.131829 
1172.740138  	80.714361 
1173.704563  	80.372881 
1174.668987  	80.068182 
1175.633412  	79.892543 
1176.597836  	79.794085 
1177.562261  	79.712794 
1178.526685  	79.616046 
1179.491110  	79.533209 
1180.455534  	79.436486 
1181.419959  	79.345089 
1182.384383  	79.188113 
1183.348808  	78.980597 
1184.313232  	78.759527 
1185.277656  	78.419719 
1186.242081  	78.010274 
1187.206505  	77.603288 
1188.170930  	77.128502 
1189.135354  	76.593387 
1190.099779  	76.056157 
1191.064203  	75.530805 
1192.028628  	74.921938 
1192.993052  	74.233985 
1193.957477  	73.584096 
1194.921901  	72.964634 
1195.886325  	72.307395 
1196.850750  	71.616916 
1197.815174  	70.970467 
1198.779599  	70.364850 
1199.744023  	69.784687 
1200.708448  	69.182357 
1201.672872  	68.589499 
1202.637297  	68.070453 
1203.601721  	67.582052 
1204.566146  	67.057366 
1205.530570  	66.549393 
1206.494994  	66.104075 
1207.459419  	65.673191 
1208.423843  	65.213666 
1209.388268  	64.753915 
1210.352692  	64.311404 
1211.317117  	63.821113 
1212.281541  	63.294655 
1213.245966  	62.791288 
1214.210390  	62.253114 
1215.174815  	61.626387 
1216.139239  	60.962202 
1217.103663  	60.308701 
1218.068088  	59.647212 
1219.032512  	58.959105 
1219.996937  	58.302202 
1220.961361  	57.718768 
1221.925786  	57.176947 
1222.890210  	56.662249 
1223.854635  	56.194338 
1224.819059  	55.739457 
1225.783484  	55.243121 
1226.747908  	54.712621 
1227.712332  	54.136659 
1228.676757  	53.510121 
1229.641181  	52.805119 
1230.605606  	52.003160 
1231.570030  	51.154764 
1232.534455  	50.319432 
1233.498879  	49.490922 
1234.463304  	48.666133 
1235.427728  	47.905887 
1236.392153  	47.264810 
1237.356577  	46.752555 
1238.321002  	46.375889 
1239.285426  	46.145267 
1240.249850  	46.059815 
1241.214275  	46.111524 
1242.178699  	46.288789 
1243.143124  	46.581315 
1244.107548  	47.002327 
1245.071973  	47.529891 
1246.036397  	48.116228 
1247.000822  	48.748368 
1247.965246  	49.426519 
1248.929671  	50.131312 
1249.894095  	50.832888 
1250.858519  	51.540463 
1251.822944  	52.234370 
1252.787368  	52.884239 
1253.751793  	53.499178 
1254.716217  	54.042112 
1255.680642  	54.546093 
1256.645066  	55.024210 
1257.609491  	55.446367 
1258.573915  	55.825874 
1259.538340  	56.197548 
1260.502764  	56.628409 
1261.467188  	57.189206 
1262.431613  	57.781012 
1263.396037  	58.438117 
1264.360462  	59.164061 
1265.324886  	59.937553 
1266.289311  	60.745302 
1267.253735  	61.613322 
1268.218160  	62.515299 
1269.182584  	63.396769 
1270.147009  	64.264726 
1271.111433  	65.167052 
1272.075857  	66.013935 
1273.040282  	66.837459 
1274.004706  	67.593111 
1274.969131  	68.325029 
1275.933555  	69.009772 
1276.897980  	69.634652 
1277.862404  	70.216714 
1278.826829  	70.772394 
1279.791253  	71.295009 
1280.755678  	71.799735 
1281.720102  	72.303000 
1282.684526  	72.815870 
1283.648951  	73.277828 
1284.613375  	73.708821 
1285.577800  	74.187585 
1286.542224  	74.678474 
1287.506649  	75.089095 
1288.471073  	75.548074 
1289.435498  	76.140368 
1290.399922  	76.733877 
1291.364347  	77.303015 
1292.328771  	77.919282 
1293.293195  	78.552747 
1294.257620  	79.183997 
1295.222044  	79.801269 
1296.186469  	80.431949 
1297.150893  	81.117620 
1298.115318  	81.862693 
1299.079742  	82.502638 
1300.044167  	83.144138 
1301.008591  	83.774047 
1301.973016  	84.342357 
1302.937440  	84.812256 
1303.901865  	85.203947 
1304.866289  	85.609654 
1305.830713  	85.959086 
1306.795138  	86.251592 
1307.759562  	86.567996 
1308.723987  	86.901019 
1309.688411  	87.258098 
1310.652836  	87.540423 
1311.617260  	87.765801 
1312.581685  	87.889657 
1313.546109  	88.151649 
1314.510534  	88.420088 
1315.474958  	88.692414 
1316.439382  	88.834010 
1317.403807  	88.914897 
1318.368231  	88.996764 
1319.332656  	89.054341 
1320.297080  	89.294995 
1321.261505  	89.480237 
1322.225929  	89.591647 
1323.190354  	89.639942 
1324.154778  	89.648537 
1325.119203  	89.569649 
1326.083627  	89.379365 
1327.048051  	89.100438 
1328.012476  	88.667365 
1328.976900  	88.001365 
1329.941325  	87.015268 
1330.905749  	85.787099 
1331.870174  	84.238329 
1332.834598  	82.365590 
1333.799023  	80.330707 
1334.763447  	78.345567 
1335.727872  	76.487813 
1336.692296  	74.868869 
1337.656720  	73.916132 
1338.621145  	73.411838 
1339.585569  	73.430267 
1340.549994  	74.489557 
1341.514418  	76.388867 
1342.478843  	78.271175 
1343.443267  	80.145091 
1344.407692  	82.007534 
1345.372116  	83.758501 
1346.336541  	85.306875 
1347.300965  	86.606735 
1348.265389  	87.619747 
1349.229814  	88.413460 
1350.194238  	89.138823 
1351.158663  	89.741334 
1352.123087  	90.153232 
1353.087512  	90.477283 
1354.051936  	90.665831 
1355.016361  	90.740989 
1355.980785  	90.986010 
1356.945210  	91.120065 
1357.909634  	91.071414 
1358.874059  	91.092662 
1359.838483  	91.040153 
1360.802907  	90.633741 
1361.767332  	90.235325 
1362.731756  	89.718458 
1363.696181  	89.456070 
1364.660605  	89.821689 
1365.625030  	89.696402 
1366.589454  	89.401531 
1367.553879  	89.010116 
1368.518303  	88.571653 
1369.482728  	88.453577 
1370.447152  	88.599209 
1371.411576  	88.564766 
1372.376001  	88.485229 
1373.340425  	88.164710 
1374.304850  	87.953345 
1375.269274  	88.229241 
1376.233699  	88.709106 
1377.198123  	88.822798 
1378.162548  	88.731668 
1379.126972  	88.719170 
1380.091397  	88.742059 
1381.055821  	88.787520 
1382.020245  	88.761459 
1382.984670  	88.669628 
1383.949094  	88.574967 
1384.913519  	88.494905 
1385.877943  	88.278575 
1386.842368  	87.766538 
1387.806792  	87.619979 
1388.771217  	88.106694 
1389.735641  	88.351618 
1390.700066  	88.322234 
1391.664490  	88.294420 
1392.628914  	88.208200 
1393.593339  	87.846750 
1394.557763  	87.080599 
1395.522188  	86.748298 
1396.486612  	86.837399 
1397.451037  	86.580940 
1398.415461  	85.871095 
1399.379886  	85.169220 
1400.344310  	84.872130 
1401.308735  	84.428694 
1402.273159  	83.465078 
1403.237583  	82.333353 
1404.202008  	80.937016 
1405.166432  	79.217351 
1406.130857  	78.053593 
1407.095281  	77.263195 
1408.059706  	76.458168 
1409.024130  	76.179894 
1409.988555  	76.392368 
1410.952979  	77.263699 
1411.917404  	78.636190 
1412.881828  	80.581625 
1413.846252  	82.534188 
1414.810677  	84.395056 
1415.775101  	85.848318 
1416.739526  	86.975777 
1417.703950  	87.872007 
1418.668375  	88.383855 
1419.632799  	88.911388 
1420.597224  	90.355017 
1421.561648  	91.026254 
1422.526073  	91.347683 
1423.490497  	91.096405 
1424.454922  	91.023753 
1425.419346  	91.658788 
1426.383770  	91.955640 
1427.348195  	91.961472 
1428.312619  	91.785894 
1429.277044  	91.486634 
1430.241468  	91.213367 
1431.205893  	91.362413 
1432.170317  	91.279229 
1433.134742  	91.016160 
1434.099166  	90.922964 
1435.063591  	90.686055 
1436.028015  	89.970499 
1436.992439  	89.298747 
1437.956864  	89.889075 
1438.921288  	90.206741 
1439.885713  	90.176407 
1440.850137  	90.080520 
1441.814562  	90.011727 
1442.778986  	89.974471 
1443.743411  	89.886033 
1444.707835  	89.766964 
1445.672260  	89.627757 
1446.636684  	89.447811 
1447.601108  	88.970519 
1448.565533  	88.810078 
1449.529957  	89.116584 
1450.494382  	89.129483 
1451.458806  	88.846908 
1452.423231  	88.574724 
1453.387655  	88.707410 
1454.352080  	88.522747 
1455.316504  	87.977637 
1456.280929  	87.562996 
1457.245353  	87.214063 
1458.209777  	87.305374 
1459.174202  	87.838136 
1460.138626  	88.671647 
1461.103051  	89.185902 
1462.067475  	89.332344 
1463.031900  	89.381854 
1463.996324  	89.172516 
1464.960749  	88.701405 
1465.925173  	88.970854 
1466.889598  	89.244572 
1467.854022  	89.111243 
1468.818446  	88.835047 
1469.782871  	88.361766 
1470.747295  	87.764875 
1471.711720  	86.898990 
1472.676144  	86.611881 
1473.640569  	87.356400 
1474.604993  	88.546952 
1475.569418  	88.853189 
1476.533842  	88.924807 
1477.498267  	89.827669 
1478.462691  	90.430293 
1479.427116  	90.692289 
1480.391540  	90.828459 
1481.355964  	90.787039 
1482.320389  	91.215154 
1483.284813  	91.632035 
1484.249238  	91.891955 
1485.213662  	91.983722 
1486.178087  	91.869286 
1487.142511  	91.602976 
1488.106936  	91.761377 
1489.071360  	91.493826 
1490.035785  	90.901091 
1491.000209  	91.495521 
1491.964633  	92.386383 
1492.929058  	92.722208 
1493.893482  	92.688890 
1494.857907  	92.449824 
1495.822331  	91.848646 
1496.786756  	91.212951 
1497.751180  	91.335482 
1498.715605  	90.786436 
1499.680029  	90.288480 
1500.644454  	89.966113 
1501.608878  	88.964816 
1502.573302  	87.813086 
1503.537727  	86.790703 
1504.502151  	85.670191 
1505.466576  	84.408662 
1506.431000  	83.041752 
1507.395425  	84.186555 
1508.359849  	86.344606 
1509.324274  	87.965341 
1510.288698  	89.388683 
1511.253123  	90.474133 
1512.217547  	90.760680 
1513.181971  	91.348107 
1514.146396  	91.694858 
1515.110820  	91.369430 
1516.075245  	90.964638 
1517.039669  	90.358256 
1518.004094  	91.158929 
1518.968518  	91.846083 
1519.932943  	91.410028 
1520.897367  	90.171437 
1521.861792  	90.157577 
1522.826216  	90.824072 
1523.790640  	91.424388 
1524.755065  	91.268754 
1525.719489  	90.942824 
1526.683914  	91.234018 
1527.648338  	91.126194 
1528.612763  	91.316779 
1529.577187  	91.874983 
1530.541612  	92.084424 
1531.506036  	91.696180 
1532.470461  	91.422213 
1533.434885  	90.945792 
1534.399309  	91.072466 
1535.363734  	91.613232 
1536.328158  	91.862256 
1537.292583  	91.873014 
1538.257007  	91.290476 
1539.221432  	89.752914 
1540.185856  	89.436361 
1541.150281  	90.217155 
1542.114705  	90.256961 
1543.079130  	90.270053 
1544.043554  	90.373573 
1545.007979  	90.212427 
1545.972403  	90.711870 
1546.936827  	91.406985 
1547.901252  	91.555520 
1548.865676  	91.301319 
1549.830101  	90.419825 
1550.794525  	90.593600 
1551.758950  	91.315757 
1552.723374  	91.328148 
1553.687799  	90.917105 
1554.652223  	90.375833 
1555.616648  	90.833591 
1556.581072  	90.954493 
1557.545496  	90.340726 
1558.509921  	88.397883 
1559.474345  	88.061352 
1560.438770  	89.461648 
1561.403194  	90.728883 
1562.367619  	91.180839 
1563.332043  	91.261454 
1564.296468  	91.018970 
1565.260892  	90.796481 
1566.225317  	91.089821 
1567.189741  	91.143990 
1568.154165  	90.870457 
1569.118590  	90.068174 
1570.083014  	89.648557 
1571.047439  	90.259360 
1572.011863  	90.365168 
1572.976288  	90.152419 
1573.940712  	89.867803 
1574.905137  	89.426180 
1575.869561  	88.631991 
1576.833986  	88.003808 
1577.798410  	88.494275 
1578.762834  	88.920584 
1579.727259  	89.170133 
1580.691683  	89.453762 
1581.656108  	89.761447 
1582.620532  	90.095536 
1583.584957  	90.451783 
1584.549381  	90.778502 
1585.513806  	90.998054 
1586.478230  	91.172156 
1587.442655  	91.337112 
1588.407079  	91.433964 
1589.371503  	91.393222 
1590.335928  	91.377173 
1591.300352  	91.419343 
1592.264777  	91.443903 
1593.229201  	91.441491 
1594.193626  	91.294272 
1595.158050  	91.233008 
1596.122475  	91.280789 
1597.086899  	91.283289 
1598.051324  	91.299834 
1599.015748  	91.237090 
1599.980173  	91.170744 
1600.944597  	90.997413 
1601.909021  	90.870181 
1602.873446  	90.682995 
1603.837870  	90.601862 
1604.802295  	90.629753 
1605.766719  	90.530102 
1606.731144  	90.247873 
1607.695568  	90.032703 
1608.659993  	89.911791 
1609.624417  	89.691980 
1610.588842  	89.788762 
1611.553266  	89.815256 
1612.517690  	89.711063 
1613.482115  	89.631922 
1614.446539  	89.546566 
1615.410964  	89.349207 
1616.375388  	88.829918 
1617.339813  	88.899585 
1618.304237  	89.575752 
1619.268662  	89.887421 
1620.233086  	89.952659 
1621.197511  	89.965559 
1622.161935  	89.787393 
1623.126359  	89.317520 
1624.090784  	89.283913 
1625.055208  	89.762764 
1626.019633  	89.847049 
1626.984057  	89.663574 
1627.948482  	89.307606 
1628.912906  	89.539867 
1629.877331  	89.710723 
1630.841755  	89.693581 
1631.806180  	89.615545 
1632.770604  	89.552404 
1633.735028  	89.336405 
1634.699453  	88.775569 
1635.663877  	87.825650 
1636.628302  	88.242677 
1637.592726  	88.349514 
1638.557151  	88.714919 
1639.521575  	88.912225 
1640.486000  	88.882899 
1641.450424  	88.865369 
1642.414849  	88.774036 
1643.379273  	88.734942 
1644.343697  	88.626955 
1645.308122  	88.136076 
1646.272546  	87.327751 
1647.236971  	86.995213 
1648.201395  	87.135403 
1649.165820  	87.773126 
1650.130244  	88.013650 
1651.094669  	87.764063 
1652.059093  	87.171748 
1653.023518  	85.540320 
1653.987942  	85.277971 
1654.952366  	86.402855 
1655.916791  	87.071669 
1656.881215  	87.119761 
1657.845640  	87.119994 
1658.810064  	87.055218 
1659.774489  	86.905512 
1660.738913  	86.538446 
1661.703338  	86.100480 
1662.667762  	85.514823 
1663.632187  	85.449763 
1664.596611  	85.489351 
1665.561036  	85.280740 
1666.525460  	84.953377 
1667.489884  	84.480429 
1668.454309  	83.604987 
1669.418733  	82.910243 
1670.383158  	82.987500 
1671.347582  	82.644251 
1672.312007  	82.475147 
1673.276431  	82.455235 
1674.240856  	81.991818 
1675.205280  	81.149091 
1676.169705  	80.923622 
1677.134129  	80.966695 
1678.098553  	80.638502 
1679.062978  	80.038722 
1680.027402  	79.020688 
1680.991827  	78.623629 
1681.956251  	78.473743 
1682.920676  	77.602708 
1683.885100  	75.667854 
1684.849525  	75.566967 
1685.813949  	76.868881 
1686.778374  	76.929334 
1687.742798  	76.339155 
1688.707222  	75.677159 
1689.671647  	75.203917 
1690.636071  	74.657625 
1691.600496  	74.140014 
1692.564920  	73.364614 
1693.529345  	72.343624 
1694.493769  	71.195110 
1695.458194  	69.640666 
1696.422618  	67.895463 
1697.387043  	67.111931 
1698.351467  	66.104702 
1699.315891  	64.714727 
1700.280316  	62.202054 
1701.244740  	60.695577 
1702.209165  	60.174688 
1703.173589  	58.957767 
1704.138014  	57.259782 
1705.102438  	55.503306 
1706.066863  	54.111604 
1707.031287  	52.591033 
1707.995712  	51.612223 
1708.960136  	50.637434 
1709.924560  	49.480559 
1710.888985  	48.515311 
1711.853409  	47.978840 
1712.817834  	47.430852 
1713.782258  	46.934512 
1714.746683  	46.625745 
1715.711107  	47.123820 
1716.675532  	47.555046 
1717.639956  	47.797133 
1718.604381  	49.378534 
1719.568805  	51.320528 
1720.533230  	52.617604 
1721.497654  	53.884420 
1722.462078  	55.126481 
1723.426503  	56.330132 
1724.390927  	57.848649 
1725.355352  	59.235446 
1726.319776  	60.571000 
1727.284201  	61.996895 
1728.248625  	63.416687 
1729.213050  	64.413151 
1730.177474  	65.615904 
1731.141899  	67.611743 
1732.106323  	68.882583 
1733.070747  	69.524715 
1734.035172  	70.240206 
1734.999596  	73.264117 
1735.964021  	75.327236 
1736.928445  	76.659340 
1737.892870  	78.096237 
1738.857294  	79.219589 
1739.821719  	80.375043 
1740.786143  	82.496875 
1741.750568  	83.917595 
1742.714992  	84.707820 
1743.679416  	85.672142 
1744.643841  	87.179934 
1745.608265  	88.361798 
1746.572690  	89.131343 
1747.537114  	89.705261 
1748.501539  	90.131566 
1749.465963  	90.836655 
1750.430388  	91.413648 
1751.394812  	91.399655 
1752.359237  	92.312308 
1753.323661  	93.156712 
1754.288085  	93.573379 
1755.252510  	93.708941 
1756.216934  	93.496248 
1757.181359  	93.308017 
1758.145783  	93.700197 
1759.110208  	94.035457 
1760.074632  	94.198208 
1761.039057  	93.978380 
1762.003481  	93.518578 
1762.967906  	94.054060 
1763.932330  	94.482206 
1764.896754  	94.615814 
1765.861179  	94.623410 
1766.825603  	94.593242 
1767.790028  	94.146821 
1768.754452  	93.953433 
1769.718877  	94.479472 
1770.683301  	94.417606 
1771.647726  	93.818696 
1772.612150  	93.559694 
1773.576575  	94.077125 
1774.540999  	94.506790 
1775.505423  	94.359245 
1776.469848  	94.484667 
1777.434272  	94.765053 
1778.398697  	94.683892 
1779.363121  	94.539433 
1780.327546  	94.347100 
1781.291970  	94.289194 
1782.256395  	94.656754 
1783.220819  	94.811261 
1784.185244  	94.612956 
1785.149668  	94.302771 
1786.114093  	94.600748 
1787.078517  	94.815282 
1788.042941  	94.802432 
1789.007366  	94.742577 
1789.971790  	94.620106 
1790.936215  	94.187060 
1791.900639  	93.938315 
1792.865064  	93.835236 
1793.829488  	94.265319 
1794.793913  	94.510590 
1795.758337  	94.207212 
1796.722762  	94.213845 
1797.687186  	94.581366 
1798.651610  	94.569266 
1799.616035  	94.258478 
1800.580459  	94.255933 
1801.544884  	94.179682 
1802.509308  	94.057743 
1803.473733  	94.392423 
1804.438157  	94.633129 
1805.402582  	94.617671 
1806.367006  	94.547414 
1807.331431  	94.408605 
1808.295855  	94.379473 
1809.260279  	94.514034 
1810.224704  	94.257000 
1811.189128  	94.015011 
1812.153553  	94.221197 
1813.117977  	94.454647 
1814.082402  	94.605024 
1815.046826  	94.632163 
1816.011251  	94.620323 
1816.975675  	94.494350 
1817.940100  	94.399338 
1818.904524  	94.529255 
1819.868948  	94.561239 
1820.833373  	94.474801 
1821.797797  	94.416252 
1822.762222  	94.333055 
1823.726646  	94.325343 
1824.691071  	94.065545 
1825.655495  	93.692987 
1826.619920  	94.163390 
1827.584344  	94.398073 
1828.548769  	94.193942 
1829.513193  	93.602517 
1830.477617  	93.593717 
1831.442042  	94.242264 
1832.406466  	94.463457 
1833.370891  	94.401826 
1834.335315  	94.531675 
1835.299740  	94.621384 
1836.264164  	94.574656 
1837.228589  	94.369710 
1838.193013  	94.464036 
1839.157438  	94.619609 
1840.121862  	94.665301 
1841.086287  	94.700943 
1842.050711  	94.592769 
1843.015135  	94.430524 
1843.979560  	94.074745 
1844.943984  	93.938504 
1845.908409  	94.386107 
1846.872833  	94.607426 
1847.837258  	94.470919 
1848.801682  	94.521740 
1849.766107  	94.757751 
1850.730531  	94.916630 
1851.694956  	94.954319 
1852.659380  	94.944002 
1853.623804  	94.978020 
1854.588229  	94.983634 
1855.552653  	95.019076 
1856.517078  	94.976552 
1857.481502  	94.964185 
1858.445927  	94.894690 
1859.410351  	94.879495 
1860.374776  	94.953753 
1861.339200  	94.967897 
1862.303625  	94.999952 
1863.268049  	95.063467 
1864.232473  	95.038491 
1865.196898  	95.054414 
1866.161322  	94.867451 
1867.125747  	94.663419 
1868.090171  	94.417816 
1869.054596  	94.215880 
1870.019020  	94.406575 
1870.983445  	94.799559 
1871.947869  	95.051654 
1872.912294  	95.241715 
1873.876718  	95.195347 
1874.841142  	95.123555 
1875.805567  	95.038818 
1876.769991  	95.069579 
1877.734416  	95.188333 
1878.698840  	95.097395 
1879.663265  	94.982474 
1880.627689  	95.002179 
1881.592114  	94.999347 
1882.556538  	95.013319 
1883.520963  	95.128340 
1884.485387  	95.154265 
1885.449811  	95.069662 
1886.414236  	95.165279 
1887.378660  	95.135022 
1888.343085  	94.969883 
1889.307509  	94.623424 
1890.271934  	94.616446 
1891.236358  	94.911929 
1892.200783  	95.019040 
1893.165207  	94.961810 
1894.129632  	94.903016 
1895.094056  	94.738647 
1896.058480  	94.899516 
1897.022905  	95.147997 
1897.987329  	95.022621 
1898.951754  	94.859722 
1899.916178  	94.946443 
1900.880603  	95.022471 
1901.845027  	94.905584 
1902.809452  	94.874140 
1903.773876  	94.916376 
1904.738301  	94.971379 
1905.702725  	94.969510 
1906.667150  	94.932812 
1907.631574  	94.779407 
1908.595998  	94.742401 
1909.560423  	94.747746 
1910.524847  	94.703698 
1911.489272  	94.823439 
1912.453696  	94.814157 
1913.418121  	94.812272 
1914.382545  	94.809490 
1915.346970  	94.874399 
1916.311394  	94.863468 
1917.275819  	94.512527 
1918.240243  	94.072716 
1919.204667  	94.522923 
1920.169092  	94.736288 
1921.133516  	94.679998 
1922.097941  	94.419975 
1923.062365  	94.264843 
1924.026790  	94.633570 
1924.991214  	94.798468 
1925.955639  	94.657985 
1926.920063  	94.680161 
1927.884488  	94.765366 
1928.848912  	94.856981 
1929.813336  	94.813740 
1930.777761  	94.700955 
1931.742185  	94.691961 
1932.706610  	94.733396 
1933.671034  	94.730045 
1934.635459  	94.814814 
1935.599883  	94.677743 
1936.564308  	94.588585 
1937.528732  	94.520091 
1938.493157  	94.605498 
1939.457581  	94.707182 
1940.422005  	94.607883 
1941.386430  	94.292907 
1942.350854  	93.855246 
1943.315279  	93.882408 
1944.279703  	94.322984 
1945.244128  	94.385932 
1946.208552  	94.371522 
1947.172977  	94.259562 
1948.137401  	94.318246 
1949.101826  	94.262234 
1950.066250  	94.415487 
1951.030674  	94.576350 
1951.995099  	94.565577 
1952.959523  	94.442657 
1953.923948  	94.326091 
1954.888372  	94.277569 
1955.852797  	94.325671 
1956.817221  	94.470635 
1957.781646  	94.496856 
1958.746070  	94.377445 
1959.710495  	94.621809 
1960.674919  	94.614042 
1961.639344  	94.378223 
1962.603768  	94.096836 
1963.568192  	94.480431 
1964.532617  	94.862873 
1965.497041  	94.850683 
1966.461466  	94.732018 
1967.425890  	94.729447 
1968.390315  	94.909243 
1969.354739  	95.054691 
1970.319164  	95.108278 
1971.283588  	95.153758 
1972.248013  	94.954314 
1973.212437  	95.020040 
1974.176861  	94.951110 
1975.141286  	94.773675 
1976.105710  	95.149772 
1977.070135  	95.615019 
1978.034559  	95.299322 
1978.998984  	94.670036 
1979.963408  	94.306837 
1980.927833  	94.470112 
1981.892257  	94.720409 
1982.856682  	94.627770 
1983.821106  	94.486782 
1984.785530  	94.749286 
1985.749955  	94.727933 
1986.714379  	94.740853 
1987.678804  	94.638291 
1988.643228  	94.708578 
1989.607653  	94.970098 
1990.572077  	94.771746 
1991.536502  	94.437819 
1992.500926  	94.330418 
1993.465351  	94.416596 
1994.429775  	94.656000 
1995.394199  	94.625819 
1996.358624  	94.722413 
1997.323048  	94.755385 
1998.287473  	94.801123 
1999.251897  	94.922260 
2000.216322  	94.998279 
2001.180746  	95.204201 
2002.145171  	95.327586 
2003.109595  	95.556372 
2004.074020  	95.794669 
2005.038444  	95.915780 
2006.002868  	95.835071 
2006.967293  	95.418277 
2007.931717  	95.000660 
2008.896142  	95.049124 
2009.860566  	95.316350 
2010.824991  	95.338777 
2011.789415  	95.448834 
2012.753840  	95.513242 
2013.718264  	95.142297 
2014.682689  	94.924137 
2015.647113  	95.285202 
2016.611537  	95.321421 
2017.575962  	95.066044 
2018.540386  	94.799047 
2019.504811  	94.950745 
2020.469235  	95.410290 
2021.433660  	95.562600 
2022.398084  	95.478543 
2023.362509  	95.572147 
2024.326933  	95.314338 
2025.291358  	95.135895 
2026.255782  	95.147780 
2027.220207  	95.164036 
2028.184631  	94.993137 
2029.149055  	95.180679 
2030.113480  	95.474173 
2031.077904  	95.674446 
2032.042329  	95.340503 
2033.006753  	95.260901 
2033.971178  	95.383936 
2034.935602  	95.303034 
2035.900027  	95.388825 
2036.864451  	95.349228 
2037.828876  	95.173470 
2038.793300  	95.291231 
2039.757724  	95.083180 
2040.722149  	94.926156 
2041.686573  	95.002951 
2042.650998  	94.934178 
2043.615422  	94.693136 
2044.579847  	94.710926 
2045.544271  	94.848061 
2046.508696  	94.997349 
2047.473120  	95.034148 
2048.437545  	95.085380 
2049.401969  	94.934516 
2050.366393  	94.515769 
2051.330818  	94.331621 
2052.295242  	94.639589 
2053.259667  	94.920637 
2054.224091  	94.760901 
2055.188516  	94.411759 
2056.152940  	94.356252 
2057.117365  	94.233741 
2058.081789  	94.178662 
2059.046214  	94.218830 
2060.010638  	94.319325 
2060.975062  	94.331991 
2061.939487  	94.336417 
2062.903911  	94.188640 
2063.868336  	94.075407 
2064.832760  	93.995548 
2065.797185  	94.184159 
2066.761609  	94.237400 
2067.726034  	94.139476 
2068.690458  	94.179945 
2069.654883  	94.246136 
2070.619307  	94.114297 
2071.583731  	94.100469 
2072.548156  	94.114617 
2073.512580  	94.288002 
2074.477005  	94.145180 
2075.441429  	94.025607 
2076.405854  	93.970851 
2077.370278  	93.931684 
2078.334703  	94.016663 
2079.299127  	94.023952 
2080.263552  	93.891810 
2081.227976  	93.827725 
2082.192401  	93.897389 
2083.156825  	93.826028 
2084.121249  	93.836881 
2085.085674  	94.065636 
2086.050098  	94.059834 
2087.014523  	93.890088 
2087.978947  	93.978327 
2088.943372  	94.063457 
2089.907796  	93.904664 
2090.872221  	93.949952 
2091.836645  	94.151331 
2092.801070  	94.180418 
2093.765494  	94.180979 
2094.729918  	94.136651 
2095.694343  	93.916386 
2096.658767  	93.816652 
2097.623192  	93.870135 
2098.587616  	93.794278 
2099.552041  	93.766497 
2100.516465  	93.787593 
2101.480890  	93.841161 
2102.445314  	93.801702 
2103.409739  	93.800602 
2104.374163  	93.812840 
2105.338587  	93.728706 
2106.303012  	93.704049 
2107.267436  	93.637354 
2108.231861  	93.626596 
2109.196285  	93.603708 
2110.160710  	93.782719 
2111.125134  	93.925761 
2112.089559  	93.823341 
2113.053983  	93.798086 
2114.018408  	93.903816 
2114.982832  	93.820446 
2115.947256  	93.670130 
2116.911681  	93.743000 
2117.876105  	93.900757 
2118.840530  	93.911298 
2119.804954  	93.973907 
2120.769379  	93.992729 
2121.733803  	94.005394 
2122.698228  	94.126547 
2123.662652  	94.129397 
2124.627077  	94.034928 
2125.591501  	94.169493 
2126.555925  	94.331278 
2127.520350  	94.347984 
2128.484774  	94.356026 
2129.449199  	94.497405 
2130.413623  	94.555271 
2131.378048  	94.616846 
2132.342472  	94.769905 
2133.306897  	94.854438 
2134.271321  	94.700285 
2135.235746  	94.436520 
2136.200170  	94.368244 
2137.164594  	94.585791 
2138.129019  	94.881126 
2139.093443  	94.949324 
2140.057868  	94.775813 
2141.022292  	94.622529 
2141.986717  	94.458029 
2142.951141  	94.567112 
2143.915566  	94.779389 
2144.879990  	94.677016 
2145.844415  	94.651443 
2146.808839  	94.714220 
2147.773264  	94.855596 
2148.737688  	94.968642 
2149.702112  	94.971981 
2150.666537  	94.943493 
2151.630961  	94.808381 
2152.595386  	94.950504 
2153.559810  	94.996185 
2154.524235  	95.232140 
2155.488659  	95.753489 
2156.453084  	96.125715 
2157.417508  	96.204634 
2158.381933  	95.835446 
2159.346357  	94.709798 
2160.310781  	94.253370 
2161.275206  	94.265377 
2162.239630  	94.407001 
2163.204055  	94.727547 
2164.168479  	94.611878 
2165.132904  	94.212317 
2166.097328  	94.398805 
2167.061753  	94.635974 
2168.026177  	94.452859 
2168.990602  	94.273051 
2169.955026  	94.428538 
2170.919450  	94.751764 
2171.883875  	94.722528 
2172.848299  	94.785836 
2173.812724  	94.816222 
2174.777148  	94.771130 
2175.741573  	94.692832 
2176.705997  	94.336739 
2177.670422  	94.362921 
2178.634846  	94.720155 
2179.599271  	94.772965 
2180.563695  	94.691735 
2181.528119  	94.686697 
2182.492544  	94.530554 
2183.456968  	94.326017 
2184.421393  	94.186098 
2185.385817  	94.745420 
2186.350242  	95.013768 
2187.314666  	94.457875 
2188.279091  	94.284261 
2189.243515  	94.421904 
2190.207940  	94.315269 
2191.172364  	94.416271 
2192.136788  	94.567917 
2193.101213  	94.574553 
2194.065637  	94.345389 
2195.030062  	94.087482 
2195.994486  	94.000675 
2196.958911  	94.214197 
2197.923335  	94.245831 
2198.887760  	94.201406 
2199.852184  	94.408497 
2200.816609  	94.505524 
2201.781033  	94.364743 
2202.745458  	94.317478 
2203.709882  	94.335150 
2204.674306  	94.268103 
2205.638731  	94.221415 
2206.603155  	94.354833 
2207.567580  	94.387161 
2208.532004  	94.347605 
2209.496429  	94.298233 
2210.460853  	94.157176 
2211.425278  	94.102232 
2212.389702  	94.103894 
2213.354127  	94.015343 
2214.318551  	93.889795 
2215.282975  	93.870852 
2216.247400  	94.038771 
2217.211824  	94.091385 
2218.176249  	94.200228 
2219.140673  	94.330106 
2220.105098  	94.145731 
2221.069522  	94.205739 
2222.033947  	94.231813 
2222.998371  	93.900350 
2223.962796  	93.891510 
2224.927220  	94.102637 
2225.891644  	94.004410 
2226.856069  	93.955320 
2227.820493  	93.940555 
2228.784918  	93.942938 
2229.749342  	93.945563 
2230.713767  	93.975961 
2231.678191  	93.937070 
2232.642616  	93.897133 
2233.607040  	94.034941 
2234.571465  	94.049021 
2235.535889  	93.895897 
2236.500313  	93.791006 
2237.464738  	93.878907 
2238.429162  	93.903028 
2239.393587  	93.833464 
2240.358011  	93.887477 
2241.322436  	94.046226 
2242.286860  	93.930523 
2243.251285  	93.865142 
2244.215709  	93.862088 
2245.180134  	93.715821 
2246.144558  	93.616510 
2247.108982  	93.767289 
2248.073407  	93.854699 
2249.037831  	93.850842 
2250.002256  	93.676469 
2250.966680  	93.683469 
2251.931105  	93.829242 
2252.895529  	93.805916 
2253.859954  	93.628410 
2254.824378  	93.556437 
2255.788803  	93.587456 
2256.753227  	93.591812 
2257.717651  	93.584215 
2258.682076  	93.581730 
2259.646500  	93.621343 
2260.610925  	93.519764 
2261.575349  	93.464538 
2262.539774  	93.551740 
2263.504198  	93.643176 
2264.468623  	93.547542 
2265.433047  	93.554896 
2266.397472  	93.639368 
2267.361896  	93.623699 
2268.326321  	93.556244 
2269.290745  	93.488536 
2270.255169  	93.558434 
2271.219594  	93.604035 
2272.184018  	93.574696 
2273.148443  	93.508791 
2274.112867  	93.508664 
2275.077292  	93.479990 
2276.041716  	93.396391 
2277.006141  	93.379627 
2277.970565  	93.416582 
2278.934990  	93.356108 
2279.899414  	93.344945 
2280.863838  	93.366481 
2281.828263  	93.333435 
2282.792687  	93.303253 
2283.757112  	93.297684 
2284.721536  	93.301569 
2285.685961  	93.294429 
2286.650385  	93.337964 
2287.614810  	93.328519 
2288.579234  	93.260641 
2289.543659  	93.238513 
2290.508083  	93.280544 
2291.472507  	93.328195 
2292.436932  	93.340952 
2293.401356  	93.350885 
2294.365781  	93.296503 
2295.330205  	93.299138 
2296.294630  	93.298736 
2297.259054  	93.309646 
2298.223479  	93.352726 
2299.187903  	93.368057 
2300.152328  	93.394570 
2301.116752  	93.445507 
2302.081176  	93.482751 
2303.045601  	93.445459 
2304.010025  	93.440976 
2304.974450  	93.423743 
2305.938874  	93.373775 
2306.903299  	93.396795 
2307.867723  	93.435087 
2308.832148  	93.373544 
2309.796572  	93.361911 
2310.760997  	93.371706 
2311.725421  	93.345125 
2312.689845  	93.462460 
2313.654270  	93.493873 
2314.618694  	93.498606 
2315.583119  	93.570313 
2316.547543  	93.607847 
2317.511968  	93.633771 
2318.476392  	93.594308 
2319.440817  	93.561516 
2320.405241  	93.530519 
2321.369666  	93.566201 
2322.334090  	93.545746 
2323.298515  	93.496282 
2324.262939  	93.434135 
2325.227363  	93.692481 
2326.191788  	93.994872 
2327.156212  	94.193734 
2328.120637  	94.195576 
2329.085061  	94.172277 
2330.049486  	94.183934 
2331.013910  	94.215708 
2331.978335  	94.295806 
2332.942759  	94.395654 
2333.907184  	94.454221 
2334.871608  	94.501088 
2335.836032  	94.626406 
2336.800457  	94.658335 
2337.764881  	94.521065 
2338.729306  	94.431052 
2339.693730  	94.403769 
2340.658155  	94.535247 
2341.622579  	94.633631 
2342.587004  	94.613902 
2343.551428  	94.439656 
2344.515853  	94.288372 
2345.480277  	94.227724 
2346.444701  	94.096116 
2347.409126  	93.944470 
2348.373550  	93.757052 
2349.337975  	93.735462 
2350.302399  	93.906564 
2351.266824  	94.099550 
2352.231248  	94.300220 
2353.195673  	94.422920 
2354.160097  	94.514318 
2355.124522  	94.620252 
2356.088946  	94.771083 
2357.053370  	94.800438 
2358.017795  	94.862275 
2358.982219  	94.855133 
2359.946644  	94.989559 
2360.911068  	95.081032 
2361.875493  	95.001213 
2362.839917  	94.899180 
2363.804342  	94.840525 
2364.768766  	94.677794 
2365.733191  	94.714812 
2366.697615  	94.739101 
2367.662039  	94.611486 
2368.626464  	94.342063 
2369.590888  	94.210108 
2370.555313  	94.140101 
2371.519737  	94.024608 
2372.484162  	93.839663 
2373.448586  	93.770773 
2374.413011  	93.716710 
2375.377435  	93.617113 
2376.341860  	93.542511 
2377.306284  	93.466277 
2378.270708  	93.425465 
2379.235133  	93.328591 
2380.199557  	93.259117 
2381.163982  	93.261475 
2382.128406  	93.284053 
2383.092831  	93.313321 
2384.057255  	93.269111 
2385.021680  	93.282261 
2385.986104  	93.310124 
2386.950529  	93.275395 
2387.914953  	93.310605 
2388.879378  	93.340976 
2389.843802  	93.376839 
2390.808226  	93.395487 
2391.772651  	93.332891 
2392.737075  	93.295106 
2393.701500  	93.317341 
2394.665924  	93.331904 
2395.630349  	93.371821 
2396.594773  	93.370249 
2397.559198  	93.331529 
2398.523622  	93.394782 
2399.488047  	93.459839 
2400.452471  	93.404834 
2401.416895  	93.340072 
2402.381320  	93.370271 
2403.345744  	93.448838 
2404.310169  	93.481995 
2405.274593  	93.406524 
2406.239018  	93.344578 
2407.203442  	93.375138 
2408.167867  	93.404099 
2409.132291  	93.410667 
2410.096716  	93.412970 
2411.061140  	93.357082 
2412.025564  	93.336952 
2412.989989  	93.357451 
2413.954413  	93.376110 
2414.918838  	93.399628 
2415.883262  	93.388544 
2416.847687  	93.395782 
2417.812111  	93.414833 
2418.776536  	93.374200 
2419.740960  	93.372691 
2420.705385  	93.421428 
2421.669809  	93.419236 
2422.634233  	93.443821 
2423.598658  	93.412298 
2424.563082  	93.398569 
2425.527507  	93.449053 
2426.491931  	93.425114 
2427.456356  	93.404409 
2428.420780  	93.495055 
2429.385205  	93.511558 
2430.349629  	93.490767 
2431.314054  	93.462192 
2432.278478  	93.473474 
2433.242902  	93.452568 
2434.207327  	93.398236 
2435.171751  	93.417280 
2436.136176  	93.491569 
2437.100600  	93.526590 
2438.065025  	93.465078 
2439.029449  	93.531373 
2439.993874  	93.577618 
2440.958298  	93.524394 
2441.922723  	93.459753 
2442.887147  	93.438622 
2443.851572  	93.486848 
2444.815996  	93.525246 
2445.780420  	93.508246 
2446.744845  	93.427602 
2447.709269  	93.444183 
2448.673694  	93.453771 
2449.638118  	93.375884 
2450.602543  	93.371944 
2451.566967  	93.374129 
2452.531392  	93.386012 
2453.495816  	93.389218 
2454.460241  	93.377423 
2455.424665  	93.437422 
2456.389089  	93.452931 
2457.353514  	93.422536 
2458.317938  	93.404803 
2459.282363  	93.437548 
2460.246787  	93.482463 
2461.211212  	93.476015 
2462.175636  	93.452097 
2463.140061  	93.448631 
2464.104485  	93.447146 
2465.068910  	93.458416 
2466.033334  	93.466420 
2466.997758  	93.431673 
2467.962183  	93.437532 
2468.926607  	93.458020 
2469.891032  	93.465799 
2470.855456  	93.466091 
2471.819881  	93.452301 
2472.784305  	93.423360 
2473.748730  	93.438733 
2474.713154  	93.466027 
2475.677579  	93.437290 
2476.642003  	93.410782 
2477.606427  	93.417472 
2478.570852  	93.465035 
2479.535276  	93.439944 
2480.499701  	93.380616 
2481.464125  	93.396299 
2482.428550  	93.457877 
2483.392974  	93.485583 
2484.357399  	93.483298 
2485.321823  	93.393948 
2486.286248  	93.284188 
2487.250672  	93.304755 
2488.215096  	93.368780 
2489.179521  	93.322390 
2490.143945  	93.250961 
2491.108370  	93.227815 
2492.072794  	93.300353 
2493.037219  	93.352019 
2494.001643  	93.370712 
2494.966068  	93.390709 
2495.930492  	93.371857 
2496.894917  	93.307359 
2497.859341  	93.280448 
2498.823765  	93.278979 
2499.788190  	93.294474 
2500.752614  	93.310155 
2501.717039  	93.310831 
2502.681463  	93.266449 
2503.645888  	93.225911 
2504.610312  	93.228860 
2505.574737  	93.288849 
2506.539161  	93.296502 
2507.503586  	93.314030 
2508.468010  	93.293225 
2509.432435  	93.250425 
2510.396859  	93.238320 
2511.361283  	93.311242 
2512.325708  	93.255583 
2513.290132  	93.233448 
2514.254557  	93.282287 
2515.218981  	93.265227 
2516.183406  	93.210083 
2517.147830  	93.239154 
2518.112255  	93.184313 
2519.076679  	93.165729 
2520.041104  	93.205200 
2521.005528  	93.220208 
2521.969952  	93.155617 
2522.934377  	93.087065 
2523.898801  	93.155859 
2524.863226  	93.267098 
2525.827650  	93.232147 
2526.792075  	93.210920 
2527.756499  	93.215225 
2528.720924  	93.203015 
2529.685348  	93.155949 
2530.649773  	93.139583 
2531.614197  	93.166817 
2532.578621  	93.231574 
2533.543046  	93.267590 
2534.507470  	93.266717 
2535.471895  	93.236576 
2536.436319  	93.173771 
2537.400744  	93.171853 
2538.365168  	93.173371 
2539.329593  	93.179521 
2540.294017  	93.169439 
2541.258442  	93.178501 
2542.222866  	93.163554 
2543.187290  	93.158193 
2544.151715  	93.177016 
2545.116139  	93.213160 
2546.080564  	93.189262 
2547.044988  	93.091265 
2548.009413  	92.990299 
2548.973837  	93.037195 
2549.938262  	93.133571 
2550.902686  	93.194450 
2551.867111  	93.184108 
2552.831535  	93.117141 
2553.795959  	93.071987 
2554.760384  	93.088208 
2555.724808  	93.078074 
2556.689233  	93.024881 
2557.653657  	93.060939 
2558.618082  	93.099889 
2559.582506  	93.172265 
2560.546931  	93.179265 
2561.511355  	93.116430 
2562.475780  	93.113581 
2563.440204  	93.137883 
2564.404629  	93.165632 
2565.369053  	93.131161 
2566.333477  	93.109551 
2567.297902  	93.161040 
2568.262326  	93.140928 
2569.226751  	93.037511 
2570.191175  	93.009792 
2571.155600  	93.096007 
2572.120024  	93.150923 
2573.084449  	93.155447 
2574.048873  	93.092622 
2575.013298  	93.011892 
2575.977722  	93.020374 
2576.942146  	93.070587 
2577.906571  	93.093152 
2578.870995  	93.101337 
2579.835420  	93.089105 
2580.799844  	93.068841 
2581.764269  	93.009332 
2582.728693  	93.060211 
2583.693118  	93.049377 
2584.657542  	93.005987 
2585.621967  	93.039990 
2586.586391  	93.017785 
2587.550815  	93.032365 
2588.515240  	93.047847 
2589.479664  	92.981340 
2590.444089  	92.990143 
2591.408513  	93.060636 
2592.372938  	93.055972 
2593.337362  	93.030972 
2594.301787  	93.022585 
2595.266211  	93.005611 
2596.230636  	93.019681 
2597.195060  	93.032297 
2598.159484  	93.040281 
2599.123909  	93.073320 
2600.088333  	93.094976 
2601.052758  	93.039569 
2602.017182  	92.980009 
2602.981607  	93.015993 
2603.946031  	93.077550 
2604.910456  	93.079639 
2605.874880  	93.008611 
2606.839305  	92.984614 
2607.803729  	93.006866 
2608.768153  	93.016632 
2609.732578  	92.982696 
2610.697002  	92.957330 
2611.661427  	92.981855 
2612.625851  	93.004378 
2613.590276  	93.036246 
2614.554700  	93.028353 
2615.519125  	92.984449 
2616.483549  	92.966374 
2617.447974  	92.926317 
2618.412398  	92.932558 
2619.376822  	92.950414 
2620.341247  	92.974881 
2621.305671  	92.968543 
2622.270096  	92.903997 
2623.234520  	92.878433 
2624.198945  	92.894444 
2625.163369  	92.907921 
2626.127794  	92.895236 
2627.092218  	92.896653 
2628.056643  	92.909214 
2629.021067  	92.899505 
2629.985492  	92.883692 
2630.949916  	92.912617 
2631.914340  	92.911015 
2632.878765  	92.906581 
2633.843189  	92.918202 
2634.807614  	92.862624 
2635.772038  	92.864055 
2636.736463  	92.863427 
2637.700887  	92.882587 
2638.665312  	92.917313 
2639.629736  	92.924384 
2640.594161  	92.935845 
2641.558585  	92.947080 
2642.523009  	92.957177 
2643.487434  	92.957714 
2644.451858  	92.936811 
2645.416283  	92.917719 
2646.380707  	92.935601 
2647.345132  	92.936364 
2648.309556  	92.929061 
2649.273981  	92.929312 
2650.238405  	92.928415 
2651.202830  	92.939371 
2652.167254  	92.971576 
2653.131678  	92.968352 
2654.096103  	92.945466 
2655.060527  	92.924120 
2656.024952  	92.946553 
2656.989376  	92.968461 
2657.953801  	92.951799 
2658.918225  	92.939522 
2659.882650  	92.964101 
2660.847074  	92.986721 
2661.811499  	93.006294 
2662.775923  	93.001336 
2663.740347  	93.018464 
2664.704772  	93.041553 
2665.669196  	93.059190 
2666.633621  	93.062434 
2667.598045  	93.038207 
2668.562470  	93.000028 
2669.526894  	92.982722 
2670.491319  	92.991694 
2671.455743  	93.039764 
2672.420168  	93.066405 
2673.384592  	93.048378 
2674.349016  	93.035401 
2675.313441  	93.047560 
2676.277865  	93.055212 
2677.242290  	93.044953 
2678.206714  	93.033909 
2679.171139  	93.034570 
2680.135563  	93.040259 
2681.099988  	93.035837 
2682.064412  	93.047528 
2683.028837  	93.052878 
2683.993261  	93.047397 
2684.957686  	93.047121 
2685.922110  	93.051957 
2686.886534  	93.017602 
2687.850959  	92.991300 
2688.815383  	93.013283 
2689.779808  	93.027763 
2690.744232  	93.010482 
2691.708657  	93.000277 
2692.673081  	93.013319 
2693.637506  	93.029198 
2694.601930  	93.037173 
2695.566355  	93.041242 
2696.530779  	93.029739 
2697.495203  	93.010826 
2698.459628  	93.018468 
2699.424052  	93.020319 
2700.388477  	92.987863 
2701.352901  	92.959051 
2702.317326  	92.969893 
2703.281750  	92.991278 
2704.246175  	93.007466 
2705.210599  	92.998633 
2706.175024  	92.971481 
2707.139448  	92.945104 
2708.103872  	92.929046 
2709.068297  	92.988147 
2710.032721  	92.982984 
2710.997146  	92.927028 
2711.961570  	92.918592 
2712.925995  	92.945602 
2713.890419  	92.952498 
2714.854844  	92.950816 
2715.819268  	92.954739 
2716.783693  	92.951787 
2717.748117  	92.944152 
2718.712541  	92.951144 
2719.676966  	92.978200 
2720.641390  	92.986993 
2721.605815  	92.986067 
2722.570239  	92.976836 
2723.534664  	92.950112 
2724.499088  	92.918529 
2725.463513  	92.895414 
2726.427937  	92.897524 
2727.392362  	92.912385 
2728.356786  	92.893909 
2729.321210  	92.870343 
2730.285635  	92.881796 
2731.250059  	92.877252 
2732.214484  	92.866730 
2733.178908  	92.869078 
2734.143333  	92.885690 
2735.107757  	92.902780 
2736.072182  	92.908493 
2737.036606  	92.895259 
2738.001031  	92.871334 
2738.965455  	92.855553 
2739.929879  	92.836959 
2740.894304  	92.829237 
2741.858728  	92.839048 
2742.823153  	92.828771 
2743.787577  	92.831775 
2744.752002  	92.845943 
2745.716426  	92.828134 
2746.680851  	92.812351 
2747.645275  	92.811382 
2748.609700  	92.812055 
2749.574124  	92.804726 
2750.538549  	92.778319 
2751.502973  	92.756180 
2752.467397  	92.792556 
2753.431822  	92.804437 
2754.396246  	92.795383 
2755.360671  	92.795042 
2756.325095  	92.825387 
2757.289520  	92.821269 
2758.253944  	92.831648 
2759.218369  	92.837850 
2760.182793  	92.801188 
2761.147218  	92.780644 
2762.111642  	92.778056 
2763.076066  	92.786065 
2764.040491  	92.825897 
2765.004915  	92.807240 
2765.969340  	92.779950 
2766.933764  	92.781100 
2767.898189  	92.768989 
2768.862613  	92.748484 
2769.827038  	92.737806 
2770.791462  	92.741646 
2771.755887  	92.735280 
2772.720311  	92.735624 
2773.684735  	92.738153 
2774.649160  	92.740959 
2775.613584  	92.756820 
2776.578009  	92.754058 
2777.542433  	92.723643 
2778.506858  	92.724424 
2779.471282  	92.727232 
2780.435707  	92.724582 
2781.400131  	92.712745 
2782.364556  	92.691624 
2783.328980  	92.696249 
2784.293404  	92.684756 
2785.257829  	92.679233 
2786.222253  	92.690941 
2787.186678  	92.694185 
2788.151102  	92.679156 
2789.115527  	92.718390 
2790.079951  	92.707944 
2791.044376  	92.680002 
2792.008800  	92.651771 
2792.973225  	92.629675 
2793.937649  	92.628230 
2794.902073  	92.612161 
2795.866498  	92.583029 
2796.830922  	92.598884 
2797.795347  	92.598345 
2798.759771  	92.583789 
2799.724196  	92.554785 
2800.688620  	92.537362 
2801.653045  	92.546299 
2802.617469  	92.558603 
2803.581894  	92.570399 
2804.546318  	92.567069 
2805.510743  	92.562522 
2806.475167  	92.534621 
2807.439591  	92.523747 
2808.404016  	92.531425 
2809.368440  	92.539169 
2810.332865  	92.564815 
2811.297289  	92.532893 
2812.261714  	92.522185 
2813.226138  	92.556492 
2814.190563  	92.564066 
2815.154987  	92.561978 
2816.119412  	92.540728 
2817.083836  	92.518028 
2818.048260  	92.501514 
2819.012685  	92.526792 
2819.977109  	92.570872 
2820.941534  	92.556001 
2821.905958  	92.544782 
2822.870383  	92.534285 
2823.834807  	92.527766 
2824.799232  	92.512437 
2825.763656  	92.528299 
2826.728081  	92.511906 
2827.692505  	92.476341 
2828.656929  	92.482221 
2829.621354  	92.499971 
2830.585778  	92.492391 
2831.550203  	92.462184 
2832.514627  	92.428144 
2833.479052  	92.426736 
2834.443476  	92.394262 
2835.407901  	92.355479 
2836.372325  	92.365508 
2837.336750  	92.376422 
2838.301174  	92.349692 
2839.265598  	92.288931 
2840.230023  	92.264100 
2841.194447  	92.273946 
2842.158872  	92.226295 
2843.123296  	92.167960 
2844.087721  	92.107197 
2845.052145  	92.058062 
2846.016570  	91.982155 
2846.980994  	91.883614 
2847.945419  	91.822986 
2848.909843  	91.770568 
2849.874267  	91.693036 
2850.838692  	91.651646 
2851.803116  	91.621668 
2852.767541  	91.617228 
2853.731965  	91.636566 
2854.696390  	91.682618 
2855.660814  	91.755855 
2856.625239  	91.810160 
2857.589663  	91.807611 
2858.554088  	91.769726 
2859.518512  	91.796938 
2860.482936  	91.831764 
2861.447361  	91.826684 
2862.411785  	91.839645 
2863.376210  	91.858155 
2864.340634  	91.831354 
2865.305059  	91.816172 
2866.269483  	91.844261 
2867.233908  	91.828817 
2868.198332  	91.813664 
2869.162757  	91.827682 
2870.127181  	91.815112 
2871.091606  	91.788012 
2872.056030  	91.800259 
2873.020454  	91.823806 
2873.984879  	91.825559 
2874.949303  	91.781669 
2875.913728  	91.747490 
2876.878152  	91.757565 
2877.842577  	91.755375 
2878.807001  	91.745990 
2879.771426  	91.739426 
2880.735850  	91.702653 
2881.700275  	91.664109 
2882.664699  	91.650527 
2883.629123  	91.656886 
2884.593548  	91.653966 
2885.557972  	91.636533 
2886.522397  	91.608012 
2887.486821  	91.619100 
2888.451246  	91.589765 
2889.415670  	91.548024 
2890.380095  	91.503099 
2891.344519  	91.496539 
2892.308944  	91.509472 
2893.273368  	91.521407 
2894.237792  	91.503341 
2895.202217  	91.429594 
2896.166641  	91.398270 
2897.131066  	91.386468 
2898.095490  	91.357256 
2899.059915  	91.299577 
2900.024339  	91.208940 
2900.988764  	91.144059 
2901.953188  	91.084015 
2902.917613  	91.012268 
2903.882037  	90.956007 
2904.846461  	90.909379 
2905.810886  	90.835273 
2906.775310  	90.783002 
2907.739735  	90.776911 
2908.704159  	90.730421 
2909.668584  	90.695624 
2910.633008  	90.715046 
2911.597433  	90.780705 
2912.561857  	90.866684 
2913.526282  	90.876244 
2914.490706  	90.831029 
2915.455130  	90.815887 
2916.419555  	90.837166 
2917.383979  	90.870244 
2918.348404  	90.903464 
2919.312828  	90.951059 
2920.277253  	90.985271 
2921.241677  	90.991716 
2922.206102  	91.040221 
2923.170526  	91.072371 
2924.134951  	91.158651 
2925.099375  	91.223662 
2926.063800  	91.205875 
2927.028224  	91.209515 
2927.992648  	91.253988 
2928.957073  	91.330562 
2929.921497  	91.359350 
2930.885922  	91.331772 
2931.850346  	91.338730 
2932.814771  	91.395917 
2933.779195  	91.409633 
2934.743620  	91.367036 
2935.708044  	91.370759 
2936.672469  	91.388948 
2937.636893  	91.395934 
2938.601317  	91.360421 
2939.565742  	91.356253 
2940.530166  	91.374990 
2941.494591  	91.330256 
2942.459015  	91.272266 
2943.423440  	91.242071 
2944.387864  	91.195959 
2945.352289  	91.124229 
2946.316713  	91.110565 
2947.281138  	91.087802 
2948.245562  	91.030543 
2949.209986  	90.930859 
2950.174411  	90.818076 
2951.138835  	90.765090 
2952.103260  	90.705995 
2953.067684  	90.621258 
2954.032109  	90.551182 
2954.996533  	90.507410 
2955.960958  	90.444161 
2956.925382  	90.391096 
2957.889807  	90.360592 
2958.854231  	90.285189 
2959.818655  	90.189087 
2960.783080  	90.173316 
2961.747504  	90.166838 
2962.711929  	90.150849 
2963.676353  	90.086550 
2964.640778  	89.982899 
2965.605202  	89.876352 
2966.569627  	89.825695 
2967.534051  	89.866609 
2968.498476  	89.908354 
2969.462900  	89.899965 
2970.427324  	89.896864 
2971.391749  	89.906119 
2972.356173  	89.965002 
2973.320598  	90.064974 
2974.285022  	90.136318 
2975.249447  	90.194126 
2976.213871  	90.314649 
2977.178296  	90.445369 
2978.142720  	90.545332 
2979.107145  	90.605709 
2980.071569  	90.705871 
2981.035993  	90.757762 
2982.000418  	90.855369 
2982.964842  	90.980227 
2983.929267  	91.045867 
2984.893691  	91.149801 
2985.858116  	91.219856 
2986.822540  	91.286080 
2987.786965  	91.344460 
2988.751389  	91.387200 
2989.715814  	91.437365 
2990.680238  	91.492833 
2991.644663  	91.540246 
2992.609087  	91.551488 
2993.573511  	91.566976 
2994.537936  	91.622032 
2995.502360  	91.653474 
2996.466785  	91.624941 
2997.431209  	91.626267 
2998.395634  	91.672345 
2999.360058  	91.691829 
3000.324483  	91.723071 
3001.288907  	91.717730 
3002.253332  	91.683673 
3003.217756  	91.672514 
3004.182180  	91.655912 
3005.146605  	91.708288 
3006.111029  	91.782895 
3007.075454  	91.805194 
3008.039878  	91.806459 
3009.004303  	91.873077 
3009.968727  	91.893425 
3010.933152  	91.850170 
3011.897576  	91.817948 
3012.862001  	91.817921 
3013.826425  	91.900399 
3014.790849  	91.931886 
3015.755274  	91.905784 
3016.719698  	91.925515 
3017.684123  	91.977526 
3018.648547  	92.017064 
3019.612972  	92.064132 
3020.577396  	92.158841 
3021.541821  	92.209316 
3022.506245  	92.225327 
3023.470670  	92.215738 
3024.435094  	92.226080 
3025.399518  	92.243580 
3026.363943  	92.300290 
3027.328367  	92.391376 
3028.292792  	92.420800 
3029.257216  	92.410430 
3030.221641  	92.362936 
3031.186065  	92.327765 
3032.150490  	92.329477 
3033.114914  	92.357882 
3034.079339  	92.342270 
3035.043763  	92.334648 
3036.008187  	92.344702 
3036.972612  	92.341120 
3037.937036  	92.339905 
3038.901461  	92.348821 
3039.865885  	92.367008 
3040.830310  	92.394070 
3041.794734  	92.396556 
3042.759159  	92.347358 
3043.723583  	92.350865 
3044.688008  	92.352482 
3045.652432  	92.316378 
3046.616857  	92.258595 
3047.581281  	92.194688 
3048.545705  	92.113352 
3049.510130  	92.056666 
3050.474554  	92.013455 
3051.438979  	92.002961 
3052.403403  	91.997211 
3053.367828  	91.956432 
3054.332252  	91.927304 
3055.296677  	91.949779 
3056.261101  	91.887834 
3057.225526  	91.845348 
3058.189950  	91.929216 
3059.154374  	92.018957 
3060.118799  	92.065480 
3061.083223  	92.081110 
3062.047648  	92.077812 
3063.012072  	92.057682 
3063.976497  	92.018192 
3064.940921  	91.990058 
3065.905346  	92.037905 
3066.869770  	92.050410 
3067.834195  	92.002755 
3068.798619  	91.987582 
3069.763043  	92.025007 
3070.727468  	92.097788 
3071.691892  	92.127881 
3072.656317  	92.103449 
3073.620741  	92.102593 
3074.585166  	92.088581 
3075.549590  	92.096259 
3076.514015  	92.095886 
3077.478439  	92.051451 
3078.442864  	92.055287 
3079.407288  	92.071759 
3080.371712  	92.083747 
3081.336137  	92.094101 
3082.300561  	92.079046 
3083.264986  	92.109556 
3084.229410  	92.165196 
3085.193835  	92.134172 
3086.158259  	92.129314 
3087.122684  	92.151468 
3088.087108  	92.158112 
3089.051533  	92.204056 
3090.015957  	92.218524 
3090.980381  	92.222779 
3091.944806  	92.254383 
3092.909230  	92.272077 
3093.873655  	92.279881 
3094.838079  	92.265566 
3095.802504  	92.275945 
3096.766928  	92.295037 
3097.731353  	92.283370 
3098.695777  	92.254199 
3099.660202  	92.211915 
3100.624626  	92.136460 
3101.589050  	92.098516 
3102.553475  	92.093402 
3103.517899  	92.089810 
3104.482324  	92.113720 
3105.446748  	92.149686 
3106.411173  	92.162359 
3107.375597  	92.189912 
3108.340022  	92.255440 
3109.304446  	92.272214 
3110.268871  	92.216548 
3111.233295  	92.242196 
3112.197720  	92.253246 
3113.162144  	92.234589 
3114.126568  	92.255389 
3115.090993  	92.291761 
3116.055417  	92.289361 
3117.019842  	92.280316 
3117.984266  	92.265273 
3118.948691  	92.282293 
3119.913115  	92.365152 
3120.877540  	92.362692 
3121.841964  	92.338445 
3122.806389  	92.334369 
3123.770813  	92.333105 
3124.735237  	92.328939 
3125.699662  	92.337351 
3126.664086  	92.317572 
3127.628511  	92.346568 
3128.592935  	92.375854 
3129.557360  	92.337042 
3130.521784  	92.302348 
3131.486209  	92.311083 
3132.450633  	92.301687 
3133.415058  	92.274301 
3134.379482  	92.387345 
3135.343906  	92.435930 
3136.308331  	92.379740 
3137.272755  	92.323794 
3138.237180  	92.352758 
3139.201604  	92.399265 
3140.166029  	92.410631 
3141.130453  	92.463534 
3142.094878  	92.424005 
3143.059302  	92.348127 
3144.023727  	92.385077 
3144.988151  	92.486523 
3145.952575  	92.460685 
3146.917000  	92.360466 
3147.881424  	92.344326 
3148.845849  	92.435054 
3149.810273  	92.476118 
3150.774698  	92.479441 
3151.739122  	92.472333 
3152.703547  	92.419131 
3153.667971  	92.392478 
3154.632396  	92.442421 
3155.596820  	92.444407 
3156.561244  	92.380904 
3157.525669  	92.376214 
3158.490093  	92.389971 
3159.454518  	92.447203 
3160.418942  	92.470196 
3161.383367  	92.442785 
3162.347791  	92.410657 
3163.312216  	92.364764 
3164.276640  	92.407295 
3165.241065  	92.488227 
3166.205489  	92.470645 
3167.169914  	92.430672 
3168.134338  	92.370683 
3169.098762  	92.351267 
3170.063187  	92.346883 
3171.027611  	92.354669 
3171.992036  	92.402637 
3172.956460  	92.400826 
3173.920885  	92.381096 
3174.885309  	92.390404 
3175.849734  	92.386945 
3176.814158  	92.360490 
3177.778583  	92.344897 
3178.743007  	92.341751 
3179.707431  	92.311645 
3180.671856  	92.365509 
3181.636280  	92.480257 
3182.600705  	92.463591 
3183.565129  	92.326990 
3184.529554  	92.286318 
3185.493978  	92.305844 
3186.458403  	92.327452 
3187.422827  	92.294336 
3188.387252  	92.249411 
3189.351676  	92.279035 
3190.316100  	92.323670 
3191.280525  	92.299496 
3192.244949  	92.353232 
3193.209374  	92.368371 
3194.173798  	92.304579 
3195.138223  	92.326656 
3196.102647  	92.302245 
3197.067072  	92.234324 
3198.031496  	92.207510 
3198.995921  	92.254944 
3199.960345  	92.312946 
3200.924769  	92.357547 
3201.889194  	92.381442 
3202.853618  	92.391371 
3203.818043  	92.332959 
3204.782467  	92.249877 
3205.746892  	92.238734 
3206.711316  	92.244830 
3207.675741  	92.251702 
3208.640165  	92.265045 
3209.604590  	92.260563 
3210.569014  	92.244751 
3211.533438  	92.257719 
3212.497863  	92.297037 
3213.462287  	92.270250 
3214.426712  	92.181485 
3215.391136  	92.221705 
3216.355561  	92.198742 
3217.319985  	92.161045 
3218.284410  	92.195623 
3219.248834  	92.229120 
3220.213259  	92.259509 
3221.177683  	92.286555 
3222.142107  	92.283629 
3223.106532  	92.264782 
3224.070956  	92.212559 
3225.035381  	92.167957 
3225.999805  	92.200287 
3226.964230  	92.223904 
3227.928654  	92.227918 
3228.893079  	92.263419 
3229.857503  	92.247462 
3230.821928  	92.248857 
3231.786352  	92.254270 
3232.750777  	92.251375 
3233.715201  	92.281264 
3234.679625  	92.302960 
3235.644050  	92.293658 
3236.608474  	92.279979 
3237.572899  	92.246925 
3238.537323  	92.238475 
3239.501748  	92.186902 
3240.466172  	92.123012 
3241.430597  	92.211820 
3242.395021  	92.295105 
3243.359446  	92.268592 
3244.323870  	92.220760 
3245.288294  	92.166006 
3246.252719  	92.201670 
3247.217143  	92.262619 
3248.181568  	92.252741 
3249.145992  	92.219286 
3250.110417  	92.232389 
3251.074841  	92.230445 
3252.039266  	92.182131 
3253.003690  	92.166109 
3253.968115  	92.162625 
3254.932539  	92.123787 
3255.896963  	92.016578 
3256.861388  	91.998000 
3257.825812  	92.138194 
3258.790237  	92.127464 
3259.754661  	92.127980 
3260.719086  	92.150656 
3261.683510  	92.137974 
3262.647935  	92.154233 
3263.612359  	92.198677 
3264.576784  	92.197993 
3265.541208  	92.147969 
3266.505632  	92.128032 
3267.470057  	92.124459 
3268.434481  	92.128388 
3269.398906  	92.111339 
3270.363330  	92.079096 
3271.327755  	92.119603 
3272.292179  	92.124542 
3273.256604  	92.101829 
3274.221028  	92.092248 
3275.185453  	92.132797 
3276.149877  	92.144939 
3277.114301  	92.126064 
3278.078726  	92.108775 
3279.043150  	92.067908 
3280.007575  	92.072675 
3280.971999  	92.094808 
3281.936424  	92.132048 
3282.900848  	92.129877 
3283.865273  	92.067917 
3284.829697  	92.025783 
3285.794122  	92.037732 
3286.758546  	92.052954 
3287.722971  	92.048805 
3288.687395  	92.044948 
3289.651819  	92.064121 
3290.616244  	92.036293 
3291.580668  	91.965522 
3292.545093  	91.981118 
3293.509517  	92.058775 
3294.473942  	92.063468 
3295.438366  	92.042879 
3296.402791  	92.034701 
3297.367215  	92.008442 
3298.331640  	91.993525 
3299.296064  	92.066160 
3300.260488  	92.065059 
3301.224913  	92.031802 
3302.189337  	92.081508 
3303.153762  	92.062863 
3304.118186  	92.009004 
3305.082611  	92.012924 
3306.047035  	92.078719 
3307.011460  	92.157248 
3307.975884  	92.117462 
3308.940309  	92.024740 
3309.904733  	92.058243 
3310.869157  	92.089132 
3311.833582  	92.082219 
3312.798006  	92.070615 
3313.762431  	92.052153 
3314.726855  	92.060957 
3315.691280  	91.987028 
3316.655704  	91.945495 
3317.620129  	91.972570 
3318.584553  	91.965904 
3319.548978  	91.954652 
3320.513402  	91.997779 
3321.477826  	92.034605 
3322.442251  	92.014016 
3323.406675  	92.040598 
3324.371100  	92.032448 
3325.335524  	91.989976 
3326.299949  	92.030777 
3327.264373  	92.043261 
3328.228798  	91.973746 
3329.193222  	91.914168 
3330.157647  	91.926292 
3331.122071  	91.972222 
3332.086495  	92.054113 
3333.050920  	92.040446 
3334.015344  	92.009826 
3334.979769  	91.976470 
3335.944193  	91.953017 
3336.908618  	91.932831 
3337.873042  	91.919852 
3338.837467  	91.956868 
3339.801891  	91.964664 
3340.766316  	91.976877 
3341.730740  	91.959573 
3342.695164  	91.951296 
3343.659589  	92.030300 
3344.624013  	92.122058 
3345.588438  	92.103858 
3346.552862  	92.004583 
3347.517287  	92.004387 
3348.481711  	92.051781 
3349.446136  	92.047553 
3350.410560  	92.057117 
3351.374985  	92.069979 
3352.339409  	92.057131 
3353.303834  	92.021334 
3354.268258  	92.028721 
3355.232682  	92.064884 
3356.197107  	92.013302 
3357.161531  	92.071956 
3358.125956  	92.097256 
3359.090380  	92.082887 
3360.054805  	92.031888 
3361.019229  	92.003756 
3361.983654  	92.021789 
3362.948078  	92.039627 
3363.912503  	92.026155 
3364.876927  	91.950680 
3365.841351  	91.991972 
3366.805776  	92.074220 
3367.770200  	92.051902 
3368.734625  	92.018437 
3369.699049  	92.036872 
3370.663474  	92.061985 
3371.627898  	92.061520 
3372.592323  	92.037952 
3373.556747  	92.051312 
3374.521172  	92.102279 
3375.485596  	92.082952 
3376.450020  	92.019074 
3377.414445  	92.069607 
3378.378869  	92.127105 
3379.343294  	92.148845 
3380.307718  	92.145043 
3381.272143  	92.179834 
3382.236567  	92.138908 
3383.200992  	92.078796 
3384.165416  	91.996869 
3385.129841  	91.959994 
3386.094265  	91.996703 
3387.058689  	92.046805 
3388.023114  	92.086334 
3388.987538  	92.069296 
3389.951963  	91.994120 
3390.916387  	91.979735 
3391.880812  	91.980929 
3392.845236  	91.855100 
3393.809661  	91.860137 
3394.774085  	91.976116 
3395.738510  	91.939631 
3396.702934  	91.910799 
3397.667358  	91.917266 
3398.631783  	91.984422 
3399.596207  	92.060379 
3400.560632  	92.025842 
3401.525056  	91.959516 
3402.489481  	91.962740 
3403.453905  	91.926318 
3404.418330  	91.885449 
3405.382754  	91.910521 
3406.347179  	91.912093 
3407.311603  	91.881055 
3408.276028  	91.900245 
3409.240452  	91.859003 
3410.204876  	91.734582 
3411.169301  	91.768684 
3412.133725  	91.888246 
3413.098150  	91.905699 
3414.062574  	91.810872 
3415.026999  	91.760618 
3415.991423  	91.728339 
3416.955848  	91.736011 
3417.920272  	91.707180 
3418.884697  	91.670553 
3419.849121  	91.537650 
3420.813545  	91.320870 
3421.777970  	91.278151 
3422.742394  	91.347497 
3423.706819  	91.390447 
3424.671243  	91.413454 
3425.635668  	91.448004 
3426.600092  	91.474178 
3427.564517  	91.486759 
3428.528941  	91.471369 
3429.493366  	91.497505 
3430.457790  	91.511528 
3431.422214  	91.475067 
3432.386639  	91.462794 
3433.351063  	91.457281 
3434.315488  	91.495627 
3435.279912  	91.539453 
3436.244337  	91.576716 
3437.208761  	91.653692 
3438.173186  	91.651246 
3439.137610  	91.616664 
3440.102035  	91.620021 
3441.066459  	91.603602 
3442.030883  	91.532308 
3442.995308  	91.475921 
3443.959732  	91.556913 
3444.924157  	91.598269 
3445.888581  	91.621992 
3446.853006  	91.390703 
3447.817430  	91.195055 
3448.781855  	91.536847 
3449.746279  	91.728818 
3450.710704  	91.747871 
3451.675128  	91.784595 
3452.639552  	91.824451 
3453.603977  	91.806713 
3454.568401  	91.763823 
3455.532826  	91.782100 
3456.497250  	91.803092 
3457.461675  	91.784801 
3458.426099  	91.769977 
3459.390524  	91.834951 
3460.354948  	91.914187 
3461.319373  	91.871512 
3462.283797  	91.808456 
3463.248221  	91.830261 
3464.212646  	91.945502 
3465.177070  	91.946692 
3466.141495  	91.865036 
3467.105919  	91.806254 
3468.070344  	91.914652 
3469.034768  	92.044669 
3469.999193  	92.012407 
3470.963617  	92.003042 
3471.928042  	92.055630 
3472.892466  	92.103212 
3473.856891  	92.078431 
3474.821315  	91.968922 
3475.785739  	91.949091 
3476.750164  	91.986056 
3477.714588  	91.987175 
3478.679013  	92.068708 
3479.643437  	92.067550 
3480.607862  	91.938759 
3481.572286  	91.855991 
3482.536711  	91.787433 
3483.501135  	91.905879 
3484.465560  	91.992405 
3485.429984  	91.985194 
3486.394408  	91.988758 
3487.358833  	91.998921 
3488.323257  	91.864108 
3489.287682  	91.880216 
3490.252106  	92.038874 
3491.216531  	92.080317 
3492.180955  	92.144768 
3493.145380  	92.163193 
3494.109804  	92.186965 
3495.074229  	92.093154 
3496.038653  	91.922713 
3497.003077  	91.877325 
3497.967502  	91.991869 
3498.931926  	92.111002 
3499.896351  	92.105373 
3500.860775  	92.053371 
3501.825200  	91.926200 
3502.789624  	91.735816 
3503.754049  	91.678969 
3504.718473  	91.796858 
3505.682898  	91.891989 
3506.647322  	91.981886 
3507.611746  	92.107043 
3508.576171  	92.014310 
3509.540595  	91.680755 
3510.505020  	91.739636 
3511.469444  	91.965431 
3512.433869  	92.014448 
3513.398293  	91.993855 
3514.362718  	92.069417 
3515.327142  	92.194041 
3516.291567  	92.162669 
3517.255991  	92.094045 
3518.220415  	92.055908 
3519.184840  	92.064200 
3520.149264  	92.081722 
3521.113689  	92.074829 
3522.078113  	91.986222 
3523.042538  	91.732251 
3524.006962  	91.596891 
3524.971387  	91.726918 
3525.935811  	91.742030 
3526.900236  	91.706628 
3527.864660  	91.643809 
3528.829085  	91.623147 
3529.793509  	91.601255 
3530.757933  	91.764865 
3531.722358  	91.882579 
3532.686782  	91.996658 
3533.651207  	92.071842 
3534.615631  	92.112575 
3535.580056  	92.034611 
3536.544480  	91.730310 
3537.508905  	91.760867 
3538.473329  	91.986272 
3539.437754  	92.031520 
3540.402178  	92.089372 
3541.366602  	92.080654 
3542.331027  	92.072665 
3543.295451  	91.976742 
3544.259876  	91.762777 
3545.224300  	91.338490 
3546.188725  	91.184028 
3547.153149  	91.202437 
3548.117574  	91.430991 
3549.081998  	91.844912 
3550.046423  	91.985571 
3551.010847  	91.934221 
3551.975271  	91.709540 
3552.939696  	91.617840 
3553.904120  	91.776515 
3554.868545  	91.930647 
3555.832969  	92.041234 
3556.797394  	92.015885 
3557.761818  	92.066160 
3558.726243  	92.144727 
3559.690667  	91.939028 
3560.655092  	91.707507 
3561.619516  	91.890280 
3562.583940  	91.900463 
3563.548365  	91.852136 
3564.512789  	91.838877 
3565.477214  	91.482740 
3566.441638  	90.413364 
3567.406063  	90.341151 
3568.370487  	90.654757 
3569.334912  	91.366470 
3570.299336  	91.890698 
3571.263761  	91.979300 
3572.228185  	92.133803 
3573.192609  	92.134397 
3574.157034  	92.113049 
3575.121458  	92.095228 
3576.085883  	92.168613 
3577.050307  	92.147047 
3578.014732  	92.141775 
3578.979156  	92.215696 
3579.943581  	92.063481 
3580.908005  	92.016978 
3581.872430  	92.213950 
3582.836854  	92.267629 
3583.801278  	92.149449 
3584.765703  	92.085055 
3585.730127  	91.948818 
3586.694552  	91.228404 
3587.658976  	90.743777 
3588.623401  	90.890693 
3589.587825  	91.402545 
3590.552250  	92.057254 
3591.516674  	92.254560 
3592.481099  	92.238074 
3593.445523  	91.900913 
3594.409948  	91.851095 
3595.374372  	91.706250 
3596.338796  	91.611395 
3597.303221  	91.971570 
3598.267645  	92.033492 
3599.232070  	91.860931 
3600.196494  	91.787630 
3601.160919  	91.647302 
3602.125343  	91.860381 
3603.089768  	92.074876 
3604.054192  	92.214096 
3605.018617  	92.259102 
3605.983041  	92.171069 
3606.947465  	91.636560 
3607.911890  	91.357490 
3608.876314  	91.473409 
3609.840739  	91.315576 
3610.805163  	91.765800 
3611.769588  	91.829557 
3612.734012  	91.288552 
3613.698437  	91.322251 
3614.662861  	91.445888 
3615.627286  	91.407860 
3616.591710  	91.836152 
3617.556134  	91.622609 
3618.520559  	91.204367 
3619.484983  	91.110459 
3620.449408  	91.113711 
3621.413832  	91.535301 
3622.378257  	91.908899 
3623.342681  	92.180660 
3624.307106  	92.278442 
3625.271530  	92.170180 
3626.235955  	91.918793 
3627.200379  	91.752509 
3628.164803  	91.295805 
3629.129228  	89.959929 
3630.093652  	90.186718 
3631.058077  	91.483650 
3632.022501  	92.035595 
3632.986926  	92.100094 
3633.951350  	91.741014 
3634.915775  	91.829121 
3635.880199  	92.139290 
3636.844624  	92.270999 
3637.809048  	92.260609 
3638.773472  	92.220538 
3639.737897  	92.310771 
3640.702321  	92.338168 
3641.666746  	92.208559 
3642.631170  	92.010652 
3643.595595  	92.091788 
3644.560019  	92.219825 
3645.524444  	92.050896 
3646.488868  	91.537434 
3647.453293  	90.662796 
3648.417717  	90.590638 
3649.382142  	90.527780 
3650.346566  	90.189801 
3651.310990  	90.355383 
3652.275415  	91.398442 
3653.239839  	92.109466 
3654.204264  	92.259575 
3655.168688  	92.220738 
3656.133113  	91.811544 
3657.097537  	91.678280 
3658.061962  	92.254539 
3659.026386  	92.433330 
3659.990811  	92.370785 
3660.955235  	92.467698 
3661.919659  	92.589827 
3662.884084  	92.586460 
3663.848508  	92.599086 
3664.812933  	92.609477 
3665.777357  	92.646011 
3666.741782  	92.701025 
3667.706206  	92.653306 
3668.670631  	92.176838 
3669.635055  	91.583992 
3670.599480  	91.282775 
3671.563904  	91.459887 
3672.528328  	92.217686 
3673.492753  	92.412720 
3674.457177  	91.830075 
3675.421602  	90.374384 
3676.386026  	90.644088 
3677.350451  	91.606649 
3678.314875  	92.021587 
3679.279300  	92.025943 
3680.243724  	91.987543 
3681.208149  	92.438232 
3682.172573  	92.731978 
3683.136997  	92.786086 
3684.101422  	92.753903 
3685.065846  	92.645568 
3686.030271  	92.630221 
3686.994695  	92.568162 
3687.959120  	92.159357 
3688.923544  	91.521803 
3689.887969  	91.761123 
3690.852393  	91.580726 
3691.816818  	91.493388 
3692.781242  	92.294219 
3693.745666  	92.616342 
3694.710091  	92.693173 
3695.674515  	92.731872 
3696.638940  	92.637079 
3697.603364  	92.739078 
3698.567789  	92.908830 
3699.532213  	92.879880 
3700.496638  	92.859134 
3701.461062  	92.488859 
3702.425487  	92.117166 
3703.389911  	92.576964 
3704.354335  	92.842503 
3705.318760  	92.858551 
3706.283184  	92.871476 
3707.247609  	92.932595 
3708.212033  	92.916326 
3709.176458  	92.489645 
3710.140882  	92.004394 
3711.105307  	91.932586 
3712.069731  	91.472893 
3713.034156  	91.462090 
3713.998580  	92.265875 
3714.963005  	92.454143 
3715.927429  	92.574372 
3716.891853  	92.828382 
3717.856278  	92.892271 
3718.820702  	92.605827 
3719.785127  	92.464435 
3720.749551  	92.733566 
3721.713976  	92.560721 
3722.678400  	91.855178 
3723.642825  	92.057367 
3724.607249  	92.315331 
3725.571674  	92.049101 
3726.536098  	91.970892 
3727.500522  	92.112900 
3728.464947  	92.579380 
3729.429371  	92.855163 
3730.393796  	92.815077 
3731.358220  	92.550469 
3732.322645  	92.020652 
3733.287069  	92.038694 
3734.251494  	91.893671 
3735.215918  	90.513550 
3736.180343  	90.578489 
3737.144767  	91.353234 
3738.109191  	91.781188 
3739.073616  	91.996552 
3740.038040  	92.315289 
3741.002465  	92.188448 
3741.966889  	92.187430 
3742.931314  	92.426798 
3743.895738  	91.934427 
3744.860163  	90.099742 
3745.824587  	91.205503 
3746.789012  	91.996925 
3747.753436  	92.130701 
3748.717860  	91.966748 
3749.682285  	91.490619 
3750.646709  	91.316865 
3751.611134  	91.332655 
3752.575558  	90.827264 
3753.539983  	91.594625 
3754.504407  	92.193578 
3755.468832  	92.493280 
3756.433256  	92.324491 
3757.397681  	92.256537 
3758.362105  	92.420071 
3759.326529  	92.071514 
3760.290954  	91.713424 
3761.255378  	92.386137 
3762.219803  	92.726459 
3763.184227  	92.782063 
3764.148652  	92.770009 
3765.113076  	92.564649 
3766.077501  	92.064902 
3767.041925  	92.387960 
3768.006350  	92.765500 
3768.970774  	92.671318 
3769.935199  	92.207313 
3770.899623  	92.135095 
3771.864047  	92.524386 
3772.828472  	92.783111 
3773.792896  	92.896745 
3774.757321  	92.961348 
3775.721745  	92.999908 
3776.686170  	92.998981 
3777.650594  	92.967875 
3778.615019  	92.751051 
3779.579443  	92.338678 
3780.543868  	92.382883 
3781.508292  	92.805286 
3782.472716  	92.863679 
3783.437141  	92.901864 
3784.401565  	92.737353 
3785.365990  	92.504086 
3786.330414  	92.654760 
3787.294839  	92.840175 
3788.259263  	92.927562 
3789.223688  	92.935703 
3790.188112  	92.942475 
3791.152537  	92.971966 
3792.116961  	92.956190 
3793.081385  	92.954197 
3794.045810  	92.979154 
3795.010234  	92.933137 
3795.974659  	92.661868 
3796.939083  	92.176568 
3797.903508  	92.314387 
3798.867932  	92.640106 
3799.832357  	92.696543 
3800.796781  	92.213890 
3801.761206  	91.386330 
3802.725630  	91.571432 
3803.690054  	92.173083 
3804.654479  	92.694872 
3805.618903  	92.765387 
3806.583328  	92.399117 
3807.547752  	91.944425 
3808.512177  	92.444692 
3809.476601  	92.784470 
3810.441026  	92.866039 
3811.405450  	92.925658 
3812.369875  	92.931835 
3813.334299  	92.906462 
3814.298723  	92.856432 
3815.263148  	92.552771 
3816.227572  	91.784358 
3817.191997  	91.894646 
3818.156421  	92.461480 
3819.120846  	92.520200 
3820.085270  	92.134880 
3821.049695  	91.228338 
3822.014119  	91.100291 
3822.978544  	92.055743 
3823.942968  	92.467924 
3824.907392  	92.616643 
3825.871817  	92.563479 
3826.836241  	92.196314 
3827.800666  	92.239725 
3828.765090  	92.670134 
3829.729515  	92.855013 
3830.693939  	92.801100 
3831.658364  	92.398954 
3832.622788  	92.311516 
3833.587213  	92.723988 
3834.551637  	92.606763 
3835.516062  	92.175778 
3836.480486  	92.416013 
3837.444910  	92.293585 
3838.409335  	91.578061 
3839.373759  	91.763562 
3840.338184  	91.658680 
3841.302608  	91.707184 
3842.267033  	92.346622 
3843.231457  	92.428405 
3844.195882  	92.099664 
3845.160306  	92.473253 
3846.124731  	92.824266 
3847.089155  	92.925762 
3848.053579  	92.900592 
3849.018004  	92.787700 
3849.982428  	92.542025 
3850.946853  	92.435632 
3851.911277  	92.024428 
3852.875702  	91.190227 
3853.840126  	90.865349 
3854.804551  	90.902073 
3855.768975  	91.966942 
3856.733400  	92.234178 
3857.697824  	92.090559 
3858.662248  	92.553505 
3859.626673  	92.915314 
3860.591097  	92.902208 
3861.555522  	92.604966 
3862.519946  	92.272076 
3863.484371  	92.412143 
3864.448795  	92.108379 
3865.413220  	91.529460 
3866.377644  	92.173595 
3867.342069  	92.715176 
3868.306493  	92.718468 
3869.270917  	92.119002 
3870.235342  	91.151196 
3871.199766  	91.728125 
3872.164191  	92.368300 
3873.128615  	92.557421 
3874.093040  	91.964970 
3875.057464  	91.862438 
3876.021889  	92.681332 
3876.986313  	92.924736 
3877.950738  	92.960574 
3878.915162  	92.942458 
3879.879586  	92.519294 
3880.844011  	91.571622 
3881.808435  	92.036412 
3882.772860  	92.548918 
3883.737284  	92.499462 
3884.701709  	92.487051 
3885.666133  	92.091978 
3886.630558  	91.835938 
3887.594982  	92.538166 
3888.559407  	92.867330 
3889.523831  	92.874524 
3890.488256  	92.597310 
3891.452680  	91.951111 
3892.417104  	91.883513 
3893.381529  	92.452755 
3894.345953  	92.528926 
3895.310378  	92.632242 
3896.274802  	92.867153 
3897.239227  	92.932744 
3898.203651  	92.663787 
3899.168076  	92.137233 
3900.132500  	92.019441 
3901.096925  	92.333040 
3902.061349  	91.743493 
3903.025773  	91.609006 
3903.990198  	91.883620 
3904.954622  	91.751864 
3905.919047  	91.948317 
3906.883471  	92.343458 
3907.847896  	92.809452 
3908.812320  	93.004069 
3909.776745  	93.037109 
3910.741169  	92.986465 
3911.705594  	92.963666 
3912.670018  	92.945496 
3913.634442  	92.966279 
3914.598867  	92.990427 
3915.563291  	92.936314 
3916.527716  	92.553750 
3917.492140  	92.190005 
3918.456565  	92.511637 
3919.420989  	92.677277 
3920.385414  	92.417525 
3921.349838  	92.591787 
3922.314263  	92.875704 
3923.278687  	92.750366 
3924.243111  	92.411137 
3925.207536  	92.205299 
3926.171960  	92.527847 
3927.136385  	92.929518 
3928.100809  	92.982411 
3929.065234  	92.843571 
3930.029658  	92.658799 
3930.994083  	92.567303 
3931.958507  	92.381075 
3932.922932  	92.219699 
3933.887356  	92.583604 
3934.851780  	92.788903 
3935.816205  	92.915778 
3936.780629  	92.993295 
3937.745054  	92.975269 
3938.709478  	92.882820 
3939.673903  	92.949040 
3940.638327  	92.984535 
3941.602752  	92.901779 
3942.567176  	92.550262 
3943.531601  	92.336465 
3944.496025  	92.642275 
3945.460449  	92.844581 
3946.424874  	92.931712 
3947.389298  	92.688134 
3948.353723  	92.558150 
3949.318147  	92.662402 
3950.282572  	92.541876 
3951.246996  	92.697253 
3952.211421  	92.976025 
3953.175845  	92.943801 
3954.140270  	92.946093 
3955.104694  	92.963339 
3956.069119  	92.932697 
3957.033543  	92.851505 
3957.997967  	92.854146 
3958.962392  	92.902491 
3959.926816  	92.931690 
3960.891241  	92.896129 
3961.855665  	92.708005 
3962.820090  	92.700949 
3963.784514  	92.951461 
3964.748939  	93.018724 
3965.713363  	93.018493 
3966.677788  	93.025640 
3967.642212  	92.999406 
3968.606636  	92.928066 
3969.571061  	92.897271 
3970.535485  	92.924860 
3971.499910  	92.947365 
3972.464334  	92.895605 
3973.428759  	92.947072 
3974.393183  	92.968918 
3975.357608  	92.875533 
3976.322032  	92.824043 
3977.286457  	92.918919 
3978.250881  	93.041512 
3979.215305  	93.053088 
3980.179730  	92.994731 
3981.144154  	92.926989 
3982.108579  	92.899759 
3983.073003  	92.920906 
3984.037428  	92.988063 
3985.001852  	93.011889 
3985.966277  	92.997800 
3986.930701  	93.036929 
3987.895126  	93.042814 
3988.859550  	93.019164 
3989.823974  	92.970070 
3990.788399  	92.908809 
3991.752823  	92.940389 
3992.717248  	92.947937 
3993.681672  	92.937610 
3994.646097  	92.901472 
3995.610521  	92.871884 
3996.574946  	92.978863 
3997.539370  	93.055602 
3998.503795  	93.022344 
3999.468219  	92.999695 
4000.432643  	93.033965 
4001.397068  	93.011478 
4002.361492  	92.987020 
4003.325917  	92.999917 
4004.290341  	93.029342 
4005.254766  	93.048229 
4006.219190  	93.056208 
4007.183615  	93.019512 
4008.148039  	92.956959 
4009.112464  	92.901512 
4010.076888  	92.928492 
4011.041313  	92.956956 
4012.005737  	93.010435 
4012.970161  	92.966051 
4013.934586  	92.971969 
4014.899010  	93.018724 
4015.863435  	93.008095 
4016.827859  	93.005883 
4017.792284  	93.036246 
4018.756708  	93.068512 
4019.721133  	93.009700 
4020.685557  	92.943487 
4021.649982  	92.964657 
4022.614406  	93.017663 
4023.578830  	93.034574 
4024.543255  	92.997440 
4025.507679  	92.936116 
4026.472104  	92.932841 
4027.436528  	93.017443 
4028.400953  	93.033769 
4029.365377  	93.041082 
4030.329802  	93.045968 
4031.294226  	93.031970 
4032.258651  	93.034907 
4033.223075  	93.083465 
4034.187499  	93.047485 
4035.151924  	92.997541 
4036.116348  	93.020714 
4037.080773  	93.053954 
4038.045197  	93.059792 
4039.009622  	93.037640 
4039.974046  	93.035985 
4040.938471  	93.091594 
4041.902895  	93.057616 
4042.867320  	93.045175 
4043.831744  	93.004224 
4044.796168  	92.954961 
4045.760593  	92.930266 
4046.725017  	92.973954 
4047.689442  	93.019235 
4048.653866  	93.010856 
4049.618291  	93.015794 
4050.582715  	93.033459 
4051.547140  	93.007554 
4052.511564  	93.017989 
4053.475989  	93.018379 
4054.440413  	93.003082 
4055.404837  	93.015118 
4056.369262  	93.071631 
4057.333686  	93.071242 
4058.298111  	93.038665 
4059.262535  	93.053696 
4060.226960  	93.060282 
4061.191384  	93.030620 
4062.155809  	92.998565 
4063.120233  	93.034152 
4064.084658  	93.042515 
4065.049082  	93.027665 
4066.013506  	93.033880 
4066.977931  	93.030576 
4067.942355  	92.984543 
4068.906780  	92.974305 
4069.871204  	93.021259 
4070.835629  	93.036544 
4071.800053  	93.017222 
4072.764478  	92.948609 
4073.728902  	92.938551 
4074.693327  	92.976420 
4075.657751  	92.978513 
4076.622176  	92.953303 
4077.586600  	92.978663 
4078.551024  	93.001826 
4079.515449  	92.986271 
4080.479873  	92.991662 
4081.444298  	92.989070 
4082.408722  	92.929698 
4083.373147  	92.842066 
4084.337571  	92.831348 
4085.301996  	92.906688 
4086.266420  	92.922747 
4087.230845  	92.942048 
4088.195269  	92.951818 
4089.159693  	92.927421 
4090.124118  	92.917409 
4091.088542  	92.916797 
4092.052967  	92.932901 
4093.017391  	92.950741 
4093.981816  	92.930362 
4094.946240  	92.885953 
4095.910665  	92.940400 
4096.875089  	93.046168 
4097.839514  	92.996116 
4098.803938  	92.897638 
4099.768362  	92.919794 
4100.732787  	92.978382 
4101.697211  	92.984100 
4102.661636  	92.998170 
4103.626060  	93.011536 
4104.590485  	93.001063 
4105.554909  	92.949460 
4106.519334  	92.949256 
4107.483758  	92.942047 
4108.448183  	92.960103 
4109.412607  	92.998734 
4110.377031  	92.977520 
4111.341456  	92.980097 
4112.305880  	93.009364 
4113.270305  	92.997062 
4114.234729  	93.024877 
4115.199154  	93.055230 
4116.163578  	93.017537 
4117.128003  	93.016708 
4118.092427  	93.040201 
4119.056852  	93.008011 
4120.021276  	92.950787 
4120.985700  	92.961397 
4121.950125  	92.994203 
4122.914549  	92.972202 
4123.878974  	93.000753 
4124.843398  	93.047363 
4125.807823  	93.060101 
4126.772247  	93.000384 
4127.736672  	93.005629 
4128.701096  	93.049856 
4129.665521  	93.049794 
4130.629945  	93.016827 
4131.594370  	93.021639 
4132.558794  	93.069457 
4133.523218  	93.068596 
4134.487643  	93.057656 
4135.452067  	93.058511 
4136.416492  	93.073952 
4137.380916  	93.065707 
4138.345341  	93.066660 
4139.309765  	93.034509 
4140.274190  	93.001092 
4141.238614  	93.006913 
4142.203039  	93.039105 
4143.167463  	93.124623 
4144.131887  	93.109441 
4145.096312  	93.070850 
4146.060736  	93.063347 
4147.025161  	93.071575 
4147.989585  	93.027718 
4148.954010  	92.974401 
4149.918434  	93.023573 
4150.882859  	93.088430 
4151.847283  	93.093492 
4152.811708  	93.056558 
4153.776132  	93.035294 
4154.740556  	93.074715 
4155.704981  	93.097762 
4156.669405  	93.092674 
4157.633830  	93.070817 
4158.598254  	93.068719 
4159.562679  	93.063615 
4160.527103  	92.947228 
4161.491528  	92.921156 
4162.455952  	93.023866 
4163.420377  	93.080413 
4164.384801  	93.055277 
4165.349225  	93.006931 
4166.313650  	92.987303 
4167.278074  	93.006418 
4168.242499  	93.043965 
4169.206923  	93.068887 
4170.171348  	93.075491 
4171.135772  	93.055741 
4172.100197  	93.075759 
4173.064621  	93.083510 
4174.029046  	93.096960 
4174.993470  	93.099530 
4175.957894  	93.102752 
4176.922319  	93.095835 
4177.886743  	93.052205 
4178.851168  	92.994418 
4179.815592  	92.961575 
4180.780017  	92.974103 
4181.744441  	93.063478 
4182.708866  	93.077722 
4183.673290  	93.061552 
4184.637715  	93.086954 
4185.602139  	93.090104 
4186.566563  	93.065283 
4187.530988  	93.085810 
4188.495412  	93.101487 
4189.459837  	93.142086 
4190.424261  	93.133261 
4191.388686  	93.126930 
4192.353110  	93.141570 
4193.317535  	93.100632 
4194.281959  	93.070265 
4195.246384  	93.102743 
4196.210808  	93.088163 
4197.175233  	93.063949 
4198.139657  	93.086395 
4199.104081  	93.111202 
4200.068506  	93.121223 
4201.032930  	93.096907 
4201.997355  	93.090699 
4202.961779  	93.125180 
4203.926204  	93.072212 
4204.890628  	93.029251 
4205.855053  	93.066697 
4206.819477  	93.082580 
4207.783902  	93.101460 
4208.748326  	93.112100 
4209.712750  	93.139008 
4210.677175  	93.158077 
4211.641599  	93.116075 
4212.606024  	93.096802 
4213.570448  	93.136466 
4214.534873  	93.152565 
4215.499297  	93.121295 
4216.463722  	93.101069 
4217.428146  	93.026464 
4218.392571  	93.023553 
4219.356995  	93.082571 
4220.321419  	93.116429 
4221.285844  	93.141324 
4222.250268  	93.132408 
4223.214693  	93.027682 
4224.179117  	93.005440 
4225.143542  	93.092510 
4226.107966  	93.135514 
4227.072391  	93.158526 
4228.036815  	93.098853 
4229.001240  	93.037890 
4229.965664  	93.019432 
4230.930088  	93.035018 
4231.894513  	93.110088 
4232.858937  	93.103398 
4233.823362  	93.078626 
4234.787786  	93.110320 
4235.752211  	93.138095 
4236.716635  	93.162476 
4237.681060  	93.164939 
4238.645484  	93.142095 
4239.609909  	93.112893 
4240.574333  	93.088287 
4241.538757  	93.079423 
4242.503182  	93.116344 
4243.467606  	93.132393 
4244.432031  	93.067381 
4245.396455  	93.058764 
4246.360880  	93.092927 
4247.325304  	93.079403 
4248.289729  	93.100216 
4249.254153  	93.158964 
4250.218578  	93.177847 
4251.183002  	93.197110 
4252.147427  	93.166342 
4253.111851  	93.088655 
4254.076275  	93.013523 
4255.040700  	93.032758 
4256.005124  	93.062561 
4256.969549  	93.137996 
4257.933973  	93.163193 
4258.898398  	93.098925 
4259.862822  	93.043312 
4260.827247  	93.051215 
4261.791671  	93.060965 
4262.756096  	93.109749 
4263.720520  	93.063221 
4264.684944  	93.003648 
4265.649369  	93.017537 
4266.613793  	93.096609 
4267.578218  	93.092812 
4268.542642  	93.093534 
4269.507067  	93.098873 
4270.471491  	93.043898 
4271.435916  	93.040829 
4272.400340  	93.044583 
4273.364765  	93.047235 
4274.329189  	93.063666 
4275.293613  	93.095314 
4276.258038  	93.117575 
4277.222462  	93.104618 
4278.186887  	93.066122 
4279.151311  	92.972173 
4280.115736  	92.958055 
4281.080160  	93.068724 
4282.044585  	93.112176 
4283.009009  	93.063396 
4283.973434  	93.051321 
4284.937858  	93.045490 
4285.902282  	92.979934 
4286.866707  	92.940435 
4287.831131  	92.988102 
4288.795556  	93.068543 
4289.759980  	93.094777 
4290.724405  	93.030264 
4291.688829  	93.055124 
4292.653254  	93.062783 
4293.617678  	93.090699 
4294.582103  	93.128684 
4295.546527  	93.114423 
4296.510951  	93.076240 
4297.475376  	93.075397 
4298.439800  	93.094887 
4299.404225  	93.120115 
4300.368649  	93.122854 
4301.333074  	93.013916 
4302.297498  	92.920227 
4303.261923  	92.954375 
4304.226347  	93.089245 
4305.190772  	93.177719 
4306.155196  	93.116328 
4307.119620  	93.080066 
4308.084045  	93.078038 
4309.048469  	93.127436 
4310.012894  	93.128181 
4310.977318  	93.077170 
4311.941743  	93.057701 
4312.906167  	93.099726 
4313.870592  	93.083059 
4314.835016  	93.112108 
4315.799441  	93.159110 
4316.763865  	93.151724 
4317.728290  	93.172494 
4318.692714  	93.189460 
4319.657138  	93.124752 
4320.621563  	93.111184 
4321.585987  	93.133072 
4322.550412  	93.147514 
4323.514836  	93.106023 
4324.479261  	93.095201 
4325.443685  	93.116324 
4326.408110  	93.194029 
4327.372534  	93.243869 
4328.336959  	93.212946 
4329.301383  	93.102683 
4330.265807  	93.076436 
4331.230232  	93.124797 
4332.194656  	93.086084 
4333.159081  	93.152683 
4334.123505  	93.215281 
4335.087930  	93.191663 
4336.052354  	93.163498 
4337.016779  	93.097539 
4337.981203  	93.131005 
4338.945628  	93.150619 
4339.910052  	93.097354 
4340.874476  	93.073701 
4341.838901  	93.132885 
4342.803325  	93.117717 
4343.767750  	93.079717 
4344.732174  	93.131826 
4345.696599  	93.145302 
4346.661023  	93.114884 
4347.625448  	93.085428 
4348.589872  	93.102792 
4349.554297  	93.153924 
4350.518721  	93.182843 
4351.483145  	93.194686 
4352.447570  	93.182363 
4353.411994  	93.215283 
4354.376419  	93.195168 
4355.340843  	93.153218 
4356.305268  	93.185261 
4357.269692  	93.272876 
4358.234117  	93.303477 
4359.198541  	93.219851 
4360.162966  	93.121492 
4361.127390  	93.101621 
4362.091814  	93.137657 
4363.056239  	93.170905 
4364.020663  	93.192427 
4364.985088  	93.160187 
4365.949512  	93.108473 
4366.913937  	93.102278 
4367.878361  	93.099601 
4368.842786  	93.146825 
4369.807210  	93.218283 
4370.771635  	93.209917 
4371.736059  	93.147394 
4372.700484  	93.136828 
4373.664908  	93.234618 
4374.629332  	93.236217 
4375.593757  	93.192432 
4376.558181  	93.189348 
4377.522606  	93.157794 
4378.487030  	93.131434 
4379.451455  	93.140747 
4380.415879  	93.155346 
4381.380304  	93.114935 
4382.344728  	93.148500 
4383.309153  	93.218896 
4384.273577  	93.195731 
4385.238001  	93.171199 
4386.202426  	93.184763 
4387.166850  	93.168753 
4388.131275  	93.136018 
4389.095699  	93.035332 
4390.060124  	93.010640 
4391.024548  	93.104009 
4391.988973  	93.193455 
4392.953397  	93.238017 
4393.917822  	93.192459 
4394.882246  	93.148868 
4395.846670  	93.125338 
4396.811095  	93.059375 
4397.775519  	93.134640 
4398.739944  	93.202333 
4399.704368  	93.171111 
4400.668793  	93.214033 
4401.633217  	93.162131 
4402.597642  	93.079664 
4403.562066  	93.157778 
4404.526491  	93.190684 
4405.490915  	93.157725 
4406.455339  	93.094406 
4407.419764  	93.073970 
4408.384188  	93.165023 
4409.348613  	93.221813 
4410.313037  	93.182830 
4411.277462  	93.109221 
4412.241886  	93.108958 
4413.206311  	93.165786 
4414.170735  	93.193999 
4415.135160  	93.160741 
4416.099584  	93.106126 
4417.064008  	93.090190 
4418.028433  	93.076001 
4418.992857  	93.097630 
4419.957282  	93.122508 
4420.921706  	93.065896 
4421.886131  	93.032304 
4422.850555  	93.062362 
4423.814980  	93.069147 
4424.779404  	93.102204 
4425.743829  	93.084080 
4426.708253  	93.093695 
4427.672677  	93.090642 
4428.637102  	93.097303 
4429.601526  	93.141629 
4430.565951  	93.153427 
4431.530375  	93.089068 
4432.494800  	93.067580 
4433.459224  	93.071462 
4434.423649  	93.097947 
4435.388073  	93.124469 
4436.352498  	93.180384 
4437.316922  	93.204332 
4438.281347  	93.162880 
4439.245771  	93.108243 
4440.210195  	93.094406 
4441.174620  	93.110270 
4442.139044  	93.136365 
4443.103469  	93.178358 
4444.067893  	93.169270 
4445.032318  	93.160691 
4445.996742  	93.174302 
4446.961167  	93.160815 
4447.925591  	93.086565 
4448.890016  	93.045582 
4449.854440  	93.027851 
4450.818864  	93.067498 
4451.783289  	93.107944 
4452.747713  	93.121226 
4453.712138  	93.120462 
4454.676562  	93.070598 
4455.640987  	93.040998 
4456.605411  	93.085699 
4457.569836  	93.155063 
4458.534260  	93.113621 
4459.498685  	93.046072 
4460.463109  	93.047746 
4461.427533  	93.111012 
4462.391958  	93.092915 
4463.356382  	93.076633 
4464.320807  	93.043146 
4465.285231  	93.115459 
4466.249656  	93.201593 
4467.214080  	93.188445 
4468.178505  	93.145017 
4469.142929  	93.145145 
4470.107354  	93.189234 
4471.071778  	93.140967 
4472.036202  	93.189711 
4473.000627  	93.281134 
4473.965051  	93.194671 
4474.929476  	93.156125 
4475.893900  	93.178361 
4476.858325  	93.132911 
4477.822749  	93.133036 
4478.787174  	93.181355 
4479.751598  	93.251330 
4480.716023  	93.283489 
4481.680447  	93.239979 
4482.644871  	93.213779 
4483.609296  	93.204326 
4484.573720  	93.222418 
4485.538145  	93.240777 
4486.502569  	93.183968 
4487.466994  	93.128355 
4488.431418  	93.190682 
4489.395843  	93.191790 
4490.360267  	93.189389 
4491.324692  	93.233150 
4492.289116  	93.229662 
4493.253541  	93.229429 
4494.217965  	93.241052 
4495.182389  	93.232468 
4496.146814  	93.263918 
4497.111238  	93.294792 
4498.075663  	93.320842 
4499.040087  	93.314643 
4500.004512  	93.286270 
4500.968936  	93.236271 
4501.933361  	93.226618 
4502.897785  	93.240357 
4503.862210  	93.253282 
4504.826634  	93.287416 
4505.791058  	93.278630 
4506.755483  	93.220282 
4507.719907  	93.168439 
4508.684332  	93.160310 
4509.648756  	93.193287 
4510.613181  	93.231890 
4511.577605  	93.321516 
4512.542030  	93.304210 
4513.506454  	93.242191 
4514.470879  	93.209256 
4515.435303  	93.208781 
4516.399727  	93.229767 
4517.364152  	93.153081 
4518.328576  	93.163883 
4519.293001  	93.311401 
4520.257425  	93.319063 
4521.221850  	93.233450 
4522.186274  	93.240080 
4523.150699  	93.231610 
4524.115123  	93.225328 
4525.079548  	93.287959 
4526.043972  	93.276435 
4527.008396  	93.249224 
4527.972821  	93.237492 
4528.937245  	93.254480 
4529.901670  	93.207206 
4530.866094  	93.197070 
4531.830519  	93.268009 
4532.794943  	93.225028 
4533.759368  	93.192865 
4534.723792  	93.224042 
4535.688217  	93.244671 
4536.652641  	93.260483 
4537.617065  	93.278760 
4538.581490  	93.316582 
4539.545914  	93.264151 
4540.510339  	93.252708 
4541.474763  	93.222580 
4542.439188  	93.263215 
4543.403612  	93.259624 
4544.368037  	93.183266 
4545.332461  	93.234905 
4546.296886  	93.328954 
4547.261310  	93.271469 
4548.225734  	93.222332 
4549.190159  	93.257027 
4550.154583  	93.265481 
4551.119008  	93.196615 
4552.083432  	93.250016 
4553.047857  	93.283827 
4554.012281  	93.295240 
4554.976706  	93.304581 
4555.941130  	93.311857 
4556.905555  	93.274270 
4557.869979  	93.269886 
4558.834404  	93.349178 
4559.798828  	93.316857 
4560.763252  	93.163128 
4561.727677  	93.107989 
4562.692101  	93.184817 
4563.656526  	93.258358 
4564.620950  	93.258023 
4565.585375  	93.236607 
4566.549799  	93.266876 
4567.514224  	93.297459 
4568.478648  	93.244107 
4569.443073  	93.209695 
4570.407497  	93.217608 
4571.371921  	93.250723 
4572.336346  	93.262941 
4573.300770  	93.288922 
4574.265195  	93.277052 
4575.229619  	93.200501 
4576.194044  	93.185540 
4577.158468  	93.258356 
4578.122893  	93.323124 
4579.087317  	93.280682 
4580.051742  	93.241061 
4581.016166  	93.344051 
4581.980590  	93.369617 
4582.945015  	93.338283 
4583.909439  	93.278356 
4584.873864  	93.229607 
4585.838288  	93.222543 
4586.802713  	93.246935 
4587.767137  	93.186754 
4588.731562  	93.137037 
4589.695986  	93.130135 
4590.660411  	93.172545 
4591.624835  	93.183238 
4592.589259  	93.213265 
4593.553684  	93.224322 
4594.518108  	93.201665 
4595.482533  	93.202434 
4596.446957  	93.217946 
4597.411382  	93.198068 
4598.375806  	93.220938 
4599.340231  	93.303218 
4600.304655  	93.238587 
4601.269080  	93.207767 
4602.233504  	93.232077 
4603.197928  	93.243034 
4604.162353  	93.209021 
4605.126777  	93.216110 
4606.091202  	93.285570 
4607.055626  	93.310126 
4608.020051  	93.300614 
4608.984475  	93.331264 
4609.948900  	93.365986 
4610.913324  	93.309307 
4611.877749  	93.252927 
4612.842173  	93.246028 
4613.806598  	93.305508 
4614.771022  	93.305505 
4615.735446  	93.282961 
4616.699871  	93.255597 
4617.664295  	93.233186 
4618.628720  	93.175717 
4619.593144  	93.160429 
4620.557569  	93.294363 
4621.521993  	93.322848 
4622.486418  	93.231612 
4623.450842  	93.246330 
4624.415267  	93.256948 
4625.379691  	93.342082 
4626.344115  	93.377170 
4627.308540  	93.300677 
4628.272964  	93.229536 
4629.237389  	93.261520 
4630.201813  	93.272393 
4631.166238  	93.292792 
4632.130662  	93.271359 
4633.095087  	93.210856 
4634.059511  	93.189724 
4635.023936  	93.273000 
4635.988360  	93.333034 
4636.952784  	93.240351 
4637.917209  	93.173246 
4638.881633  	93.152738 
4639.846058  	93.191736 
4640.810482  	93.237848 
4641.774907  	93.264561 
4642.739331  	93.203942 
4643.703756  	93.164877 
4644.668180  	93.205563 
4645.632605  	93.125931 
4646.597029  	93.169257 
4647.561453  	93.251451 
4648.525878  	93.306715 
4649.490302  	93.297208 
4650.454727  	93.245767 
4651.419151  	93.193591 
4652.383576  	93.184727 
4653.348000  	93.220321 
4654.312425  	93.247667 
4655.276849  	93.287814 
4656.241274  	93.283789 
4657.205698  	93.275820 
4658.170122  	93.298372 
4659.134547  	93.278746 
4660.098971  	93.208549 
4661.063396  	93.272352 
4662.027820  	93.357803 
4662.992245  	93.322208 
4663.956669  	93.280223 
4664.921094  	93.263366 
4665.885518  	93.255516 
4666.849943  	93.251408 
4667.814367  	93.275673 
4668.778791  	93.305290 
4669.743216  	93.293298 
4670.707640  	93.276638 
4671.672065  	93.266002 
4672.636489  	93.201777 
4673.600914  	93.146431 
4674.565338  	93.207636 
4675.529763  	93.273937 
4676.494187  	93.331738 
4677.458612  	93.318653 
4678.423036  	93.329631 
4679.387461  	93.384252 
4680.351885  	93.342023 
4681.316309  	93.308552 
4682.280734  	93.297993 
4683.245158  	93.205552 
4684.209583  	93.106211 
4685.174007  	93.181990 
4686.138432  	93.274049 
4687.102856  	93.270677 
4688.067281  	93.280475 
4689.031705  	93.216039 
4689.996130  	93.189974 
4690.960554  	93.294787 
4691.924978  	93.322012 
4692.889403  	93.229180 
4693.853827  	93.188211 
4694.818252  	93.218989 
4695.782676  	93.247480 
4696.747101  	93.162952 
4697.711525  	93.145980 
4698.675950  	93.186443 
4699.640374  	93.184536 