##TITLE=No Description
##DATA TYPE=INFRARED SPECTRUM
##XUNITS=1/CM
##YUNITS=%T
400.236149  	125.517450 
401.200574  	96.230088 
402.164998  	90.304221 
403.129423  	99.005218 
404.093847  	98.385798 
405.058272  	91.076442 
406.022696  	87.911678 
406.987120  	96.483300 
407.951545  	102.060281 
408.915969  	87.045076 
409.880394  	87.080927 
410.844818  	93.449115 
411.809243  	95.988331 
412.773667  	98.179239 
413.738092  	91.711964 
414.702516  	83.220651 
415.666941  	83.838417 
416.631365  	85.262750 
417.595789  	81.897867 
418.560214  	82.636773 
419.524638  	86.717829 
420.489063  	88.905150 
421.453487  	84.021375 
422.417912  	84.065063 
423.382336  	85.313945 
424.346761  	82.850680 
425.311185  	80.000813 
426.275610  	82.365309 
427.240034  	84.495928 
428.204458  	84.928302 
429.168883  	84.581637 
430.133307  	83.576253 
431.097732  	81.500800 
432.062156  	78.449178 
433.026581  	77.827843 
433.991005  	80.269868 
434.955430  	79.475396 
435.919854  	76.948710 
436.884279  	77.515456 
437.848703  	80.149431 
438.813127  	80.989192 
439.777552  	80.128236 
440.741976  	79.088933 
441.706401  	80.063553 
442.670825  	82.318281 
443.635250  	82.157615 
444.599674  	81.129307 
445.564099  	81.028087 
446.528523  	83.017751 
447.492948  	84.887034 
448.457372  	85.358537 
449.421796  	84.688632 
450.386221  	85.137666 
451.350645  	85.236718 
452.315070  	83.445836 
453.279494  	82.710223 
454.243919  	83.736818 
455.208343  	83.801292 
456.172768  	82.943608 
457.137192  	81.798841 
458.101617  	81.519624 
459.066041  	82.836804 
460.030466  	83.364112 
460.994890  	83.110428 
461.959314  	83.920154 
462.923739  	84.207917 
463.888163  	83.537883 
464.852588  	83.124892 
465.817012  	83.560720 
466.781437  	83.673024 
467.745861  	82.915754 
468.710286  	82.874966 
469.674710  	82.387493 
470.639135  	82.595527 
471.603559  	82.764336 
472.567983  	82.662868 
473.532408  	83.123814 
474.496832  	82.565986 
475.461257  	82.299380 
476.425681  	82.599725 
477.390106  	83.811999 
478.354530  	84.678064 
479.318955  	83.588610 
480.283379  	82.646649 
481.247804  	82.910075 
482.212228  	83.106614 
483.176652  	83.623817 
484.141077  	83.366175 
485.105501  	82.156091 
486.069926  	81.666886 
487.034350  	82.517065 
487.998775  	82.894380 
488.963199  	83.309825 
489.927624  	83.790674 
490.892048  	83.008967 
491.856473  	81.830746 
492.820897  	81.947428 
493.785321  	82.125191 
494.749746  	81.539456 
495.714170  	81.150148 
496.678595  	80.835456 
497.643019  	80.593000 
498.607444  	80.390382 
499.571868  	79.811734 
500.536293  	79.723227 
501.500717  	79.165877 
502.465142  	78.376744 
503.429566  	78.944365 
504.393990  	79.076710 
505.358415  	78.547882 
506.322839  	78.019350 
507.287264  	78.418689 
508.251688  	79.784258 
509.216113  	81.057848 
510.180537  	81.631228 
511.144962  	82.195141 
512.109386  	82.732861 
513.073811  	82.874819 
514.038235  	82.847631 
515.002660  	82.693336 
515.967084  	82.554629 
516.931508  	82.060726 
517.895933  	82.581820 
518.860357  	83.067977 
519.824782  	83.297881 
520.789206  	83.785657 
521.753631  	83.969772 
522.718055  	83.486052 
523.682480  	83.232149 
524.646904  	83.489738 
525.611329  	82.966355 
526.575753  	83.099533 
527.540177  	84.001956 
528.504602  	84.300198 
529.469026  	84.264063 
530.433451  	84.255031 
531.397875  	84.270685 
532.362300  	84.646922 
533.326724  	85.157218 
534.291149  	84.922408 
535.255573  	84.566804 
536.219998  	84.627147 
537.184422  	85.564561 
538.148846  	85.526411 
539.113271  	85.266454 
540.077695  	85.235324 
541.042120  	85.487802 
542.006544  	85.551581 
542.970969  	86.043606 
543.935393  	86.208814 
544.899818  	85.915362 
545.864242  	85.586189 
546.828667  	85.588499 
547.793091  	85.440377 
548.757515  	85.612833 
549.721940  	85.888058 
550.686364  	85.866257 
551.650789  	85.974588 
552.615213  	85.903792 
553.579638  	86.190653 
554.544062  	86.142617 
555.508487  	86.215567 
556.472911  	86.113495 
557.437336  	85.805591 
558.401760  	85.967389 
559.366184  	86.290222 
560.330609  	86.052565 
561.295033  	86.098354 
562.259458  	86.390677 
563.223882  	86.357197 
564.188307  	86.207539 
565.152731  	86.407924 
566.117156  	86.372354 
567.081580  	85.807430 
568.046005  	85.970161 
569.010429  	86.162934 
569.974853  	86.109900 
570.939278  	86.135535 
571.903702  	86.162610 
572.868127  	86.082312 
573.832551  	85.875195 
574.796976  	85.977374 
575.761400  	85.590666 
576.725825  	85.707640 
577.690249  	86.020854 
578.654674  	86.079872 
579.619098  	86.052561 
580.583523  	85.982714 
581.547947  	86.412034 
582.512371  	86.628188 
583.476796  	86.322172 
584.441220  	86.109166 
585.405645  	86.213788 
586.370069  	86.591634 
587.334494  	86.711504 
588.298918  	86.468065 
589.263343  	86.243611 
590.227767  	86.414950 
591.192192  	86.133590 
592.156616  	85.868641 
593.121040  	86.184891 
594.085465  	86.387316 
595.049889  	86.367728 
596.014314  	86.333851 
596.978738  	86.377093 
597.943163  	86.423427 
598.907587  	86.395303 
599.872012  	86.188519 
600.836436  	86.285143 
601.800861  	86.241616 
602.765285  	86.177301 
603.729709  	86.171502 
604.694134  	86.194882 
605.658558  	86.276636 
606.622983  	86.272639 
607.587407  	85.961466 
608.551832  	86.019728 
609.516256  	86.215517 
610.480681  	86.052420 
611.445105  	85.918894 
612.409530  	86.072401 
613.373954  	86.264347 
614.338378  	86.029446 
615.302803  	85.802304 
616.267227  	85.783518 
617.231652  	86.095177 
618.196076  	86.049800 
619.160501  	85.850431 
620.124925  	85.682911 
621.089350  	85.876846 
622.053774  	85.847556 
623.018199  	85.893916 
623.982623  	85.740690 
624.947047  	85.629668 
625.911472  	85.428764 
626.875896  	85.401447 
627.840321  	85.200233 
628.804745  	85.117640 
629.769170  	84.700248 
630.733594  	84.112761 
631.698019  	83.887282 
632.662443  	84.101194 
633.626868  	84.439745 
634.591292  	84.820387 
635.555717  	84.893870 
636.520141  	85.269304 
637.484565  	85.390328 
638.448990  	85.382106 
639.413414  	85.271424 
640.377839  	85.346160 
641.342263  	85.405990 
642.306688  	85.149883 
643.271112  	85.105411 
644.235537  	85.154499 
645.199961  	85.037210 
646.164386  	85.085929 
647.128810  	85.049646 
648.093234  	84.907628 
649.057659  	84.804443 
650.022083  	84.786291 
650.986508  	84.677259 
651.950932  	84.518103 
652.915357  	84.401477 
653.879781  	84.379203 
654.844206  	84.366956 
655.808630  	84.261682 
656.773055  	84.089184 
657.737479  	84.121837 
658.701903  	83.926307 
659.666328  	83.582395 
660.630752  	83.436760 
661.595177  	83.497147 
662.559601  	83.379035 
663.524026  	83.273626 
664.488450  	83.416080 
665.452875  	83.270105 
666.417299  	83.133195 
667.381724  	83.375436 
668.346148  	83.059297 
669.310572  	82.372216 
670.274997  	82.294408 
671.239421  	82.290479 
672.203846  	82.132251 
673.168270  	81.866919 
674.132695  	81.481078 
675.097119  	81.192700 
676.061544  	80.815723 
677.025968  	80.377970 
677.990393  	80.103335 
678.954817  	79.908555 
679.919241  	79.748647 
680.883666  	79.719521 
681.848090  	79.661233 
682.812515  	79.679266 
683.776939  	79.515094 
684.741364  	79.232909 
685.705788  	78.924307 
686.670213  	78.798002 
687.634637  	78.444635 
688.599062  	78.034168 
689.563486  	77.664304 
690.527910  	77.250028 
691.492335  	76.745772 
692.456759  	76.271240 
693.421184  	75.607062 
694.385608  	74.895540 
695.350033  	74.107626 
696.314457  	73.179522 
697.278882  	72.103854 
698.243306  	71.044749 
699.207731  	69.953955 
700.172155  	68.890753 
701.136580  	67.669159 
702.101004  	66.635236 
703.065428  	65.820004 
704.029853  	64.991156 
704.994277  	64.021140 
705.958702  	63.004830 
706.923126  	61.915296 
707.887551  	60.737571 
708.851975  	59.515854 
709.816400  	58.145984 
710.780824  	56.658187 
711.745249  	55.169333 
712.709673  	53.564718 
713.674097  	51.826937 
714.638522  	50.002264 
715.602946  	48.160785 
716.567371  	46.224779 
717.531795  	44.359337 
718.496220  	42.633254 
719.460644  	41.368608 
720.425069  	40.717405 
721.389493  	40.536610 
722.353918  	40.716137 
723.318342  	41.561429 
724.282766  	43.131847 
725.247191  	45.422359 
726.211615  	48.041059 
727.176040  	50.830540 
728.140464  	53.551112 
729.104889  	56.212428 
730.069313  	58.852577 
731.033738  	61.690800 
731.998162  	64.530479 
732.962587  	67.353358 
733.927011  	70.123204 
734.891435  	72.915512 
735.855860  	75.671115 
736.820284  	78.304794 
737.784709  	80.672046 
738.749133  	82.860322 
739.713558  	84.767732 
740.677982  	86.375669 
741.642407  	87.608744 
742.606831  	88.632634 
743.571256  	89.443986 
744.535680  	89.980546 
745.500104  	90.514020 
746.464529  	90.904461 
747.428953  	91.059993 
748.393378  	91.149987 
749.357802  	91.221354 
750.322227  	91.362427 
751.286651  	91.394185 
752.251076  	91.354836 
753.215500  	91.357399 
754.179925  	91.393074 
755.144349  	91.374638 
756.108774  	91.351567 
757.073198  	91.341674 
758.037622  	91.311736 
759.002047  	91.178819 
759.966471  	91.135961 
760.930896  	91.066365 
761.895320  	91.002563 
762.859745  	91.041984 
763.824169  	91.073241 
764.788594  	90.913001 
765.753018  	90.751590 
766.717443  	90.659787 
767.681867  	90.462092 
768.646291  	90.252646 
769.610716  	90.252232 
770.575140  	90.218133 
771.539565  	90.066137 
772.503989  	89.787386 
773.468414  	89.623273 
774.432838  	89.525403 
775.397263  	89.364929 
776.361687  	89.332509 
777.326112  	89.326452 
778.290536  	89.102813 
779.254960  	88.964270 
780.219385  	88.805668 
781.183809  	88.886396 
782.148234  	88.566679 
783.112658  	88.296251 
784.077083  	87.980817 
785.041507  	87.632582 
786.005932  	87.196371 
786.970356  	86.655380 
787.934781  	86.292350 
788.899205  	85.975359 
789.863629  	85.547009 
790.828054  	85.157165 
791.792478  	84.786049 
792.756903  	84.555669 
793.721327  	84.625080 
794.685752  	84.969394 
795.650176  	85.688170 
796.614601  	86.492205 
797.579025  	87.054369 
798.543450  	87.212915 
799.507874  	87.378614 
800.472298  	87.629689 
801.436723  	87.730779 
802.401147  	87.696009 
803.365572  	87.597214 
804.329996  	87.596714 
805.294421  	87.666421 
806.258845  	87.660058 
807.223270  	87.598287 
808.187694  	87.573388 
809.152119  	87.597069 
810.116543  	87.597405 
811.080967  	87.599051 
812.045392  	87.571594 
813.009816  	87.580503 
813.974241  	87.597757 
814.938665  	87.636665 
815.903090  	87.678115 
816.867514  	87.649681 
817.831939  	87.561352 
818.796363  	87.524970 
819.760788  	87.512361 
820.725212  	87.445678 
821.689637  	87.255346 
822.654061  	87.143211 
823.618485  	87.048945 
824.582910  	86.913640 
825.547334  	86.670716 
826.511759  	86.405041 
827.476183  	86.252502 
828.440608  	86.109853 
829.405032  	85.878660 
830.369457  	85.672287 
831.333881  	85.453398 
832.298306  	85.199152 
833.262730  	84.919092 
834.227154  	84.595438 
835.191579  	84.216275 
836.156003  	83.845682 
837.120428  	83.472260 
838.084852  	82.990891 
839.049277  	82.601941 
840.013701  	82.224097 
840.978126  	81.737073 
841.942550  	81.254121 
842.906975  	80.719597 
843.871399  	80.153844 
844.835823  	79.582166 
845.800248  	79.182124 
846.764672  	78.996831 
847.729097  	79.051414 
848.693521  	79.193227 
849.657946  	79.567454 
850.622370  	80.010934 
851.586795  	80.413281 
852.551219  	80.729756 
853.515644  	81.021830 
854.480068  	81.282212 
855.444492  	81.437953 
856.408917  	81.562382 
857.373341  	81.786742 
858.337766  	82.009513 
859.302190  	82.139178 
860.266615  	82.178862 
861.231039  	82.149753 
862.195464  	82.030937 
863.159888  	81.767814 
864.124313  	81.418147 
865.088737  	80.837701 
866.053161  	79.992340 
867.017586  	78.755602 
867.982010  	77.124607 
868.946435  	74.937022 
869.910859  	72.183852 
870.875284  	69.382118 
871.839708  	67.779133 
872.804133  	68.533103 
873.768557  	71.203526 
874.732982  	74.150735 
875.697406  	76.472608 
876.661831  	78.159544 
877.626255  	79.492225 
878.590679  	80.714802 
879.555104  	81.829369 
880.519528  	82.794557 
881.483953  	83.594556 
882.448377  	84.356368 
883.412802  	85.094800 
884.377226  	85.711793 
885.341651  	86.182481 
886.306075  	86.498854 
887.270500  	86.769307 
888.234924  	87.055660 
889.199348  	87.149971 
890.163773  	87.147606 
891.128197  	87.218113 
892.092622  	87.253668 
893.057046  	87.148923 
894.021471  	87.059912 
894.985895  	87.062828 
895.950320  	86.986317 
896.914744  	86.898884 
897.879169  	86.914974 
898.843593  	86.961466 
899.808017  	87.015587 
900.772442  	87.095608 
901.736866  	87.127386 
902.701291  	87.281017 
903.665715  	87.504364 
904.630140  	87.641640 
905.594564  	87.774548 
906.558989  	87.972029 
907.523413  	88.191935 
908.487838  	88.324814 
909.452262  	88.470485 
910.416686  	88.688955 
911.381111  	88.860983 
912.345535  	88.909620 
913.309960  	88.967296 
914.274384  	89.061329 
915.238809  	89.096494 
916.203233  	89.103080 
917.167658  	89.150169 
918.132082  	89.198561 
919.096507  	89.244794 
920.060931  	89.308743 
921.025355  	89.335538 
921.989780  	89.251683 
922.954204  	89.142952 
923.918629  	89.083532 
924.883053  	89.088352 
925.847478  	89.106657 
926.811902  	89.052794 
927.776327  	88.977828 
928.740751  	88.899711 
929.705176  	88.885004 
930.669600  	88.828904 
931.634024  	88.752821 
932.598449  	88.689128 
933.562873  	88.618552 
934.527298  	88.601233 
935.491722  	88.485192 
936.456147  	88.379551 
937.420571  	88.360641 
938.384996  	88.270997 
939.349420  	88.126853 
940.313845  	88.058736 
941.278269  	88.021330 
942.242694  	87.903588 
943.207118  	87.743308 
944.171542  	87.645679 
945.135967  	87.543235 
946.100391  	87.358010 
947.064816  	87.163857 
948.029240  	87.040240 
948.993665  	86.923248 
949.958089  	86.759530 
950.922514  	86.617366 
951.886938  	86.490213 
952.851363  	86.273052 
953.815787  	86.000358 
954.780211  	85.765836 
955.744636  	85.586287 
956.709060  	85.363702 
957.673485  	85.068124 
958.637909  	84.730475 
959.602334  	84.360065 
960.566758  	84.001989 
961.531183  	83.642255 
962.495607  	83.225666 
963.460032  	82.808127 
964.424456  	82.391369 
965.388880  	81.914319 
966.353305  	81.462285 
967.317729  	81.086188 
968.282154  	80.693235 
969.246578  	80.325064 
970.211003  	80.109810 
971.175427  	80.056375 
972.139852  	80.077165 
973.104276  	80.231074 
974.068701  	80.557882 
975.033125  	80.946349 
975.997549  	81.328106 
976.961974  	81.716203 
977.926398  	82.106343 
978.890823  	82.445191 
979.855247  	82.689942 
980.819672  	82.883501 
981.784096  	83.075501 
982.748521  	83.231785 
983.712945  	83.301136 
984.677370  	83.308177 
985.641794  	83.311789 
986.606218  	83.341291 
987.570643  	83.306992 
988.535067  	83.265106 
989.499492  	83.300538 
990.463916  	83.291336 
991.428341  	83.270727 
992.392765  	83.270489 
993.357190  	83.240055 
994.321614  	83.164580 
995.286039  	83.111157 
996.250463  	83.030431 
997.214888  	82.862297 
998.179312  	82.679975 
999.143736  	82.467789 
1000.108161  	82.254210 
1001.072585  	82.054710 
1002.037010  	81.848087 
1003.001434  	81.560727 
1003.965859  	81.209629 
1004.930283  	80.851690 
1005.894708  	80.367088 
1006.859132  	79.761920 
1007.823557  	79.062365 
1008.787981  	78.243197 
1009.752405  	77.287304 
1010.716830  	76.065838 
1011.681254  	74.527557 
1012.645679  	72.683991 
1013.610103  	70.510744 
1014.574528  	68.131432 
1015.538952  	65.981610 
1016.503377  	64.495372 
1017.467801  	63.867819 
1018.432226  	64.058605 
1019.396650  	64.898575 
1020.361074  	66.117495 
1021.325499  	67.471609 
1022.289923  	68.748318 
1023.254348  	70.006380 
1024.218772  	71.463637 
1025.183197  	73.249893 
1026.147621  	75.170428 
1027.112046  	76.826653 
1028.076470  	77.982446 
1029.040895  	78.639584 
1030.005319  	78.986151 
1030.969743  	79.126427 
1031.934168  	79.162473 
1032.898592  	79.188431 
1033.863017  	79.080888 
1034.827441  	78.891048 
1035.791866  	78.719452 
1036.756290  	78.588761 
1037.720715  	78.477911 
1038.685139  	78.331657 
1039.649564  	78.187557 
1040.613988  	78.095202 
1041.578412  	77.968696 
1042.542837  	77.855020 
1043.507261  	77.817853 
1044.471686  	77.771309 
1045.436110  	77.756131 
1046.400535  	77.798898 
1047.364959  	77.879275 
1048.329384  	77.904794 
1049.293808  	77.965932 
1050.258233  	78.095001 
1051.222657  	78.198365 
1052.187081  	78.251608 
1053.151506  	78.297705 
1054.115930  	78.331336 
1055.080355  	78.287672 
1056.044779  	78.205590 
1057.009204  	78.074745 
1057.973628  	77.963079 
1058.938053  	77.810805 
1059.902477  	77.510933 
1060.866902  	77.178696 
1061.831326  	76.952140 
1062.795751  	76.668328 
1063.760175  	76.222767 
1064.724599  	75.767469 
1065.689024  	75.320643 
1066.653448  	74.804287 
1067.617873  	74.190406 
1068.582297  	73.557022 
1069.546722  	72.899082 
1070.511146  	72.188294 
1071.475571  	71.380121 
1072.439995  	70.509985 
1073.404420  	69.593864 
1074.368844  	68.535756 
1075.333268  	67.395812 
1076.297693  	66.221827 
1077.262117  	65.028360 
1078.226542  	63.850711 
1079.190966  	62.663007 
1080.155391  	61.458205 
1081.119815  	60.332604 
1082.084240  	59.353129 
1083.048664  	58.505297 
1084.013089  	57.798876 
1084.977513  	57.176435 
1085.941937  	56.537014 
1086.906362  	55.961601 
1087.870786  	55.524761 
1088.835211  	55.121267 
1089.799635  	54.692632 
1090.764060  	54.317680 
1091.728484  	54.056093 
1092.692909  	53.798918 
1093.657333  	53.532417 
1094.621758  	53.325512 
1095.586182  	53.224635 
1096.550606  	53.197672 
1097.515031  	53.257509 
1098.479455  	53.405426 
1099.443880  	53.658313 
1100.408304  	53.993923 
1101.372729  	54.356280 
1102.337153  	54.854688 
1103.301578  	55.410234 
1104.266002  	55.970100 
1105.230427  	56.610313 
1106.194851  	57.273807 
1107.159275  	57.921070 
1108.123700  	58.554890 
1109.088124  	59.155344 
1110.052549  	59.686945 
1111.016973  	60.105890 
1111.981398  	60.395409 
1112.945822  	60.663279 
1113.910247  	60.906877 
1114.874671  	61.006819 
1115.839096  	60.977285 
1116.803520  	60.898864 
1117.767945  	60.776273 
1118.732369  	60.676267 
1119.696793  	60.695171 
1120.661218  	60.822449 
1121.625642  	60.992550 
1122.590067  	61.227218 
1123.554491  	61.579279 
1124.518916  	61.975425 
1125.483340  	62.459260 
1126.447765  	63.064070 
1127.412189  	63.755694 
1128.376614  	64.504011 
1129.341038  	65.338463 
1130.305462  	66.284703 
1131.269887  	67.367429 
1132.234311  	68.518267 
1133.198736  	69.688614 
1134.163160  	70.912681 
1135.127585  	72.175183 
1136.092009  	73.426079 
1137.056434  	74.650294 
1138.020858  	75.884905 
1138.985283  	77.031180 
1139.949707  	78.036509 
1140.914131  	78.979073 
1141.878556  	79.865205 
1142.842980  	80.641263 
1143.807405  	81.392371 
1144.771829  	82.129025 
1145.736254  	82.789149 
1146.700678  	83.380506 
1147.665103  	83.920424 
1148.629527  	84.393853 
1149.593952  	84.863981 
1150.558376  	85.296856 
1151.522800  	85.630316 
1152.487225  	85.926912 
1153.451649  	86.212859 
1154.416074  	86.486820 
1155.380498  	86.697781 
1156.344923  	86.864641 
1157.309347  	87.014284 
1158.273772  	87.152205 
1159.238196  	87.209039 
1160.202621  	87.283291 
1161.167045  	87.361876 
1162.131469  	87.386934 
1163.095894  	87.405381 
1164.060318  	87.436048 
1165.024743  	87.400262 
1165.989167  	87.278976 
1166.953592  	87.123027 
1167.918016  	86.911990 
1168.882441  	86.605117 
1169.846865  	86.247952 
1170.811290  	85.921498 
1171.775714  	85.675227 
1172.740138  	85.531765 
1173.704563  	85.392354 
1174.668987  	85.277490 
1175.633412  	85.383948 
1176.597836  	85.551988 
1177.562261  	85.705435 
1178.526685  	85.918675 
1179.491110  	86.162294 
1180.455534  	86.382743 
1181.419959  	86.615755 
1182.384383  	86.803676 
1183.348808  	86.917135 
1184.313232  	87.032962 
1185.277656  	87.121694 
1186.242081  	87.137025 
1187.206505  	87.135045 
1188.170930  	87.123359 
1189.135354  	87.007313 
1190.099779  	86.867945 
1191.064203  	86.773435 
1192.028628  	86.611449 
1192.993052  	86.331995 
1193.957477  	86.030610 
1194.921901  	85.741846 
1195.886325  	85.418266 
1196.850750  	85.039228 
1197.815174  	84.676333 
1198.779599  	84.348215 
1199.744023  	84.020659 
1200.708448  	83.585184 
1201.672872  	83.142904 
1202.637297  	82.772425 
1203.601721  	82.384346 
1204.566146  	81.957192 
1205.530570  	81.525583 
1206.494994  	81.133844 
1207.459419  	80.717907 
1208.423843  	80.271808 
1209.388268  	79.815236 
1210.352692  	79.355620 
1211.317117  	78.826561 
1212.281541  	78.231143 
1213.245966  	77.683082 
1214.210390  	77.089228 
1215.174815  	76.389315 
1216.139239  	75.657149 
1217.103663  	74.892185 
1218.068088  	74.062768 
1219.032512  	73.204695 
1219.996937  	72.352408 
1220.961361  	71.497666 
1221.925786  	70.682887 
1222.890210  	69.919420 
1223.854635  	69.158603 
1224.819059  	68.362900 
1225.783484  	67.568380 
1226.747908  	66.758074 
1227.712332  	65.817961 
1228.676757  	64.758586 
1229.641181  	63.578580 
1230.605606  	62.332882 
1231.570030  	61.022918 
1232.534455  	59.645512 
1233.498879  	58.307920 
1234.463304  	57.059097 
1235.427728  	55.885564 
1236.392153  	54.798238 
1237.356577  	53.854857 
1238.321002  	53.073543 
1239.285426  	52.425652 
1240.249850  	51.910502 
1241.214275  	51.567812 
1242.178699  	51.365750 
1243.143124  	51.222871 
1244.107548  	51.154329 
1245.071973  	51.256317 
1246.036397  	51.419940 
1247.000822  	51.534539 
1247.965246  	51.723557 
1248.929671  	52.003539 
1249.894095  	52.286287 
1250.858519  	52.550807 
1251.822944  	52.820005 
1252.787368  	53.118096 
1253.751793  	53.394559 
1254.716217  	53.589954 
1255.680642  	53.801185 
1256.645066  	54.058126 
1257.609491  	54.270550 
1258.573915  	54.429107 
1259.538340  	54.612679 
1260.502764  	54.862368 
1261.467188  	55.296862 
1262.431613  	55.732232 
1263.396037  	56.227804 
1264.360462  	56.785795 
1265.324886  	57.343694 
1266.289311  	57.948787 
1267.253735  	58.672152 
1268.218160  	59.408548 
1269.182584  	60.107738 
1270.147009  	60.812690 
1271.111433  	61.559440 
1272.075857  	62.281634 
1273.040282  	63.105648 
1274.004706  	63.849069 
1274.969131  	64.517184 
1275.933555  	65.193166 
1276.897980  	65.857383 
1277.862404  	66.498918 
1278.826829  	67.144441 
1279.791253  	67.731689 
1280.755678  	68.331223 
1281.720102  	68.980463 
1282.684526  	69.641240 
1283.648951  	70.270325 
1284.613375  	70.867818 
1285.577800  	71.480189 
1286.542224  	72.047238 
1287.506649  	72.512525 
1288.471073  	73.136433 
1289.435498  	73.896025 
1290.399922  	74.578735 
1291.364347  	75.276160 
1292.328771  	76.035151 
1293.293195  	76.758322 
1294.257620  	77.481301 
1295.222044  	78.178174 
1296.186469  	78.802167 
1297.150893  	79.496761 
1298.115318  	80.321172 
1299.079742  	81.000543 
1300.044167  	81.663685 
1301.008591  	82.314099 
1301.973016  	82.900540 
1302.937440  	83.409863 
1303.901865  	83.859047 
1304.866289  	84.248402 
1305.830713  	84.615500 
1306.795138  	84.929643 
1307.759562  	85.168289 
1308.723987  	85.490068 
1309.688411  	85.948114 
1310.652836  	86.268197 
1311.617260  	86.418663 
1312.581685  	86.299416 
1313.546109  	86.576717 
1314.510534  	86.962423 
1315.474958  	87.347470 
1316.439382  	87.454296 
1317.403807  	87.499207 
1318.368231  	87.629564 
1319.332656  	87.658852 
1320.297080  	88.138544 
1321.261505  	88.559978 
1322.225929  	88.869360 
1323.190354  	88.988940 
1324.154778  	89.155208 
1325.119203  	89.281686 
1326.083627  	89.298675 
1327.048051  	89.246466 
1328.012476  	89.117417 
1328.976900  	88.847727 
1329.941325  	88.384928 
1330.905749  	87.870318 
1331.870174  	87.156142 
1332.834598  	86.107767 
1333.799023  	84.846553 
1334.763447  	83.430319 
1335.727872  	81.721634 
1336.692296  	79.730108 
1337.656720  	78.236978 
1338.621145  	76.555888 
1339.585569  	75.098058 
1340.549994  	75.115056 
1341.514418  	76.509035 
1342.478843  	77.779098 
1343.443267  	78.948677 
1344.407692  	80.415874 
1345.372116  	82.034719 
1346.336541  	83.614542 
1347.300965  	85.010036 
1348.265389  	86.154134 
1349.229814  	86.999566 
1350.194238  	87.873368 
1351.158663  	88.617631 
1352.123087  	89.106213 
1353.087512  	89.482809 
1354.051936  	89.613256 
1355.016361  	89.552481 
1355.980785  	89.957378 
1356.945210  	90.184392 
1357.909634  	90.100149 
1358.874059  	90.156042 
1359.838483  	90.152616 
1360.802907  	89.436219 
1361.767332  	88.809339 
1362.731756  	87.830924 
1363.696181  	87.734463 
1364.660605  	88.953538 
1365.625030  	89.065824 
1366.589454  	88.801200 
1367.553879  	88.318066 
1368.518303  	87.614207 
1369.482728  	87.522936 
1370.447152  	87.899699 
1371.411576  	87.890208 
1372.376001  	87.741854 
1373.340425  	87.017769 
1374.304850  	86.454943 
1375.269274  	87.005877 
1376.233699  	87.967271 
1377.198123  	88.198730 
1378.162548  	87.988237 
1379.126972  	88.125852 
1380.091397  	88.334223 
1381.055821  	88.558214 
1382.020245  	88.625226 
1382.984670  	88.608783 
1383.949094  	88.588718 
1384.913519  	88.538622 
1385.877943  	88.083576 
1386.842368  	86.965795 
1387.806792  	86.722156 
1388.771217  	87.879278 
1389.735641  	88.353335 
1390.700066  	88.250737 
1391.664490  	88.239127 
1392.628914  	88.204912 
1393.593339  	87.526191 
1394.557763  	86.055225 
1395.522188  	85.677768 
1396.486612  	86.252836 
1397.451037  	86.006776 
1398.415461  	85.017363 
1399.379886  	84.391731 
1400.344310  	84.716018 
1401.308735  	84.625132 
1402.273159  	83.766277 
1403.237583  	82.709151 
1404.202008  	81.096842 
1405.166432  	79.102094 
1406.130857  	78.356168 
1407.095281  	77.819202 
1408.059706  	77.012201 
1409.024130  	76.623191 
1409.988555  	76.626239 
1410.952979  	77.311526 
1411.917404  	78.475019 
1412.881828  	80.421992 
1413.846252  	82.329336 
1414.810677  	84.002868 
1415.775101  	85.077990 
1416.739526  	85.748375 
1417.703950  	86.249530 
1418.668375  	86.380960 
1419.632799  	86.659436 
1420.597224  	89.090432 
1421.561648  	90.103319 
1422.526073  	90.435803 
1423.490497  	89.643757 
1424.454922  	89.425196 
1425.419346  	90.680089 
1426.383770  	91.138130 
1427.348195  	91.119656 
1428.312619  	90.813393 
1429.277044  	90.250283 
1430.241468  	89.827923 
1431.205893  	90.319348 
1432.170317  	90.281598 
1433.134742  	89.893904 
1434.099166  	89.983208 
1435.063591  	89.701930 
1436.028015  	88.217799 
1436.992439  	87.082384 
1437.956864  	88.676024 
1438.921288  	89.412367 
1439.885713  	89.477884 
1440.850137  	89.419969 
1441.814562  	89.380911 
1442.778986  	89.375131 
1443.743411  	89.271061 
1444.707835  	89.140331 
1445.672260  	88.965665 
1446.636684  	88.668675 
1447.601108  	87.725021 
1448.565533  	87.565505 
1449.529957  	88.398164 
1450.494382  	88.517638 
1451.458806  	87.970985 
1452.423231  	87.496100 
1453.387655  	87.906572 
1454.352080  	87.499302 
1455.316504  	86.291511 
1456.280929  	85.300799 
1457.245353  	84.553170 
1458.209777  	84.793443 
1459.174202  	85.863237 
1460.138626  	87.466160 
1461.103051  	88.337195 
1462.067475  	88.519190 
1463.031900  	88.551707 
1463.996324  	88.152982 
1464.960749  	87.247326 
1465.925173  	87.805391 
1466.889598  	88.376164 
1467.854022  	88.237888 
1468.818446  	87.971531 
1469.782871  	87.428682 
1470.747295  	86.479279 
1471.711720  	84.639897 
1472.676144  	83.615206 
1473.640569  	84.650710 
1474.604993  	86.711839 
1475.569418  	87.142167 
1476.533842  	86.986980 
1477.498267  	88.637068 
1478.462691  	89.646433 
1479.427116  	90.011664 
1480.391540  	89.985258 
1481.355964  	89.627347 
1482.320389  	90.368482 
1483.284813  	91.079426 
1484.249238  	91.413280 
1485.213662  	91.405349 
1486.178087  	90.940548 
1487.142511  	90.420903 
1488.106936  	90.646455 
1489.071360  	89.722425 
1490.035785  	88.267112 
1491.000209  	89.754049 
1491.964633  	91.695749 
1492.929058  	92.491913 
1493.893482  	92.566139 
1494.857907  	92.205543 
1495.822331  	91.058804 
1496.786756  	90.346169 
1497.751180  	90.896262 
1498.715605  	90.218728 
1499.680029  	90.172769 
1500.644454  	90.323874 
1501.608878  	89.410456 
1502.573302  	88.725601 
1503.537727  	88.241092 
1504.502151  	87.076411 
1505.466576  	85.025104 
1506.431000  	81.470873 
1507.395425  	81.135769 
1508.359849  	83.955848 
1509.324274  	86.242455 
1510.288698  	88.103133 
1511.253123  	89.758811 
1512.217547  	89.850822 
1513.181971  	90.752705 
1514.146396  	91.286859 
1515.110820  	90.334501 
1516.075245  	89.242491 
1517.039669  	87.889244 
1518.004094  	89.750807 
1518.968518  	91.161711 
1519.932943  	90.179435 
1520.897367  	87.616456 
1521.861792  	87.908481 
1522.826216  	89.378449 
1523.790640  	90.482818 
1524.755065  	90.051704 
1525.719489  	89.538086 
1526.683914  	90.179596 
1527.648338  	89.832358 
1528.612763  	90.294669 
1529.577187  	91.482513 
1530.541612  	91.885207 
1531.506036  	91.044010 
1532.470461  	90.469200 
1533.434885  	89.538529 
1534.399309  	89.851427 
1535.363734  	90.865912 
1536.328158  	91.447035 
1537.292583  	91.575973 
1538.257007  	90.442187 
1539.221432  	87.636012 
1540.185856  	87.284818 
1541.150281  	88.683542 
1542.114705  	88.710832 
1543.079130  	88.754273 
1544.043554  	88.856835 
1545.007979  	88.473427 
1545.972403  	89.751867 
1546.936827  	91.358374 
1547.901252  	91.684669 
1548.865676  	91.095364 
1549.830101  	89.162434 
1550.794525  	89.677092 
1551.758950  	91.297351 
1552.723374  	91.368542 
1553.687799  	90.416493 
1554.652223  	89.341560 
1555.616648  	90.466045 
1556.581072  	90.730296 
1557.545496  	89.461775 
1558.509921  	85.400394 
1559.474345  	84.662122 
1560.438770  	87.749917 
1561.403194  	90.413741 
1562.367619  	91.302267 
1563.332043  	91.548594 
1564.296468  	91.138799 
1565.260892  	90.748667 
1566.225317  	91.352799 
1567.189741  	91.580862 
1568.154165  	91.101449 
1569.118590  	89.594977 
1570.083014  	89.196721 
1571.047439  	90.609549 
1572.011863  	90.955696 
1572.976288  	90.833795 
1573.940712  	90.600589 
1574.905137  	90.043852 
1575.869561  	88.777863 
1576.833986  	87.920408 
1577.798410  	88.845670 
1578.762834  	89.595660 
1579.727259  	89.974723 
1580.691683  	90.275915 
1581.656108  	90.549793 
1582.620532  	90.807899 
1583.584957  	91.051842 
1584.549381  	91.320958 
1585.513806  	91.501864 
1586.478230  	91.644251 
1587.442655  	91.743684 
1588.407079  	91.805774 
1589.371503  	91.697547 
1590.335928  	91.650180 
1591.300352  	91.733088 
1592.264777  	91.801144 
1593.229201  	91.809111 
1594.193626  	91.536317 
1595.158050  	91.440953 
1596.122475  	91.551771 
1597.086899  	91.606566 
1598.051324  	91.711754 
1599.015748  	91.669692 
1599.980173  	91.617323 
1600.944597  	91.357389 
1601.909021  	91.187175 
1602.873446  	90.933929 
1603.837870  	90.916715 
1604.802295  	91.090282 
1605.766719  	90.970203 
1606.731144  	90.538254 
1607.695568  	90.313744 
1608.659993  	90.248834 
1609.624417  	89.855885 
1610.588842  	90.071699 
1611.553266  	90.223781 
1612.517690  	90.109058 
1613.482115  	90.058582 
1614.446539  	89.969578 
1615.410964  	89.554949 
1616.375388  	88.487504 
1617.339813  	88.420003 
1618.304237  	89.575732 
1619.268662  	90.020506 
1620.233086  	90.076167 
1621.197511  	90.089956 
1622.161935  	89.698464 
1623.126359  	88.695652 
1624.090784  	88.818333 
1625.055208  	89.767400 
1626.019633  	89.954193 
1626.984057  	89.653558 
1627.948482  	89.081847 
1628.912906  	89.514570 
1629.877331  	89.869020 
1630.841755  	89.858829 
1631.806180  	89.790961 
1632.770604  	89.766649 
1633.735028  	89.425262 
1634.699453  	88.402182 
1635.663877  	86.567349 
1636.628302  	87.465664 
1637.592726  	87.673361 
1638.557151  	88.417633 
1639.521575  	88.899445 
1640.486000  	88.877746 
1641.450424  	88.881702 
1642.414849  	88.772585 
1643.379273  	88.782921 
1644.343697  	88.676197 
1645.308122  	87.808669 
1646.272546  	86.214844 
1647.236971  	85.456773 
1648.201395  	85.783412 
1649.165820  	87.216812 
1650.130244  	87.789738 
1651.094669  	87.448924 
1652.059093  	86.377548 
1653.023518  	83.149225 
1653.987942  	82.556188 
1654.952366  	84.964244 
1655.916791  	86.467302 
1656.881215  	86.747849 
1657.845640  	86.865980 
1658.810064  	86.906741 
1659.774489  	86.792531 
1660.738913  	86.268833 
1661.703338  	85.493059 
1662.667762  	84.555232 
1663.632187  	84.674961 
1664.596611  	84.941344 
1665.561036  	84.781421 
1666.525460  	84.487939 
1667.489884  	83.749191 
1668.454309  	82.138686 
1669.418733  	81.072074 
1670.383158  	81.627972 
1671.347582  	81.114371 
1672.312007  	81.105572 
1673.276431  	81.435247 
1674.240856  	80.812925 
1675.205280  	79.370988 
1676.169705  	79.304037 
1677.134129  	79.661964 
1678.098553  	79.315347 
1679.062978  	78.432361 
1680.027402  	76.739803 
1680.991827  	76.400564 
1681.956251  	76.615836 
1682.920676  	75.266662 
1683.885100  	71.738464 
1684.849525  	71.686736 
1685.813949  	74.606912 
1686.778374  	75.012059 
1687.742798  	74.164863 
1688.707222  	73.206346 
1689.671647  	72.783907 
1690.636071  	72.232841 
1691.600496  	71.876552 
1692.564920  	71.059074 
1693.529345  	69.860322 
1694.493769  	68.357377 
1695.458194  	66.161487 
1696.422618  	63.933521 
1697.387043  	63.456096 
1698.351467  	62.504428 
1699.315891  	60.828995 
1700.280316  	57.226687 
1701.244740  	56.585785 
1702.209165  	56.606809 
1703.173589  	55.646104 
1704.138014  	54.054495 
1705.102438  	52.595481 
1706.066863  	51.547355 
1707.031287  	50.540155 
1707.995712  	50.307777 
1708.960136  	49.926075 
1709.924560  	49.183282 
1710.888985  	48.959510 
1711.853409  	49.216216 
1712.817834  	49.218419 
1713.782258  	49.055300 
1714.746683  	49.105907 
1715.711107  	50.366250 
1716.675532  	51.222061 
1717.639956  	51.206867 
1718.604381  	53.160558 
1719.568805  	55.952900 
1720.533230  	57.582639 
1721.497654  	58.797574 
1722.462078  	59.927506 
1723.426503  	60.828877 
1724.390927  	62.295817 
1725.355352  	63.714523 
1726.319776  	64.894373 
1727.284201  	66.079291 
1728.248625  	67.279104 
1729.213050  	67.754645 
1730.177474  	68.201682 
1731.141899  	70.301488 
1732.106323  	71.438066 
1733.070747  	71.229352 
1734.035172  	70.695488 
1734.999596  	74.075175 
1735.964021  	76.831555 
1736.928445  	78.164801 
1737.892870  	79.377013 
1738.857294  	80.194074 
1739.821719  	80.753872 
1740.786143  	82.897147 
1741.750568  	84.396981 
1742.714992  	84.572785 
1743.679416  	84.789988 
1744.643841  	86.524513 
1745.608265  	87.838050 
1746.572690  	88.249613 
1747.537114  	88.415172 
1748.501539  	88.598432 
1749.465963  	89.287037 
1750.430388  	89.895153 
1751.394812  	89.446076 
1752.359237  	90.972925 
1753.323661  	92.302963 
1754.288085  	92.941326 
1755.252510  	93.138215 
1756.216934  	92.552115 
1757.181359  	91.993799 
1758.145783  	92.753714 
1759.110208  	93.320020 
1760.074632  	93.600139 
1761.039057  	93.030763 
1762.003481  	92.061272 
1762.967906  	93.135505 
1763.932330  	93.909768 
1764.896754  	94.103920 
1765.861179  	94.194739 
1766.825603  	94.026284 
1767.790028  	93.018801 
1768.754452  	92.769243 
1769.718877  	93.831065 
1770.683301  	93.567129 
1771.647726  	92.402058 
1772.612150  	91.916544 
1773.576575  	93.105383 
1774.540999  	93.825189 
1775.505423  	93.462649 
1776.469848  	93.762579 
1777.434272  	94.461632 
1778.398697  	94.312148 
1779.363121  	93.976587 
1780.327546  	93.516717 
1781.291970  	93.420476 
1782.256395  	94.163843 
1783.220819  	94.504217 
1784.185244  	94.183528 
1785.149668  	93.631776 
1786.114093  	94.170446 
1787.078517  	94.572728 
1788.042941  	94.591044 
1789.007366  	94.540069 
1789.971790  	94.184539 
1790.936215  	93.156269 
1791.900639  	92.688852 
1792.865064  	92.630092 
1793.829488  	93.635098 
1794.793913  	94.077492 
1795.758337  	93.438581 
1796.722762  	93.490426 
1797.687186  	94.306029 
1798.651610  	94.351302 
1799.616035  	93.754777 
1800.580459  	93.696160 
1801.544884  	93.463722 
1802.509308  	93.242488 
1803.473733  	94.061088 
1804.438157  	94.566048 
1805.402582  	94.555692 
1806.367006  	94.504898 
1807.331431  	94.222199 
1808.295855  	94.123007 
1809.260279  	94.448310 
1810.224704  	93.956564 
1811.189128  	93.541814 
1812.153553  	93.885755 
1813.117977  	94.299251 
1814.082402  	94.671014 
1815.046826  	94.723455 
1816.011251  	94.738012 
1816.975675  	94.419061 
1817.940100  	94.222382 
1818.904524  	94.588583 
1819.868948  	94.717085 
1820.833373  	94.639664 
1821.797797  	94.541499 
1822.762222  	94.353221 
1823.726646  	94.361450 
1824.691071  	93.735600 
1825.655495  	93.061210 
1826.619920  	94.166131 
1827.584344  	94.624332 
1828.548769  	94.166288 
1829.513193  	92.990476 
1830.477617  	93.007538 
1831.442042  	94.214207 
1832.406466  	94.609326 
1833.370891  	94.521878 
1834.335315  	94.729018 
1835.299740  	94.918235 
1836.264164  	94.779401 
1837.228589  	94.282281 
1838.193013  	94.479247 
1839.157438  	94.857839 
1840.121862  	94.960682 
1841.086287  	94.880405 
1842.050711  	94.552813 
1843.015135  	94.259662 
1843.979560  	93.494632 
1844.943984  	93.211887 
1845.908409  	94.108801 
1846.872833  	94.431452 
1847.837258  	94.019015 
1848.801682  	94.320135 
1849.766107  	94.988173 
1850.730531  	95.251912 
1851.694956  	95.271502 
1852.659380  	95.212941 
1853.623804  	95.219273 
1854.588229  	95.216431 
1855.552653  	95.230459 
1856.517078  	95.178834 
1857.481502  	95.188429 
1858.445927  	95.032542 
1859.410351  	95.002237 
1860.374776  	95.103687 
1861.339200  	95.001709 
1862.303625  	95.070073 
1863.268049  	95.292077 
1864.232473  	95.319003 
1865.196898  	95.280345 
1866.161322  	94.834751 
1867.125747  	94.329002 
1868.090171  	93.747090 
1869.054596  	93.342462 
1870.019020  	93.817173 
1870.983445  	94.592762 
1871.947869  	95.140129 
1872.912294  	95.400968 
1873.876718  	95.401009 
1874.841142  	95.347234 
1875.805567  	95.328703 
1876.769991  	95.401442 
1877.734416  	95.448233 
1878.698840  	95.330834 
1879.663265  	95.136736 
1880.627689  	95.229436 
1881.592114  	95.320065 
1882.556538  	95.387774 
1883.520963  	95.414267 
1884.485387  	95.312128 
1885.449811  	95.197353 
1886.414236  	95.363665 
1887.378660  	95.400434 
1888.343085  	95.160977 
1889.307509  	94.289819 
1890.271934  	94.252176 
1891.236358  	95.034288 
1892.200783  	95.285266 
1893.165207  	95.286643 
1894.129632  	95.168358 
1895.094056  	94.703205 
1896.058480  	94.829628 
1897.022905  	95.228388 
1897.987329  	95.185145 
1898.951754  	95.148329 
1899.916178  	95.315113 
1900.880603  	95.367721 
1901.845027  	95.252356 
1902.809452  	95.283628 
1903.773876  	95.256155 
1904.738301  	95.257012 
1905.702725  	95.302553 
1906.667150  	95.247271 
1907.631574  	94.976941 
1908.595998  	94.868565 
1909.560423  	94.711424 
1910.524847  	94.648970 
1911.489272  	95.152438 
1912.453696  	95.233238 
1913.418121  	95.181769 
1914.382545  	95.170235 
1915.346970  	95.285449 
1916.311394  	95.334577 
1917.275819  	94.855241 
1918.240243  	94.032254 
1919.204667  	94.686666 
1920.169092  	95.183676 
1921.133516  	95.114676 
1922.097941  	94.471935 
1923.062365  	93.838100 
1924.026790  	94.730731 
1924.991214  	95.327686 
1925.955639  	95.127694 
1926.920063  	95.190215 
1927.884488  	95.307780 
1928.848912  	95.336702 
1929.813336  	95.302724 
1930.777761  	95.256188 
1931.742185  	95.235744 
1932.706610  	95.294075 
1933.671034  	95.258485 
1934.635459  	95.203556 
1935.599883  	95.267329 
1936.564308  	95.277454 
1937.528732  	95.182936 
1938.493157  	95.293565 
1939.457581  	95.428871 
1940.422005  	95.337175 
1941.386430  	94.830293 
1942.350854  	93.841563 
1943.315279  	93.881440 
1944.279703  	94.741571 
1945.244128  	94.775627 
1946.208552  	94.667684 
1947.172977  	94.706982 
1948.137401  	94.867078 
1949.101826  	94.940029 
1950.066250  	95.131526 
1951.030674  	95.190703 
1951.995099  	95.049659 
1952.959523  	95.094991 
1953.923948  	95.018727 
1954.888372  	94.694958 
1955.852797  	94.819889 
1956.817221  	95.029002 
1957.781646  	95.114099 
1958.746070  	94.964768 
1959.710495  	94.992308 
1960.674919  	94.888397 
1961.639344  	94.847694 
1962.603768  	94.660492 
1963.568192  	94.893187 
1964.532617  	95.371279 
1965.497041  	95.415643 
1966.461466  	95.060099 
1967.425890  	94.762462 
1968.390315  	95.235206 
1969.354739  	95.437518 
1970.319164  	95.205305 
1971.283588  	95.450212 
1972.248013  	95.272393 
1973.212437  	95.264660 
1974.176861  	95.360151 
1975.141286  	95.222454 
1976.105710  	95.197761 
1977.070135  	95.577700 
1978.034559  	95.525873 
1978.998984  	94.971707 
1979.963408  	94.934194 
1980.927833  	94.932680 
1981.892257  	94.955434 
1982.856682  	95.075566 
1983.821106  	95.031035 
1984.785530  	95.053146 
1985.749955  	94.992251 
1986.714379  	95.172850 
1987.678804  	95.024904 
1988.643228  	94.813772 
1989.607653  	95.134293 
1990.572077  	95.264827 
1991.536502  	94.590187 
1992.500926  	94.259714 
1993.465351  	94.746711 
1994.429775  	95.006672 
1995.394199  	95.174429 
1996.358624  	95.208721 
1997.323048  	95.196651 
1998.287473  	95.404252 
1999.251897  	95.451730 
2000.216322  	95.538169 
2001.180746  	95.772474 
2002.145171  	95.852556 
2003.109595  	95.902731 
2004.074020  	96.020074 
2005.038444  	95.960608 
2006.002868  	95.833843 
2006.967293  	95.672390 
2007.931717  	95.381863 
2008.896142  	95.417811 
2009.860566  	95.777283 
2010.824991  	95.851923 
2011.789415  	95.711897 
2012.753840  	95.744408 
2013.718264  	95.746785 
2014.682689  	95.709935 
2015.647113  	95.631038 
2016.611537  	95.420506 
2017.575962  	95.560177 
2018.540386  	95.673481 
2019.504811  	95.549793 
2020.469235  	95.760721 
2021.433660  	96.159501 
2022.398084  	96.064332 
2023.362509  	95.965013 
2024.326933  	96.162250 
2025.291358  	96.119569 
2026.255782  	95.974834 
2027.220207  	95.942287 
2028.184631  	95.986615 
2029.149055  	96.289900 
2030.113480  	96.237732 
2031.077904  	96.090591 
2032.042329  	95.988271 
2033.006753  	95.946325 
2033.971178  	95.917250 
2034.935602  	95.823874 
2035.900027  	95.803422 
2036.864451  	95.924953 
2037.828876  	96.016277 
2038.793300  	95.938302 
2039.757724  	95.817341 
2040.722149  	95.722321 
2041.686573  	95.334134 
2042.650998  	95.354401 
2043.615422  	95.328400 
2044.579847  	95.509809 
2045.544271  	95.716099 
2046.508696  	95.800240 
2047.473120  	95.737128 
2048.437545  	95.728095 
2049.401969  	95.658456 
2050.366393  	95.337226 
2051.330818  	95.147256 
2052.295242  	95.479215 
2053.259667  	95.743588 
2054.224091  	95.564262 
2055.188516  	95.286922 
2056.152940  	95.466343 
2057.117365  	95.383648 
2058.081789  	95.168078 
2059.046214  	95.201040 
2060.010638  	95.295575 
2060.975062  	95.210513 
2061.939487  	95.289934 
2062.903911  	95.372905 
2063.868336  	95.232769 
2064.832760  	94.923023 
2065.797185  	95.020138 
2066.761609  	95.213024 
2067.726034  	95.248466 
2068.690458  	95.294848 
2069.654883  	95.337761 
2070.619307  	95.152350 
2071.583731  	95.254233 
2072.548156  	95.356051 
2073.512580  	95.096065 
2074.477005  	94.924640 
2075.441429  	95.104016 
2076.405854  	95.141866 
2077.370278  	95.076824 
2078.334703  	95.192879 
2079.299127  	95.270166 
2080.263552  	95.111491 
2081.227976  	95.017316 
2082.192401  	94.957176 
2083.156825  	94.867050 
2084.121249  	94.932261 
2085.085674  	95.164534 
2086.050098  	95.235938 
2087.014523  	95.151751 
2087.978947  	95.169738 
2088.943372  	95.107423 
2089.907796  	94.964738 
2090.872221  	95.072569 
2091.836645  	95.395819 
2092.801070  	95.463982 
2093.765494  	95.452429 
2094.729918  	95.296949 
2095.694343  	95.068155 
2096.658767  	94.935262 
2097.623192  	94.920219 
2098.587616  	94.984312 
2099.552041  	95.038298 
2100.516465  	95.081020 
2101.480890  	95.097504 
2102.445314  	95.079711 
2103.409739  	95.092230 
2104.374163  	94.993475 
2105.338587  	94.964134 
2106.303012  	95.072895 
2107.267436  	95.120925 
2108.231861  	95.084700 
2109.196285  	94.991921 
2110.160710  	95.057924 
2111.125134  	95.161557 
2112.089559  	95.105020 
2113.053983  	95.099032 
2114.018408  	95.117891 
2114.982832  	95.078249 
2115.947256  	95.011428 
2116.911681  	95.086466 
2117.876105  	95.220558 
2118.840530  	95.139687 
2119.804954  	95.183651 
2120.769379  	95.306439 
2121.733803  	95.314574 
2122.698228  	95.297313 
2123.662652  	95.225704 
2124.627077  	95.212522 
2125.591501  	95.448607 
2126.555925  	95.638563 
2127.520350  	95.588467 
2128.484774  	95.478287 
2129.449199  	95.585290 
2130.413623  	95.626453 
2131.378048  	95.592007 
2132.342472  	95.784959 
2133.306897  	95.891069 
2134.271321  	95.836329 
2135.235746  	95.516194 
2136.200170  	95.314033 
2137.164594  	95.487739 
2138.129019  	95.626398 
2139.093443  	95.763068 
2140.057868  	95.854651 
2141.022292  	95.846856 
2141.986717  	95.786403 
2142.951141  	95.800643 
2143.915566  	95.842788 
2144.879990  	95.756993 
2145.844415  	95.812824 
2146.808839  	95.815640 
2147.773264  	95.941602 
2148.737688  	96.019677 
2149.702112  	95.957325 
2150.666537  	96.111292 
2151.630961  	96.238588 
2152.595386  	96.471844 
2153.559810  	96.492641 
2154.524235  	96.785592 
2155.488659  	97.022324 
2156.453084  	97.006384 
2157.417508  	96.904501 
2158.381933  	96.495072 
2159.346357  	95.704661 
2160.310781  	95.317113 
2161.275206  	95.325669 
2162.239630  	95.382244 
2163.204055  	95.677099 
2164.168479  	95.765750 
2165.132904  	95.619930 
2166.097328  	95.530973 
2167.061753  	95.756531 
2168.026177  	95.772498 
2168.990602  	95.635887 
2169.955026  	95.799771 
2170.919450  	96.096905 
2171.883875  	95.963420 
2172.848299  	95.957307 
2173.812724  	96.051065 
2174.777148  	96.150805 
2175.741573  	96.181228 
2176.705997  	95.957316 
2177.670422  	95.971838 
2178.634846  	95.972348 
2179.599271  	95.880087 
2180.563695  	95.884506 
2181.528119  	96.060059 
2182.492544  	95.967326 
2183.456968  	95.593146 
2184.421393  	95.514456 
2185.385817  	95.939852 
2186.350242  	95.938439 
2187.314666  	95.617399 
2188.279091  	95.442554 
2189.243515  	95.245049 
2190.207940  	95.228362 
2191.172364  	95.510951 
2192.136788  	95.723086 
2193.101213  	95.806314 
2194.065637  	95.701529 
2195.030062  	95.378248 
2195.994486  	95.299832 
2196.958911  	95.534786 
2197.923335  	95.626867 
2198.887760  	95.634770 
2199.852184  	95.724838 
2200.816609  	95.611266 
2201.781033  	95.494178 
2202.745458  	95.589898 
2203.709882  	95.590942 
2204.674306  	95.576689 
2205.638731  	95.457938 
2206.603155  	95.462995 
2207.567580  	95.577678 
2208.532004  	95.508268 
2209.496429  	95.493490 
2210.460853  	95.608861 
2211.425278  	95.667218 
2212.389702  	95.540355 
2213.354127  	95.196238 
2214.318551  	95.070432 
2215.282975  	95.249225 
2216.247400  	95.397462 
2217.211824  	95.347104 
2218.176249  	95.368006 
2219.140673  	95.431451 
2220.105098  	95.388001 
2221.069522  	95.205411 
2222.033947  	95.215933 
2222.998371  	95.304451 
2223.962796  	95.357939 
2224.927220  	95.478816 
2225.891644  	95.376211 
2226.856069  	95.219084 
2227.820493  	95.232580 
2228.784918  	95.320663 
2229.749342  	95.267880 
2230.713767  	95.278485 
2231.678191  	95.298777 
2232.642616  	95.247769 
2233.607040  	95.300979 
2234.571465  	95.173699 
2235.535889  	95.092502 
2236.500313  	95.176534 
2237.464738  	95.165092 
2238.429162  	95.095252 
2239.393587  	95.111027 
2240.358011  	95.289117 
2241.322436  	95.437933 
2242.286860  	95.322180 
2243.251285  	95.319180 
2244.215709  	95.338986 
2245.180134  	95.123744 
2246.144558  	95.006900 
2247.108982  	95.143813 
2248.073407  	95.182729 
2249.037831  	95.168772 
2250.002256  	95.185576 
2250.966680  	95.130779 
2251.931105  	95.071258 
2252.895529  	95.099617 
2253.859954  	95.179996 
2254.824378  	95.146371 
2255.788803  	95.120666 
2256.753227  	95.032790 
2257.717651  	95.048811 
2258.682076  	95.023480 
2259.646500  	95.002727 
2260.610925  	94.941444 
2261.575349  	94.928767 
2262.539774  	95.007867 
2263.504198  	95.039181 
2264.468623  	94.985492 
2265.433047  	95.016083 
2266.397472  	95.097629 
2267.361896  	95.034630 
2268.326321  	95.010662 
2269.290745  	95.042048 
2270.255169  	94.995837 
2271.219594  	95.039683 
2272.184018  	95.056714 
2273.148443  	94.953390 
2274.112867  	94.920727 
2275.077292  	94.911415 
2276.041716  	94.914802 
2277.006141  	94.932007 
2277.970565  	94.945956 
2278.934990  	94.865818 
2279.899414  	94.756741 
2280.863838  	94.770652 
2281.828263  	94.778331 
2282.792687  	94.755048 
2283.757112  	94.754987 
2284.721536  	94.719125 
2285.685961  	94.702709 
2286.650385  	94.677465 
2287.614810  	94.582206 
2288.579234  	94.525716 
2289.543659  	94.504986 
2290.508083  	94.605542 
2291.472507  	94.634784 
2292.436932  	94.675222 
2293.401356  	94.627979 
2294.365781  	94.581472 
2295.330205  	94.650096 
2296.294630  	94.637757 
2297.259054  	94.660533 
2298.223479  	94.556644 
2299.187903  	94.487224 
2300.152328  	94.500767 
2301.116752  	94.490999 
2302.081176  	94.546654 
2303.045601  	94.487430 
2304.010025  	94.558321 
2304.974450  	94.410807 
2305.938874  	94.415223 
2306.903299  	94.329004 
2307.867723  	94.408346 
2308.832148  	94.389966 
2309.796572  	94.386778 
2310.760997  	94.346124 
2311.725421  	94.300325 
2312.689845  	94.442193 
2313.654270  	94.523647 
2314.618694  	94.557848 
2315.583119  	94.657111 
2316.547543  	94.726346 
2317.511968  	94.734802 
2318.476392  	94.757685 
2319.440817  	94.706738 
2320.405241  	94.663957 
2321.369666  	94.759962 
2322.334090  	94.853477 
2323.298515  	94.841287 
2324.262939  	94.792086 
2325.227363  	95.125443 
2326.191788  	95.506914 
2327.156212  	95.725838 
2328.120637  	95.781559 
2329.085061  	95.830289 
2330.049486  	95.850645 
2331.013910  	95.885007 
2331.978335  	96.044450 
2332.942759  	96.266885 
2333.907184  	96.409492 
2334.871608  	96.442693 
2335.836032  	96.609409 
2336.800457  	96.717704 
2337.764881  	96.636594 
2338.729306  	96.637311 
2339.693730  	96.631855 
2340.658155  	96.745337 
2341.622579  	96.793105 
2342.587004  	96.662034 
2343.551428  	96.386616 
2344.515853  	96.093835 
2345.480277  	95.953025 
2346.444701  	95.770891 
2347.409126  	95.539590 
2348.373550  	95.149586 
2349.337975  	95.047525 
2350.302399  	95.372811 
2351.266824  	95.772983 
2352.231248  	96.179292 
2353.195673  	96.383752 
2354.160097  	96.413550 
2355.124522  	96.484799 
2356.088946  	96.729049 
2357.053370  	96.945060 
2358.017795  	97.029083 
2358.982219  	97.003161 
2359.946644  	97.270201 
2360.911068  	97.358824 
2361.875493  	97.180119 
2362.839917  	97.102381 
2363.804342  	97.073921 
2364.768766  	96.841590 
2365.733191  	96.812194 
2366.697615  	96.747469 
2367.662039  	96.566678 
2368.626464  	96.304114 
2369.590888  	96.032233 
2370.555313  	95.840540 
2371.519737  	95.612884 
2372.484162  	95.309272 
2373.448586  	95.184048 
2374.413011  	95.157903 
2375.377435  	95.044092 
2376.341860  	94.823443 
2377.306284  	94.719630 
2378.270708  	94.610341 
2379.235133  	94.473303 
2380.199557  	94.517176 
2381.163982  	94.572957 
2382.128406  	94.589210 
2383.092831  	94.629859 
2384.057255  	94.709377 
2385.021680  	94.786305 
2385.986104  	94.857805 
2386.950529  	94.887278 
2387.914953  	94.929392 
2388.879378  	94.946541 
2389.843802  	94.997410 
2390.808226  	95.017950 
2391.772651  	95.037012 
2392.737075  	95.038651 
2393.701500  	95.056592 
2394.665924  	95.068842 
2395.630349  	95.045996 
2396.594773  	95.016969 
2397.559198  	95.038124 
2398.523622  	95.060908 
2399.488047  	95.087410 
2400.452471  	95.029030 
2401.416895  	95.001713 
2402.381320  	95.060502 
2403.345744  	95.138289 
2404.310169  	95.103012 
2405.274593  	95.051958 
2406.239018  	95.038756 
2407.203442  	95.031890 
2408.167867  	95.037711 
2409.132291  	95.024524 
2410.096716  	95.049290 
2411.061140  	95.008016 
2412.025564  	94.987203 
2412.989989  	94.991171 
2413.954413  	94.979395 
2414.918838  	95.013104 
2415.883262  	95.031667 
2416.847687  	95.013635 
2417.812111  	95.047246 
2418.776536  	95.064303 
2419.740960  	95.023621 
2420.705385  	95.039619 
2421.669809  	95.048879 
2422.634233  	95.097774 
2423.598658  	95.093166 
2424.563082  	95.046247 
2425.527507  	95.052435 
2426.491931  	95.070009 
2427.456356  	95.047996 
2428.420780  	95.125588 
2429.385205  	95.172109 
2430.349629  	95.125071 
2431.314054  	95.048565 
2432.278478  	95.093918 
2433.242902  	95.125084 
2434.207327  	95.066147 
2435.171751  	95.053904 
2436.136176  	95.127376 
2437.100600  	95.149242 
2438.065025  	95.103886 
2439.029449  	95.122901 
2439.993874  	95.082606 
2440.958298  	95.035760 
2441.922723  	95.071437 
2442.887147  	95.076705 
2443.851572  	95.095624 
2444.815996  	95.099908 
2445.780420  	95.066841 
2446.744845  	95.000434 
2447.709269  	95.044983 
2448.673694  	95.125585 
2449.638118  	95.054241 
2450.602543  	94.989663 
2451.566967  	95.005729 
2452.531392  	95.028194 
2453.495816  	95.034893 
2454.460241  	95.033362 
2455.424665  	95.068890 
2456.389089  	95.071582 
2457.353514  	95.019795 
2458.317938  	95.028132 
2459.282363  	95.050478 
2460.246787  	95.068536 
2461.211212  	95.031110 
2462.175636  	95.001732 
2463.140061  	95.045240 
2464.104485  	95.092147 
2465.068910  	95.114673 
2466.033334  	95.080361 
2466.997758  	95.067330 
2467.962183  	95.096570 
2468.926607  	95.075244 
2469.891032  	95.062883 
2470.855456  	95.084445 
2471.819881  	95.126549 
2472.784305  	95.134556 
2473.748730  	95.105258 
2474.713154  	95.098724 
2475.677579  	95.089046 
2476.642003  	95.064233 
2477.606427  	95.048505 
2478.570852  	95.116033 
2479.535276  	95.136600 
2480.499701  	95.065944 
2481.464125  	95.034040 
2482.428550  	95.097718 
2483.392974  	95.145496 
2484.357399  	95.176891 
2485.321823  	95.105681 
2486.286248  	95.019783 
2487.250672  	94.978324 
2488.215096  	94.984222 
2489.179521  	94.998285 
2490.143945  	94.986806 
2491.108370  	94.949896 
2492.072794  	94.951699 
2493.037219  	94.978170 
2494.001643  	95.044885 
2494.966068  	95.088571 
2495.930492  	95.098106 
2496.894917  	95.067901 
2497.859341  	95.057398 
2498.823765  	95.039072 
2499.788190  	95.046760 
2500.752614  	95.049532 
2501.717039  	94.994853 
2502.681463  	94.970767 
2503.645888  	94.958654 
2504.610312  	94.881819 
2505.574737  	94.893921 
2506.539161  	94.948260 
2507.503586  	95.008600 
2508.468010  	95.028643 
2509.432435  	94.977991 
2510.396859  	94.967979 
2511.361283  	94.977078 
2512.325708  	94.927107 
2513.290132  	94.922903 
2514.254557  	94.962309 
2515.218981  	94.950012 
2516.183406  	94.921757 
2517.147830  	94.936681 
2518.112255  	94.904983 
2519.076679  	94.872487 
2520.041104  	94.902626 
2521.005528  	94.906812 
2521.969952  	94.855359 
2522.934377  	94.827481 
2523.898801  	94.856103 
2524.863226  	94.929912 
2525.827650  	94.927411 
2526.792075  	94.934960 
2527.756499  	94.913723 
2528.720924  	94.919114 
2529.685348  	94.862269 
2530.649773  	94.858403 
2531.614197  	94.902182 
2532.578621  	94.905894 
2533.543046  	94.896966 
2534.507470  	94.896330 
2535.471895  	94.885119 
2536.436319  	94.861095 
2537.400744  	94.907828 
2538.365168  	94.917229 
2539.329593  	94.877203 
2540.294017  	94.835322 
2541.258442  	94.818693 
2542.222866  	94.847514 
2543.187290  	94.894370 
2544.151715  	94.928146 
2545.116139  	94.896226 
2546.080564  	94.874854 
2547.044988  	94.843377 
2548.009413  	94.801231 
2548.973837  	94.857060 
2549.938262  	94.935259 
2550.902686  	94.960764 
2551.867111  	94.902276 
2552.831535  	94.795602 
2553.795959  	94.781587 
2554.760384  	94.893808 
2555.724808  	94.890643 
2556.689233  	94.829232 
2557.653657  	94.826779 
2558.618082  	94.821200 
2559.582506  	94.875339 
2560.546931  	94.848916 
2561.511355  	94.764609 
2562.475780  	94.772877 
2563.440204  	94.783198 
2564.404629  	94.794569 
2565.369053  	94.822472 
2566.333477  	94.807203 
2567.297902  	94.857476 
2568.262326  	94.857506 
2569.226751  	94.748252 
2570.191175  	94.707257 
2571.155600  	94.786162 
2572.120024  	94.834912 
2573.084449  	94.864473 
2574.048873  	94.814032 
2575.013298  	94.728384 
2575.977722  	94.732386 
2576.942146  	94.795427 
2577.906571  	94.815725 
2578.870995  	94.802697 
2579.835420  	94.786836 
2580.799844  	94.786928 
2581.764269  	94.761095 
2582.728693  	94.757622 
2583.693118  	94.746740 
2584.657542  	94.739549 
2585.621967  	94.761580 
2586.586391  	94.753383 
2587.550815  	94.774237 
2588.515240  	94.800857 
2589.479664  	94.793066 
2590.444089  	94.752075 
2591.408513  	94.762147 
2592.372938  	94.746697 
2593.337362  	94.684131 
2594.301787  	94.731519 
2595.266211  	94.780787 
2596.230636  	94.808203 
2597.195060  	94.831154 
2598.159484  	94.830704 
2599.123909  	94.856886 
2600.088333  	94.870095 
2601.052758  	94.816755 
2602.017182  	94.820121 
2602.981607  	94.822828 
2603.946031  	94.801675 
2604.910456  	94.812182 
2605.874880  	94.807534 
2606.839305  	94.803364 
2607.803729  	94.819456 
2608.768153  	94.819838 
2609.732578  	94.785304 
2610.697002  	94.748868 
2611.661427  	94.760839 
2612.625851  	94.784390 
2613.590276  	94.808511 
2614.554700  	94.831075 
2615.519125  	94.806032 
2616.483549  	94.789680 
2617.447974  	94.781887 
2618.412398  	94.787617 
2619.376822  	94.761241 
2620.341247  	94.741770 
2621.305671  	94.771291 
2622.270096  	94.792093 
2623.234520  	94.790567 
2624.198945  	94.769782 
2625.163369  	94.789113 
2626.127794  	94.758756 
2627.092218  	94.726975 
2628.056643  	94.718363 
2629.021067  	94.711763 
2629.985492  	94.729211 
2630.949916  	94.783397 
2631.914340  	94.757564 
2632.878765  	94.723840 
2633.843189  	94.751376 
2634.807614  	94.742622 
2635.772038  	94.755915 
2636.736463  	94.746912 
2637.700887  	94.742680 
2638.665312  	94.758378 
2639.629736  	94.751812 
2640.594161  	94.763531 
2641.558585  	94.775101 
2642.523009  	94.758802 
2643.487434  	94.742818 
2644.451858  	94.760589 
2645.416283  	94.763111 
2646.380707  	94.756632 
2647.345132  	94.790633 
2648.309556  	94.806629 
2649.273981  	94.777590 
2650.238405  	94.788036 
2651.202830  	94.808982 
2652.167254  	94.786440 
2653.131678  	94.768111 
2654.096103  	94.757523 
2655.060527  	94.745294 
2656.024952  	94.762335 
2656.989376  	94.768053 
2657.953801  	94.770974 
2658.918225  	94.818873 
2659.882650  	94.841615 
2660.847074  	94.814818 
2661.811499  	94.822014 
2662.775923  	94.853139 
2663.740347  	94.876126 
2664.704772  	94.850929 
2665.669196  	94.857249 
2666.633621  	94.861320 
2667.598045  	94.850502 
2668.562470  	94.874037 
2669.526894  	94.869730 
2670.491319  	94.835830 
2671.455743  	94.873388 
2672.420168  	94.915253 
2673.384592  	94.906618 
2674.349016  	94.881494 
2675.313441  	94.890704 
2676.277865  	94.904816 
2677.242290  	94.889406 
2678.206714  	94.860988 
2679.171139  	94.851184 
2680.135563  	94.856749 
2681.099988  	94.878842 
2682.064412  	94.900767 
2683.028837  	94.905473 
2683.993261  	94.881343 
2684.957686  	94.871851 
2685.922110  	94.888711 
2686.886534  	94.879658 
2687.850959  	94.861855 
2688.815383  	94.857049 
2689.779808  	94.859415 
2690.744232  	94.860654 
2691.708657  	94.860466 
2692.673081  	94.867991 
2693.637506  	94.868246 
2694.601930  	94.878129 
2695.566355  	94.892932 
2696.530779  	94.895430 
2697.495203  	94.880900 
2698.459628  	94.877273 
2699.424052  	94.869195 
2700.388477  	94.846493 
2701.352901  	94.845154 
2702.317326  	94.849364 
2703.281750  	94.865649 
2704.246175  	94.874024 
2705.210599  	94.852394 
2706.175024  	94.846008 
2707.139448  	94.854320 
2708.103872  	94.845800 
2709.068297  	94.856661 
2710.032721  	94.851318 
2710.997146  	94.833766 
2711.961570  	94.824566 
2712.925995  	94.829579 
2713.890419  	94.840223 
2714.854844  	94.861592 
2715.819268  	94.885011 
2716.783693  	94.876138 
2717.748117  	94.861449 
2718.712541  	94.860868 
2719.676966  	94.851908 
2720.641390  	94.847627 
2721.605815  	94.861226 
2722.570239  	94.859911 
2723.534664  	94.854730 
2724.499088  	94.839367 
2725.463513  	94.816414 
2726.427937  	94.814472 
2727.392362  	94.823920 
2728.356786  	94.817954 
2729.321210  	94.794324 
2730.285635  	94.799276 
2731.250059  	94.796241 
2732.214484  	94.807399 
2733.178908  	94.832317 
2734.143333  	94.816708 
2735.107757  	94.789865 
2736.072182  	94.802898 
2737.036606  	94.804427 
2738.001031  	94.790981 
2738.965455  	94.792565 
2739.929879  	94.798050 
2740.894304  	94.782151 
2741.858728  	94.756045 
2742.823153  	94.737781 
2743.787577  	94.741043 
2744.752002  	94.756264 
2745.716426  	94.742830 
2746.680851  	94.735699 
2747.645275  	94.743540 
2748.609700  	94.740851 
2749.574124  	94.730936 
2750.538549  	94.746184 
2751.502973  	94.731227 
2752.467397  	94.733832 
2753.431822  	94.749978 
2754.396246  	94.751974 
2755.360671  	94.745724 
2756.325095  	94.770648 
2757.289520  	94.749428 
2758.253944  	94.754685 
2759.218369  	94.776348 
2760.182793  	94.751835 
2761.147218  	94.708433 
2762.111642  	94.709444 
2763.076066  	94.733936 
2764.040491  	94.763684 
2765.004915  	94.760853 
2765.969340  	94.762973 
2766.933764  	94.769099 
2767.898189  	94.747905 
2768.862613  	94.720001 
2769.827038  	94.732410 
2770.791462  	94.743714 
2771.755887  	94.683224 
2772.720311  	94.648926 
2773.684735  	94.686914 
2774.649160  	94.717096 
2775.613584  	94.713601 
2776.578009  	94.704610 
2777.542433  	94.682675 
2778.506858  	94.675072 
2779.471282  	94.713551 
2780.435707  	94.698976 
2781.400131  	94.649992 
2782.364556  	94.663892 
2783.328980  	94.678741 
2784.293404  	94.658802 
2785.257829  	94.668513 
2786.222253  	94.679263 
2787.186678  	94.669538 
2788.151102  	94.630612 
2789.115527  	94.655917 
2790.079951  	94.675942 
2791.044376  	94.661248 
2792.008800  	94.616321 
2792.973225  	94.591455 
2793.937649  	94.619506 
2794.902073  	94.621448 
2795.866498  	94.600749 
2796.830922  	94.603689 
2797.795347  	94.594439 
2798.759771  	94.588375 
2799.724196  	94.551337 
2800.688620  	94.516617 
2801.653045  	94.503279 
2802.617469  	94.516933 
2803.581894  	94.561607 
2804.546318  	94.583847 
2805.510743  	94.555612 
2806.475167  	94.516991 
2807.439591  	94.497237 
2808.404016  	94.493321 
2809.368440  	94.501556 
2810.332865  	94.512818 
2811.297289  	94.469427 
2812.261714  	94.468009 
2813.226138  	94.490853 
2814.190563  	94.463680 
2815.154987  	94.456458 
2816.119412  	94.455580 
2817.083836  	94.446779 
2818.048260  	94.429102 
2819.012685  	94.442859 
2819.977109  	94.500784 
2820.941534  	94.503778 
2821.905958  	94.495106 
2822.870383  	94.461459 
2823.834807  	94.434444 
2824.799232  	94.408209 
2825.763656  	94.393055 
2826.728081  	94.378933 
2827.692505  	94.360848 
2828.656929  	94.370653 
2829.621354  	94.382567 
2830.585778  	94.368027 
2831.550203  	94.328444 
2832.514627  	94.281844 
2833.479052  	94.258206 
2834.443476  	94.250612 
2835.407901  	94.251971 
2836.372325  	94.206827 
2837.336750  	94.125219 
2838.301174  	94.038647 
2839.265598  	93.977432 
2840.230023  	93.935942 
2841.194447  	93.877292 
2842.158872  	93.770501 
2843.123296  	93.639938 
2844.087721  	93.482191 
2845.052145  	93.270745 
2846.016570  	92.988719 
2846.980994  	92.678883 
2847.945419  	92.359474 
2848.909843  	92.081784 
2849.874267  	91.970440 
2850.838692  	92.077296 
2851.803116  	92.296692 
2852.767541  	92.496363 
2853.731965  	92.672641 
2854.696390  	92.863298 
2855.660814  	93.022473 
2856.625239  	93.141530 
2857.589663  	93.222304 
2858.554088  	93.306586 
2859.518512  	93.383674 
2860.482936  	93.444259 
2861.447361  	93.498619 
2862.411785  	93.563396 
2863.376210  	93.610326 
2864.340634  	93.591063 
2865.305059  	93.582018 
2866.269483  	93.622807 
2867.233908  	93.633082 
2868.198332  	93.620102 
2869.162757  	93.609529 
2870.127181  	93.596475 
2871.091606  	93.558704 
2872.056030  	93.575522 
2873.020454  	93.624834 
2873.984879  	93.622536 
2874.949303  	93.580485 
2875.913728  	93.559708 
2876.878152  	93.543244 
2877.842577  	93.548018 
2878.807001  	93.555055 
2879.771426  	93.570767 
2880.735850  	93.536345 
2881.700275  	93.492596 
2882.664699  	93.475785 
2883.629123  	93.430365 
2884.593548  	93.396094 
2885.557972  	93.381727 
2886.522397  	93.329035 
2887.486821  	93.298183 
2888.451246  	93.277424 
2889.415670  	93.244640 
2890.380095  	93.181380 
2891.344519  	93.142891 
2892.308944  	93.095622 
2893.273368  	93.068559 
2894.237792  	93.058570 
2895.202217  	92.968097 
2896.166641  	92.881428 
2897.131066  	92.880508 
2898.095490  	92.877550 
2899.059915  	92.833497 
2900.024339  	92.749390 
2900.988764  	92.655704 
2901.953188  	92.602140 
2902.917613  	92.538525 
2903.882037  	92.433496 
2904.846461  	92.374192 
2905.810886  	92.320000 
2906.775310  	92.256004 
2907.739735  	92.159842 
2908.704159  	92.030435 
2909.668584  	91.930307 
2910.633008  	91.860187 
2911.597433  	91.762885 
2912.561857  	91.634529 
2913.526282  	91.469704 
2914.490706  	91.258002 
2915.455130  	91.033921 
2916.419555  	90.878452 
2917.383979  	90.828196 
2918.348404  	90.821954 
2919.312828  	90.887076 
2920.277253  	90.991409 
2921.241677  	91.079453 
2922.206102  	91.230178 
2923.170526  	91.391723 
2924.134951  	91.541684 
2925.099375  	91.668649 
2926.063800  	91.790905 
2927.028224  	91.960905 
2927.992648  	92.128879 
2928.957073  	92.258652 
2929.921497  	92.312417 
2930.885922  	92.386657 
2931.850346  	92.502450 
2932.814771  	92.601525 
2933.779195  	92.704724 
2934.743620  	92.799971 
2935.708044  	92.834986 
2936.672469  	92.865485 
2937.636893  	92.942065 
2938.601317  	92.997337 
2939.565742  	93.046411 
2940.530166  	93.084532 
2941.494591  	93.058253 
2942.459015  	93.055356 
2943.423440  	93.087838 
2944.387864  	93.061863 
2945.352289  	93.029361 
2946.316713  	93.033501 
2947.281138  	93.037991 
2948.245562  	93.002444 
2949.209986  	92.895823 
2950.174411  	92.808095 
2951.138835  	92.788392 
2952.103260  	92.709345 
2953.067684  	92.642533 
2954.032109  	92.614490 
2954.996533  	92.577710 
2955.960958  	92.496450 
2956.925382  	92.434012 
2957.889807  	92.431600 
2958.854231  	92.428663 
2959.818655  	92.378197 
2960.783080  	92.344677 
2961.747504  	92.306409 
2962.711929  	92.288878 
2963.676353  	92.264741 
2964.640778  	92.192650 
2965.605202  	92.143630 
2966.569627  	92.124293 
2967.534051  	92.176030 
2968.498476  	92.285871 
2969.462900  	92.283193 
2970.427324  	92.253436 
2971.391749  	92.296222 
2972.356173  	92.367376 
2973.320598  	92.454781 
2974.285022  	92.526774 
2975.249447  	92.570783 
2976.213871  	92.676771 
2977.178296  	92.761228 
2978.142720  	92.814903 
2979.107145  	92.880380 
2980.071569  	93.000873 
2981.035993  	93.067581 
2982.000418  	93.149080 
2982.964842  	93.271820 
2983.929267  	93.312680 
2984.893691  	93.336202 
2985.858116  	93.383781 
2986.822540  	93.460010 
2987.786965  	93.489052 
2988.751389  	93.491104 
2989.715814  	93.523081 
2990.680238  	93.570873 
2991.644663  	93.598706 
2992.609087  	93.607751 
2993.573511  	93.609304 
2994.537936  	93.611223 
2995.502360  	93.681651 
2996.466785  	93.721265 
2997.431209  	93.739115 
2998.395634  	93.763356 
2999.360058  	93.773206 
3000.324483  	93.789761 
3001.288907  	93.795183 
3002.253332  	93.768451 
3003.217756  	93.748921 
3004.182180  	93.706693 
3005.146605  	93.729436 
3006.111029  	93.791662 
3007.075454  	93.841347 
3008.039878  	93.882126 
3009.004303  	93.938452 
3009.968727  	93.932159 
3010.933152  	93.902241 
3011.897576  	93.898461 
3012.862001  	93.821354 
3013.826425  	93.897926 
3014.790849  	94.008525 
3015.755274  	93.988422 
3016.719698  	94.038433 
3017.684123  	94.128680 
3018.648547  	94.143530 
3019.612972  	94.125051 
3020.577396  	94.173590 
3021.541821  	94.228468 
3022.506245  	94.259140 
3023.470670  	94.285181 
3024.435094  	94.288970 
3025.399518  	94.262713 
3026.363943  	94.315666 
3027.328367  	94.372451 
3028.292792  	94.356873 
3029.257216  	94.389324 
3030.221641  	94.372347 
3031.186065  	94.271773 
3032.150490  	94.223465 
3033.114914  	94.342454 
3034.079339  	94.344534 
3035.043763  	94.332164 
3036.008187  	94.413053 
3036.972612  	94.433802 
3037.937036  	94.394937 
3038.901461  	94.373089 
3039.865885  	94.358704 
3040.830310  	94.405392 
3041.794734  	94.449294 
3042.759159  	94.390944 
3043.723583  	94.385385 
3044.688008  	94.396464 
3045.652432  	94.407108 
3046.616857  	94.381582 
3047.581281  	94.314712 
3048.545705  	94.213257 
3049.510130  	94.131995 
3050.474554  	94.138722 
3051.438979  	94.158476 
3052.403403  	94.162237 
3053.367828  	94.137303 
3054.332252  	94.087739 
3055.296677  	94.061280 
3056.261101  	93.959118 
3057.225526  	93.956504 
3058.189950  	94.070851 
3059.154374  	94.143204 
3060.118799  	94.163408 
3061.083223  	94.189026 
3062.047648  	94.197995 
3063.012072  	94.193965 
3063.976497  	94.084974 
3064.940921  	93.979436 
3065.905346  	94.064417 
3066.869770  	94.061655 
3067.834195  	94.037793 
3068.798619  	94.100342 
3069.763043  	94.141666 
3070.727468  	94.180334 
3071.691892  	94.227007 
3072.656317  	94.191798 
3073.620741  	94.128234 
3074.585166  	94.140911 
3075.549590  	94.170059 
3076.514015  	94.152258 
3077.478439  	94.100625 
3078.442864  	94.091051 
3079.407288  	94.077580 
3080.371712  	94.084826 
3081.336137  	94.110413 
3082.300561  	94.077943 
3083.264986  	94.123514 
3084.229410  	94.227714 
3085.193835  	94.196204 
3086.158259  	94.157925 
3087.122684  	94.172897 
3088.087108  	94.194498 
3089.051533  	94.196733 
3090.015957  	94.197089 
3090.980381  	94.215546 
3091.944806  	94.265996 
3092.909230  	94.286073 
3093.873655  	94.239901 
3094.838079  	94.206732 
3095.802504  	94.206654 
3096.766928  	94.212685 
3097.731353  	94.220754 
3098.695777  	94.227619 
3099.660202  	94.191007 
3100.624626  	94.112558 
3101.589050  	94.048247 
3102.553475  	94.088955 
3103.517899  	94.144019 
3104.482324  	94.192857 
3105.446748  	94.173280 
3106.411173  	94.130157 
3107.375597  	94.164201 
3108.340022  	94.197098 
3109.304446  	94.184142 
3110.268871  	94.191213 
3111.233295  	94.221234 
3112.197720  	94.190164 
3113.162144  	94.199453 
3114.126568  	94.230300 
3115.090993  	94.211932 
3116.055417  	94.216165 
3117.019842  	94.291495 
3117.984266  	94.320061 
3118.948691  	94.243584 
3119.913115  	94.328737 
3120.877540  	94.385021 
3121.841964  	94.271996 
3122.806389  	94.161011 
3123.770813  	94.221952 
3124.735237  	94.303031 
3125.699662  	94.268951 
3126.664086  	94.237616 
3127.628511  	94.275885 
3128.592935  	94.309360 
3129.557360  	94.274834 
3130.521784  	94.284195 
3131.486209  	94.302851 
3132.450633  	94.219703 
3133.415058  	94.161591 
3134.379482  	94.287591 
3135.343906  	94.351244 
3136.308331  	94.350417 
3137.272755  	94.328639 
3138.237180  	94.322420 
3139.201604  	94.353580 
3140.166029  	94.359295 
3141.130453  	94.382151 
3142.094878  	94.342805 
3143.059302  	94.282680 
3144.023727  	94.305541 
3144.988151  	94.358338 
3145.952575  	94.337748 
3146.917000  	94.276435 
3147.881424  	94.291122 
3148.845849  	94.386606 
3149.810273  	94.382180 
3150.774698  	94.351754 
3151.739122  	94.357081 
3152.703547  	94.325446 
3153.667971  	94.317009 
3154.632396  	94.346425 
3155.596820  	94.340714 
3156.561244  	94.305778 
3157.525669  	94.331547 
3158.490093  	94.323314 
3159.454518  	94.323318 
3160.418942  	94.335891 
3161.383367  	94.340175 
3162.347791  	94.357989 
3163.312216  	94.359421 
3164.276640  	94.348477 
3165.241065  	94.358046 
3166.205489  	94.355180 
3167.169914  	94.336597 
3168.134338  	94.268879 
3169.098762  	94.250150 
3170.063187  	94.225686 
3171.027611  	94.185553 
3171.992036  	94.210012 
3172.956460  	94.258319 
3173.920885  	94.302498 
3174.885309  	94.247129 
3175.849734  	94.231215 
3176.814158  	94.251376 
3177.778583  	94.145774 
3178.743007  	94.106732 
3179.707431  	94.161084 
3180.671856  	94.203443 
3181.636280  	94.292044 
3182.600705  	94.302563 
3183.565129  	94.195794 
3184.529554  	94.133677 
3185.493978  	94.140285 
3186.458403  	94.180647 
3187.422827  	94.194465 
3188.387252  	94.174508 
3189.351676  	94.182160 
3190.316100  	94.196548 
3191.280525  	94.183423 
3192.244949  	94.179670 
3193.209374  	94.251679 
3194.173798  	94.265843 
3195.138223  	94.246917 
3196.102647  	94.199549 
3197.067072  	94.083583 
3198.031496  	94.044723 
3198.995921  	94.180581 
3199.960345  	94.252152 
3200.924769  	94.257428 
3201.889194  	94.276309 
3202.853618  	94.254995 
3203.818043  	94.203716 
3204.782467  	94.138477 
3205.746892  	94.114580 
3206.711316  	94.125255 
3207.675741  	94.112047 
3208.640165  	94.124126 
3209.604590  	94.095717 
3210.569014  	94.037806 
3211.533438  	94.081327 
3212.497863  	94.107922 
3213.462287  	94.064399 
3214.426712  	93.974363 
3215.391136  	94.045482 
3216.355561  	94.111628 
3217.319985  	94.072285 
3218.284410  	94.055691 
3219.248834  	94.034856 
3220.213259  	94.059737 
3221.177683  	94.093579 
3222.142107  	94.064039 
3223.106532  	94.031979 
3224.070956  	94.061598 
3225.035381  	94.096685 
3225.999805  	94.077118 
3226.964230  	94.007056 
3227.928654  	93.957251 
3228.893079  	94.048616 
3229.857503  	94.134303 
3230.821928  	94.068158 
3231.786352  	94.040262 
3232.750777  	94.068978 
3233.715201  	94.060081 
3234.679625  	93.986742 
3235.644050  	93.939732 
3236.608474  	93.983541 
3237.572899  	94.000920 
3238.537323  	94.013415 
3239.501748  	93.996937 
3240.466172  	93.996180 
3241.430597  	94.059109 
3242.395021  	94.078334 
3243.359446  	94.000890 
3244.323870  	93.923218 
3245.288294  	93.817273 
3246.252719  	93.854312 
3247.217143  	93.928912 
3248.181568  	93.932839 
3249.145992  	93.923049 
3250.110417  	93.904425 
3251.074841  	93.868643 
3252.039266  	93.918187 
3253.003690  	93.970453 
3253.968115  	93.892276 
3254.932539  	93.806761 
3255.896963  	93.827224 
3256.861388  	93.820829 
3257.825812  	93.872480 
3258.790237  	93.829709 
3259.754661  	93.771709 
3260.719086  	93.783173 
3261.683510  	93.818680 
3262.647935  	93.822625 
3263.612359  	93.823975 
3264.576784  	93.787028 
3265.541208  	93.762640 
3266.505632  	93.778479 
3267.470057  	93.811216 
3268.434481  	93.836689 
3269.398906  	93.804494 
3270.363330  	93.759192 
3271.327755  	93.725342 
3272.292179  	93.746606 
3273.256604  	93.711199 
3274.221028  	93.642760 
3275.185453  	93.731419 
3276.149877  	93.694050 
3277.114301  	93.605081 
3278.078726  	93.658029 
3279.043150  	93.681248 
3280.007575  	93.687981 
3280.971999  	93.665762 
3281.936424  	93.680924 
3282.900848  	93.708188 
3283.865273  	93.651348 
3284.829697  	93.638629 
3285.794122  	93.659281 
3286.758546  	93.670662 
3287.722971  	93.668258 
3288.687395  	93.702504 
3289.651819  	93.747418 
3290.616244  	93.721680 
3291.580668  	93.648491 
3292.545093  	93.591761 
3293.509517  	93.628871 
3294.473942  	93.704855 
3295.438366  	93.647455 
3296.402791  	93.618786 
3297.367215  	93.624003 
3298.331640  	93.633010 
3299.296064  	93.656823 
3300.260488  	93.642668 
3301.224913  	93.669216 
3302.189337  	93.734786 
3303.153762  	93.702925 
3304.118186  	93.660497 
3305.082611  	93.693791 
3306.047035  	93.747988 
3307.011460  	93.801557 
3307.975884  	93.708426 
3308.940309  	93.606065 
3309.904733  	93.654622 
3310.869157  	93.661865 
3311.833582  	93.637992 
3312.798006  	93.630066 
3313.762431  	93.659708 
3314.726855  	93.732478 
3315.691280  	93.704519 
3316.655704  	93.682734 
3317.620129  	93.690935 
3318.584553  	93.678293 
3319.548978  	93.676095 
3320.513402  	93.691542 
3321.477826  	93.673211 
3322.442251  	93.641410 
3323.406675  	93.650584 
3324.371100  	93.685209 
3325.335524  	93.705574 
3326.299949  	93.698678 
3327.264373  	93.618165 
3328.228798  	93.593017 
3329.193222  	93.629519 
3330.157647  	93.604168 
3331.122071  	93.566814 
3332.086495  	93.595568 
3333.050920  	93.579777 
3334.015344  	93.528307 
3334.979769  	93.489471 
3335.944193  	93.499844 
3336.908618  	93.457684 
3337.873042  	93.502809 
3338.837467  	93.583171 
3339.801891  	93.624176 
3340.766316  	93.617865 
3341.730740  	93.565293 
3342.695164  	93.546686 
3343.659589  	93.614119 
3344.624013  	93.723504 
3345.588438  	93.768105 
3346.552862  	93.714690 
3347.517287  	93.660085 
3348.481711  	93.693954 
3349.446136  	93.737544 
3350.410560  	93.769093 
3351.374985  	93.841154 
3352.339409  	93.888902 
3353.303834  	93.810762 
3354.268258  	93.794493 
3355.232682  	93.742097 
3356.197107  	93.612879 
3357.161531  	93.670511 
3358.125956  	93.785678 
3359.090380  	93.794972 
3360.054805  	93.671560 
3361.019229  	93.640093 
3361.983654  	93.649654 
3362.948078  	93.682777 
3363.912503  	93.737169 
3364.876927  	93.703134 
3365.841351  	93.732604 
3366.805776  	93.743513 
3367.770200  	93.687500 
3368.734625  	93.666416 
3369.699049  	93.776268 
3370.663474  	93.890221 
3371.627898  	93.882360 
3372.592323  	93.814290 
3373.556747  	93.796322 
3374.521172  	93.864431 
3375.485596  	93.875096 
3376.450020  	93.807525 
3377.414445  	93.786561 
3378.378869  	93.852741 
3379.343294  	93.879617 
3380.307718  	93.871210 
3381.272143  	93.948594 
3382.236567  	93.961442 
3383.200992  	93.855781 
3384.165416  	93.749003 
3385.129841  	93.730095 
3386.094265  	93.778268 
3387.058689  	93.779306 
3388.023114  	93.804101 
3388.987538  	93.896874 
3389.951963  	93.888541 
3390.916387  	93.854016 
3391.880812  	93.791634 
3392.845236  	93.551609 
3393.809661  	93.645363 
3394.774085  	93.900277 
3395.738510  	93.872022 
3396.702934  	93.795891 
3397.667358  	93.693447 
3398.631783  	93.792660 
3399.596207  	93.939784 
3400.560632  	93.896014 
3401.525056  	93.837829 
3402.489481  	93.881659 
3403.453905  	93.828790 
3404.418330  	93.824044 
3405.382754  	93.841207 
3406.347179  	93.862275 
3407.311603  	93.826586 
3408.276028  	93.803853 
3409.240452  	93.730697 
3410.204876  	93.668056 
3411.169301  	93.705917 
3412.133725  	93.789158 
3413.098150  	93.833056 
3414.062574  	93.767507 
3415.026999  	93.702096 
3415.991423  	93.612670 
3416.955848  	93.620265 
3417.920272  	93.603677 
3418.884697  	93.547347 
3419.849121  	93.349857 
3420.813545  	93.030858 
3421.777970  	93.025102 
3422.742394  	93.179646 
3423.706819  	93.378755 
3424.671243  	93.475597 
3425.635668  	93.467491 
3426.600092  	93.483876 
3427.564517  	93.514689 
3428.528941  	93.493797 
3429.493366  	93.467902 
3430.457790  	93.404926 
3431.422214  	93.370983 
3432.386639  	93.447917 
3433.351063  	93.531908 
3434.315488  	93.613081 
3435.279912  	93.643504 
3436.244337  	93.645005 
3437.208761  	93.667128 
3438.173186  	93.661651 
3439.137610  	93.652612 
3440.102035  	93.704601 
3441.066459  	93.715607 
3442.030883  	93.607573 
3442.995308  	93.439032 
3443.959732  	93.596767 
3444.924157  	93.707558 
3445.888581  	93.669699 
3446.853006  	93.234659 
3447.817430  	92.899366 
3448.781855  	93.486928 
3449.746279  	93.819288 
3450.710704  	93.883444 
3451.675128  	93.935650 
3452.639552  	93.973160 
3453.603977  	93.915517 
3454.568401  	93.883629 
3455.532826  	93.898206 
3456.497250  	93.940486 
3457.461675  	93.958356 
3458.426099  	93.917318 
3459.390524  	93.971294 
3460.354948  	93.990032 
3461.319373  	93.820421 
3462.283797  	93.701602 
3463.248221  	93.724416 
3464.212646  	93.958900 
3465.177070  	94.056486 
3466.141495  	93.979324 
3467.105919  	93.721305 
3468.070344  	93.909663 
3469.034768  	94.161132 
3469.999193  	94.129409 
3470.963617  	94.040129 
3471.928042  	94.029315 
3472.892466  	94.039424 
3473.856891  	94.048294 
3474.821315  	93.942239 
3475.785739  	94.000755 
3476.750164  	94.164323 
3477.714588  	94.236391 
3478.679013  	94.212155 
3479.643437  	94.119489 
3480.607862  	93.808844 
3481.572286  	93.652026 
3482.536711  	93.523869 
3483.501135  	93.760682 
3484.465560  	94.076708 
3485.429984  	94.120487 
3486.394408  	94.117418 
3487.358833  	94.088019 
3488.323257  	93.792193 
3489.287682  	93.821158 
3490.252106  	94.113603 
3491.216531  	94.157613 
3492.180955  	94.224602 
3493.145380  	94.274833 
3494.109804  	94.317614 
3495.074229  	94.137698 
3496.038653  	93.872108 
3497.003077  	93.815123 
3497.967502  	94.025114 
3498.931926  	94.160511 
3499.896351  	94.060315 
3500.860775  	94.006261 
3501.825200  	93.727025 
3502.789624  	93.246099 
3503.754049  	93.095185 
3504.718473  	93.455987 
3505.682898  	93.826013 
3506.647322  	94.141633 
3507.611746  	94.288864 
3508.576171  	93.975096 
3509.540595  	93.225458 
3510.505020  	93.373885 
3511.469444  	93.927349 
3512.433869  	94.061661 
3513.398293  	94.137633 
3514.362718  	94.207376 
3515.327142  	94.289583 
3516.291567  	94.281353 
3517.255991  	94.139651 
3518.220415  	94.052422 
3519.184840  	94.012429 
3520.149264  	94.084272 
3521.113689  	94.250656 
3522.078113  	94.039084 
3523.042538  	93.202708 
3524.006962  	92.770649 
3524.971387  	93.157859 
3525.935811  	93.349767 
3526.900236  	93.286936 
3527.864660  	93.119508 
3528.829085  	93.231355 
3529.793509  	93.478702 
3530.757933  	93.785319 
3531.722358  	93.799764 
3532.686782  	94.014824 
3533.651207  	94.270303 
3534.615631  	94.321475 
3535.580056  	94.016945 
3536.544480  	93.335724 
3537.508905  	93.464740 
3538.473329  	94.037099 
3539.437754  	94.058508 
3540.402178  	94.054303 
3541.366602  	94.113608 
3542.331027  	94.197057 
3543.295451  	93.905593 
3544.259876  	93.420632 
3545.224300  	92.524140 
3546.188725  	92.318179 
3547.153149  	92.390130 
3548.117574  	92.836836 
3549.081998  	93.729873 
3550.046423  	94.053319 
3551.010847  	94.002129 
3551.975271  	93.414672 
3552.939696  	93.044285 
3553.904120  	93.351349 
3554.868545  	93.794881 
3555.832969  	94.183696 
3556.797394  	94.098628 
3557.761818  	94.078745 
3558.726243  	94.203787 
3559.690667  	93.833077 
3560.655092  	93.320031 
3561.619516  	93.648114 
3562.583940  	93.643588 
3563.548365  	93.515883 
3564.512789  	93.480511 
3565.477214  	92.739380 
3566.441638  	90.474763 
3567.406063  	90.244453 
3568.370487  	90.710177 
3569.334912  	92.220855 
3570.299336  	93.508295 
3571.263761  	93.776370 
3572.228185  	94.162925 
3573.192609  	94.172475 
3574.157034  	94.019116 
3575.121458  	93.985718 
3576.085883  	94.161186 
3577.050307  	94.082572 
3578.014732  	94.013754 
3578.979156  	94.078940 
3579.943581  	93.702412 
3580.908005  	93.638966 
3581.872430  	94.087309 
3582.836854  	94.159193 
3583.801278  	94.054017 
3584.765703  	94.079872 
3585.730127  	93.650696 
3586.694552  	91.952318 
3587.658976  	90.849276 
3588.623401  	91.203814 
3589.587825  	92.297279 
3590.552250  	93.713289 
3591.516674  	94.146553 
3592.481099  	94.078322 
3593.445523  	93.387959 
3594.409948  	93.389428 
3595.374372  	93.019943 
3596.338796  	92.801102 
3597.303221  	93.682207 
3598.267645  	93.770373 
3599.232070  	93.414814 
3600.196494  	93.475732 
3601.160919  	93.178606 
3602.125343  	93.446876 
3603.089768  	93.763739 
3604.054192  	94.102878 
3605.018617  	94.325377 
3605.983041  	94.180309 
3606.947465  	93.087212 
3607.911890  	92.401173 
3608.876314  	92.630443 
3609.840739  	92.330543 
3610.805163  	93.389585 
3611.769588  	93.519771 
3612.734012  	92.240428 
3613.698437  	92.205795 
3614.662861  	92.481752 
3615.627286  	92.596949 
3616.591710  	93.545354 
3617.556134  	93.071445 
3618.520559  	92.176508 
3619.484983  	92.022380 
3620.449408  	91.991325 
3621.413832  	92.747577 
3622.378257  	93.545444 
3623.342681  	94.008937 
3624.307106  	94.215410 
3625.271530  	94.174874 
3626.235955  	93.681737 
3627.200379  	93.431841 
3628.164803  	92.541409 
3629.129228  	89.662623 
3630.093652  	90.037294 
3631.058077  	92.572129 
3632.022501  	93.714715 
3632.986926  	93.781674 
3633.951350  	92.989586 
3634.915775  	93.301398 
3635.880199  	94.146983 
3636.844624  	94.351424 
3637.809048  	94.151627 
3638.773472  	94.000231 
3639.737897  	94.232972 
3640.702321  	94.297850 
3641.666746  	93.981808 
3642.631170  	93.498577 
3643.595595  	93.807832 
3644.560019  	94.260850 
3645.524444  	93.965638 
3646.488868  	92.904686 
3647.453293  	91.044699 
3648.417717  	91.008945 
3649.382142  	90.933968 
3650.346566  	90.065151 
3651.310990  	90.183541 
3652.275415  	92.321714 
3653.239839  	93.815759 
3654.204264  	94.269615 
3655.168688  	94.157940 
3656.133113  	93.225759 
3657.097537  	92.804805 
3658.061962  	93.944399 
3659.026386  	94.324611 
3659.990811  	94.220245 
3660.955235  	94.361512 
3661.919659  	94.571688 
3662.884084  	94.629975 
3663.848508  	94.638205 
3664.812933  	94.545372 
3665.777357  	94.564537 
3666.741782  	94.623331 
3667.706206  	94.562220 
3668.670631  	93.658749 
3669.635055  	92.338592 
3670.599480  	91.565456 
3671.563904  	92.003614 
3672.528328  	93.716884 
3673.492753  	94.167136 
3674.457177  	93.037376 
3675.421602  	90.016765 
3676.386026  	90.143861 
3677.350451  	92.320757 
3678.314875  	93.330669 
3679.279300  	93.411441 
3680.243724  	93.412483 
3681.208149  	94.215314 
3682.172573  	94.596639 
3683.136997  	94.626366 
3684.101422  	94.506437 
3685.065846  	94.388712 
3686.030271  	94.545485 
3686.994695  	94.431103 
3687.959120  	93.668154 
3688.923544  	92.445756 
3689.887969  	92.847206 
3690.852393  	92.426558 
3691.816818  	92.172296 
3692.781242  	93.723809 
3693.745666  	94.295044 
3694.710091  	94.454575 
3695.674515  	94.585939 
3696.638940  	94.493904 
3697.603364  	94.595094 
3698.567789  	94.803250 
3699.532213  	94.730926 
3700.496638  	94.709265 
3701.461062  	93.971636 
3702.425487  	93.268897 
3703.389911  	94.228756 
3704.354335  	94.719637 
3705.318760  	94.636253 
3706.283184  	94.606214 
3707.247609  	94.715680 
3708.212033  	94.678724 
3709.176458  	94.039901 
3710.140882  	93.247230 
3711.105307  	92.971091 
3712.069731  	92.029259 
3713.034156  	92.066803 
3713.998580  	93.512252 
3714.963005  	93.686747 
3715.927429  	94.017376 
3716.891853  	94.690418 
3717.856278  	94.783065 
3718.820702  	94.038210 
3719.785127  	93.657425 
3720.749551  	94.370163 
3721.713976  	94.069915 
3722.678400  	92.637875 
3723.642825  	93.151745 
3724.607249  	93.608660 
3725.571674  	92.918399 
3726.536098  	92.685169 
3727.500522  	92.955005 
3728.464947  	93.949735 
3729.429371  	94.587715 
3730.393796  	94.551359 
3731.358220  	94.145616 
3732.322645  	93.235635 
3733.287069  	93.173448 
3734.251494  	92.686658 
3735.215918  	89.584805 
3736.180343  	89.772944 
3737.144767  	91.452309 
3738.109191  	92.514395 
3739.073616  	93.064403 
3740.038040  	93.684642 
3741.002465  	93.348587 
3741.966889  	93.349532 
3742.931314  	93.908493 
3743.895738  	93.031470 
3744.860163  	89.572476 
3745.824587  	91.566656 
3746.789012  	92.905758 
3747.753436  	93.063400 
3748.717860  	93.019637 
3749.682285  	92.511158 
3750.646709  	92.098588 
3751.611134  	91.842105 
3752.575558  	90.658423 
3753.539983  	92.222787 
3754.504407  	93.419478 
3755.468832  	94.038691 
3756.433256  	93.777663 
3757.397681  	93.686564 
3758.362105  	93.909406 
3759.326529  	93.002297 
3760.290954  	92.518274 
3761.255378  	93.998273 
3762.219803  	94.470969 
3763.184227  	94.529971 
3764.148652  	94.577506 
3765.113076  	94.184938 
3766.077501  	93.297109 
3767.041925  	93.924111 
3768.006350  	94.548156 
3768.970774  	94.291829 
3769.935199  	93.306892 
3770.899623  	93.356613 
3771.864047  	94.218046 
3772.828472  	94.619186 
3773.792896  	94.768698 
3774.757321  	94.872525 
3775.721745  	94.957676 
3776.686170  	95.024292 
3777.650594  	94.935710 
3778.615019  	94.491098 
3779.579443  	93.586436 
3780.543868  	93.668555 
3781.508292  	94.541272 
3782.472716  	94.709442 
3783.437141  	94.789025 
3784.401565  	94.426571 
3785.365990  	93.855715 
3786.330414  	94.169455 
3787.294839  	94.560313 
3788.259263  	94.789977 
3789.223688  	94.872392 
3790.188112  	94.854909 
3791.152537  	94.958009 
3792.116961  	95.009195 
3793.081385  	95.006796 
3794.045810  	95.001582 
3795.010234  	94.855308 
3795.974659  	94.346051 
3796.939083  	93.427115 
3797.903508  	93.578866 
3798.867932  	94.175707 
3799.832357  	94.349134 
3800.796781  	93.479573 
3801.761206  	91.943905 
3802.725630  	92.243819 
3803.690054  	93.369388 
3804.654479  	94.379073 
3805.618903  	94.566520 
3806.583328  	93.871670 
3807.547752  	93.041513 
3808.512177  	94.025352 
3809.476601  	94.540832 
3810.441026  	94.635674 
3811.405450  	94.814126 
3812.369875  	94.934931 
3813.334299  	94.954175 
3814.298723  	94.828489 
3815.263148  	94.260714 
3816.227572  	92.761612 
3817.191997  	92.962227 
3818.156421  	94.054456 
3819.120846  	94.112349 
3820.085270  	93.449578 
3821.049695  	91.793660 
3822.014119  	91.482779 
3822.978544  	93.229758 
3823.942968  	93.917058 
3824.907392  	94.232823 
3825.871817  	94.227769 
3826.836241  	93.662169 
3827.800666  	93.674726 
3828.765090  	94.353141 
3829.729515  	94.739008 
3830.693939  	94.660645 
3831.658364  	93.815578 
3832.622788  	93.740711 
3833.587213  	94.468747 
3834.551637  	94.133884 
3835.516062  	93.459736 
3836.480486  	94.004339 
3837.444910  	93.633266 
3838.409335  	92.289255 
3839.373759  	92.722340 
3840.338184  	92.321358 
3841.302608  	92.372149 
3842.267033  	93.730546 
3843.231457  	93.846967 
3844.195882  	93.039349 
3845.160306  	93.916309 
3846.124731  	94.612089 
3847.089155  	94.775069 
3848.053579  	94.825729 
3849.018004  	94.575675 
3849.982428  	94.048674 
3850.946853  	94.009004 
3851.911277  	93.249969 
3852.875702  	91.511812 
3853.840126  	90.654534 
3854.804551  	90.829871 
3855.768975  	93.063969 
3856.733400  	93.383581 
3857.697824  	92.934957 
3858.662248  	93.988398 
3859.626673  	94.722853 
3860.591097  	94.730152 
3861.555522  	94.075200 
3862.519946  	93.428836 
3863.484371  	93.754675 
3864.448795  	93.048304 
3865.413220  	91.887023 
3866.377644  	93.251587 
3867.342069  	94.403544 
3868.306493  	94.439374 
3869.270917  	93.159898 
3870.235342  	91.015603 
3871.199766  	92.182644 
3872.164191  	93.588977 
3873.128615  	93.975554 
3874.093040  	92.708760 
3875.057464  	92.638893 
3876.021889  	94.318635 
3876.986313  	94.818469 
3877.950738  	94.883289 
3878.915162  	94.791312 
3879.879586  	93.795845 
3880.844011  	91.847135 
3881.808435  	92.960724 
3882.772860  	94.009588 
3883.737284  	93.769104 
3884.701709  	93.764296 
3885.666133  	93.007543 
3886.630558  	92.486585 
3887.594982  	94.077136 
3888.559407  	94.737557 
3889.523831  	94.785565 
3890.488256  	94.342048 
3891.452680  	93.055869 
3892.417104  	92.848696 
3893.381529  	93.820669 
3894.345953  	93.853851 
3895.310378  	94.170287 
3896.274802  	94.719789 
3897.239227  	94.777479 
3898.203651  	94.095054 
3899.168076  	93.015559 
3900.132500  	92.836108 
3901.096925  	93.565475 
3902.061349  	92.325158 
3903.025773  	92.225211 
3903.990198  	92.741206 
3904.954622  	92.183312 
3905.919047  	92.564710 
3906.883471  	93.482025 
3907.847896  	94.552625 
3908.812320  	94.918863 
3909.776745  	94.966633 
3910.741169  	94.946693 
3911.705594  	94.932359 
3912.670018  	94.934271 
3913.634442  	94.938081 
3914.598867  	94.967920 
3915.563291  	94.809000 
3916.527716  	93.836414 
3917.492140  	93.009069 
3918.456565  	93.917809 
3919.420989  	94.295544 
3920.385414  	93.589993 
3921.349838  	94.052669 
3922.314263  	94.791099 
3923.278687  	94.525707 
3924.243111  	93.684662 
3925.207536  	93.149394 
3926.171960  	93.884763 
3927.136385  	94.747768 
3928.100809  	94.818382 
3929.065234  	94.575384 
3930.029658  	94.211635 
3930.994083  	93.986641 
3931.958507  	93.602626 
3932.922932  	93.162826 
3933.887356  	93.925481 
3934.851780  	94.424271 
3935.816205  	94.774500 
3936.780629  	94.973926 
3937.745054  	94.890095 
3938.709478  	94.677293 
3939.673903  	94.817034 
3940.638327  	94.921641 
3941.602752  	94.745252 
3942.567176  	93.804034 
3943.531601  	93.293831 
3944.496025  	94.156980 
3945.460449  	94.659798 
3946.424874  	94.759511 
3947.389298  	94.169138 
3948.353723  	93.714842 
3949.318147  	93.995318 
3950.282572  	93.749872 
3951.246996  	94.161591 
3952.211421  	94.814719 
3953.175845  	94.733159 
3954.140270  	94.783358 
3955.104694  	94.891372 
3956.069119  	94.829718 
3957.033543  	94.658543 
3957.997967  	94.649218 
3958.962392  	94.762144 
3959.926816  	94.802618 
3960.891241  	94.736417 
3961.855665  	94.304748 
3962.820090  	94.271407 
3963.784514  	94.810464 
3964.748939  	94.904704 
3965.713363  	94.948483 
3966.677788  	95.029570 
3967.642212  	95.011150 
3968.606636  	94.792089 
3969.571061  	94.598400 
3970.535485  	94.753462 
3971.499910  	94.855504 
3972.464334  	94.646072 
3973.428759  	94.729488 
3974.393183  	94.848678 
3975.357608  	94.695328 
3976.322032  	94.525914 
3977.286457  	94.731617 
3978.250881  	95.002865 
3979.215305  	95.026659 
3980.179730  	94.957705 
3981.144154  	94.915472 
3982.108579  	94.844581 
3983.073003  	94.842580 
3984.037428  	94.991289 
3985.001852  	95.001594 
3985.966277  	94.985900 
3986.930701  	95.052330 
3987.895126  	95.037181 
3988.859550  	94.981408 
3989.823974  	94.881312 
3990.788399  	94.676119 
3991.752823  	94.754093 
3992.717248  	94.918985 
3993.681672  	94.928440 
3994.646097  	94.846835 
3995.610521  	94.724157 
3996.574946  	94.904707 
3997.539370  	95.041968 
3998.503795  	95.049251 
3999.468219  	95.014420 
4000.432643  	95.037569 
4001.397068  	95.027457 
4002.361492  	95.011253 
4003.325917  	94.990061 
4004.290341  	94.994688 
4005.254766  	94.990039 
4006.219190  	94.982466 
4007.183615  	94.948884 
4008.148039  	94.855831 
4009.112464  	94.743809 
4010.076888  	94.882506 
4011.041313  	94.960785 
4012.005737  	94.982340 
4012.970161  	94.963609 
4013.934586  	94.986628 
4014.899010  	94.974185 
4015.863435  	94.974315 
4016.827859  	95.004190 
4017.792284  	95.035559 
4018.756708  	95.030434 
4019.721133  	94.916113 
4020.685557  	94.884247 
4021.649982  	94.963443 
4022.614406  	94.994549 
4023.578830  	94.986389 
4024.543255  	94.940555 
4025.507679  	94.839848 
4026.472104  	94.853795 
4027.436528  	94.970376 
4028.400953  	94.989171 
4029.365377  	94.979478 
4030.329802  	95.003600 
4031.294226  	95.016378 
4032.258651  	94.984321 
4033.223075  	95.003659 
4034.187499  	95.045709 
4035.151924  	95.036110 
4036.116348  	95.005031 
4037.080773  	95.018127 
4038.045197  	95.029635 
4039.009622  	95.017741 
4039.974046  	94.987658 
4040.938471  	95.006120 
4041.902895  	95.004158 
4042.867320  	95.024126 
4043.831744  	94.936082 
4044.796168  	94.848288 
4045.760593  	94.873328 
4046.725017  	94.943988 
4047.689442  	94.974991 
4048.653866  	94.976016 
4049.618291  	94.985397 
4050.582715  	95.005360 
4051.547140  	94.993792 
4052.511564  	95.027848 
4053.475989  	95.036882 
4054.440413  	94.991505 
4055.404837  	94.938871 
4056.369262  	94.973959 
4057.333686  	94.988036 
4058.298111  	94.967160 
4059.262535  	94.970355 
4060.226960  	94.951418 
4061.191384  	94.921981 
4062.155809  	95.003686 
4063.120233  	95.049241 
4064.084658  	95.028572 
4065.049082  	95.025375 
4066.013506  	95.007897 
4066.977931  	95.009320 
4067.942355  	95.017787 
4068.906780  	94.993551 
4069.871204  	94.987864 
4070.835629  	95.006731 
4071.800053  	94.976085 
4072.764478  	94.922184 
4073.728902  	94.910728 
4074.693327  	94.942964 
4075.657751  	94.988282 
4076.622176  	94.966338 
4077.586600  	94.968179 
4078.551024  	94.945879 
4079.515449  	94.880832 
4080.479873  	94.885006 
4081.444298  	94.967056 
4082.408722  	94.967369 
4083.373147  	94.906069 
4084.337571  	94.873824 
4085.301996  	94.862728 
4086.266420  	94.837202 
4087.230845  	94.863448 
4088.195269  	94.824100 
4089.159693  	94.821406 
4090.124118  	94.877879 
4091.088542  	94.889645 
4092.052967  	94.904697 
4093.017391  	94.921066 
4093.981816  	94.927634 
4094.946240  	94.920088 
4095.910665  	94.937497 
4096.875089  	95.016929 
4097.839514  	94.977660 
4098.803938  	94.903857 
4099.768362  	94.975671 
4100.732787  	95.001272 
4101.697211  	94.976612 
4102.661636  	94.997306 
4103.626060  	94.999098 
4104.590485  	94.940705 
4105.554909  	94.885913 
4106.519334  	94.886928 
4107.483758  	94.890926 
4108.448183  	94.923788 
4109.412607  	94.944625 
4110.377031  	94.918319 
4111.341456  	94.960601 
4112.305880  	95.012642 
4113.270305  	94.980188 
4114.234729  	94.964889 
4115.199154  	94.988592 
4116.163578  	94.967847 
4117.128003  	94.938994 
4118.092427  	94.957379 
4119.056852  	94.977365 
4120.021276  	94.951778 
4120.985700  	94.959023 
4121.950125  	95.014905 
4122.914549  	94.997499 
4123.878974  	94.959343 
4124.843398  	94.956448 
4125.807823  	94.994981 
4126.772247  	94.991726 
4127.736672  	94.960446 
4128.701096  	94.958707 
4129.665521  	94.974419 
4130.629945  	94.978308 
4131.594370  	94.976437 
4132.558794  	94.994696 
4133.523218  	94.940508 
4134.487643  	94.910709 
4135.452067  	94.986277 
4136.416492  	95.057776 
4137.380916  	95.108018 
4138.345341  	95.061857 
4139.309765  	94.985346 
4140.274190  	95.023330 
4141.238614  	95.012187 
4142.203039  	95.015225 
4143.167463  	95.091767 
4144.131887  	95.023961 
4145.096312  	94.974353 
4146.060736  	95.008511 
4147.025161  	95.017086 
4147.989585  	95.003402 
4148.954010  	94.983020 
4149.918434  	94.955359 
4150.882859  	95.002642 
4151.847283  	95.005067 
4152.811708  	94.955365 
4153.776132  	94.999362 
4154.740556  	95.029797 
4155.704981  	94.957142 
4156.669405  	94.937214 
4157.633830  	94.990262 
4158.598254  	94.976931 
4159.562679  	94.955251 
4160.527103  	94.964077 
4161.491528  	94.964249 
4162.455952  	95.002065 
4163.420377  	95.042316 
4164.384801  	95.052352 
4165.349225  	95.037083 
4166.313650  	95.024614 
4167.278074  	95.013285 
4168.242499  	95.010134 
4169.206923  	95.034790 
4170.171348  	95.059089 
4171.135772  	95.073272 
4172.100197  	95.060209 
4173.064621  	94.986482 
4174.029046  	95.001568 
4174.993470  	95.041389 
4175.957894  	95.072348 
4176.922319  	95.122293 
4177.886743  	95.115992 
4178.851168  	95.049033 
4179.815592  	95.002131 
4180.780017  	95.010990 
4181.744441  	94.994128 
4182.708866  	94.988865 
4183.673290  	95.010185 
4184.637715  	95.000803 
4185.602139  	95.004868 
4186.566563  	94.971413 
4187.530988  	94.990310 
4188.495412  	95.026807 
4189.459837  	95.044360 
4190.424261  	95.047673 
4191.388686  	95.047384 
4192.353110  	95.074683 
4193.317535  	95.092499 
4194.281959  	95.026161 
4195.246384  	95.003180 
4196.210808  	95.026391 
4197.175233  	95.021074 
4198.139657  	95.029839 
4199.104081  	94.998995 
4200.068506  	94.977879 
4201.032930  	95.031941 
4201.997355  	95.127059 
4202.961779  	95.162274 
4203.926204  	95.082638 
4204.890628  	95.006213 
4205.855053  	95.012696 
4206.819477  	95.009105 
4207.783902  	94.991562 
4208.748326  	95.037831 
4209.712750  	95.100005 
4210.677175  	95.096496 
4211.641599  	95.057416 
4212.606024  	95.053012 
4213.570448  	95.095736 
4214.534873  	95.111129 
4215.499297  	95.049196 
4216.463722  	95.030994 
4217.428146  	95.026518 
4218.392571  	95.060047 
4219.356995  	95.108016 
4220.321419  	95.098773 
4221.285844  	95.097345 
4222.250268  	95.098195 
4223.214693  	95.001236 
4224.179117  	94.976899 
4225.143542  	95.013859 
4226.107966  	95.069928 
4227.072391  	95.082759 
4228.036815  	95.017160 
4229.001240  	94.987164 
4229.965664  	95.002477 
4230.930088  	95.015096 
4231.894513  	95.049169 
4232.858937  	95.083389 
4233.823362  	95.128648 
4234.787786  	95.126474 
4235.752211  	95.082432 
4236.716635  	95.048809 
4237.681060  	95.067121 
4238.645484  	95.067816 
4239.609909  	95.039263 
4240.574333  	95.053830 
4241.538757  	95.096444 
4242.503182  	95.095293 
4243.467606  	95.103985 
4244.432031  	95.052240 
4245.396455  	95.049774 
4246.360880  	95.060247 
4247.325304  	95.029282 
4248.289729  	94.993758 
4249.254153  	95.030833 
4250.218578  	95.126225 
4251.183002  	95.101018 
4252.147427  	95.015128 
4253.111851  	94.968050 
4254.076275  	94.960905 
4255.040700  	94.963765 
4256.005124  	94.983931 
4256.969549  	95.041531 
4257.933973  	95.088622 
4258.898398  	95.061316 
4259.862822  	94.987794 
4260.827247  	94.945445 
4261.791671  	94.994899 
4262.756096  	95.045182 
4263.720520  	95.003741 
4264.684944  	94.964278 
4265.649369  	94.960466 
4266.613793  	94.994522 
4267.578218  	94.964143 
4268.542642  	95.021039 
4269.507067  	95.017520 
4270.471491  	95.006412 
4271.435916  	95.052840 
4272.400340  	95.015412 
4273.364765  	94.996761 
4274.329189  	95.032593 
4275.293613  	95.082215 
4276.258038  	95.053562 
4277.222462  	94.996700 
4278.186887  	94.948583 
4279.151311  	94.912782 
4280.115736  	94.932185 
4281.080160  	95.005134 
4282.044585  	95.010413 
4283.009009  	94.930310 
4283.973434  	94.932852 
4284.937858  	94.976880 
4285.902282  	94.929423 
4286.866707  	94.910025 
4287.831131  	95.018619 
4288.795556  	95.086603 
4289.759980  	94.997903 
4290.724405  	94.922417 
4291.688829  	94.964540 
4292.653254  	94.971645 
4293.617678  	95.069504 
4294.582103  	95.146098 
4295.546527  	95.101127 
4296.510951  	95.043876 
4297.475376  	95.039065 
4298.439800  	95.023351 
4299.404225  	94.994715 
4300.368649  	94.997890 
4301.333074  	94.978096 
4302.297498  	94.925689 
4303.261923  	94.929547 
4304.226347  	95.008913 
4305.190772  	95.138074 
4306.155196  	95.107085 
4307.119620  	95.062899 
4308.084045  	95.047298 
4309.048469  	95.096396 
4310.012894  	95.074146 
4310.977318  	95.030895 
4311.941743  	94.982067 
4312.906167  	94.990523 
4313.870592  	95.013390 
4314.835016  	95.063766 
4315.799441  	95.075518 
4316.763865  	95.074412 
4317.728290  	95.084886 
4318.692714  	95.061842 
4319.657138  	95.049157 
4320.621563  	95.052044 
4321.585987  	95.019352 
4322.550412  	95.011853 
4323.514836  	95.008179 
4324.479261  	94.998382 
4325.443685  	94.989474 
4326.408110  	94.997498 
4327.372534  	95.003706 
4328.336959  	95.014764 
4329.301383  	95.032621 
4330.265807  	95.037472 
4331.230232  	95.108323 
4332.194656  	95.105429 
4333.159081  	95.080160 
4334.123505  	95.058681 
4335.087930  	95.052972 
4336.052354  	95.075017 
4337.016779  	95.083335 
4337.981203  	95.050246 
4338.945628  	95.048354 
4339.910052  	95.060826 
4340.874476  	95.033285 
4341.838901  	95.033435 
4342.803325  	95.019401 
4343.767750  	94.998722 
4344.732174  	95.013214 
4345.696599  	95.008686 
4346.661023  	95.006236 
4347.625448  	95.008227 
4348.589872  	95.022233 
4349.554297  	95.050244 
4350.518721  	95.086678 
4351.483145  	95.105312 
4352.447570  	95.074582 
4353.411994  	95.104187 
4354.376419  	95.104681 
4355.340843  	95.032645 
4356.305268  	95.002854 
4357.269692  	95.000753 
4358.234117  	95.031390 
4359.198541  	95.050947 
4360.162966  	95.057674 
4361.127390  	95.077049 
4362.091814  	95.073372 
4363.056239  	95.090045 
4364.020663  	95.148046 
4364.985088  	95.122510 
4365.949512  	95.027655 
4366.913937  	94.999247 
4367.878361  	94.972409 
4368.842786  	95.008585 
4369.807210  	95.096499 
4370.771635  	95.129978 
4371.736059  	95.097160 
4372.700484  	95.072459 
4373.664908  	95.093928 
4374.629332  	95.106591 
4375.593757  	95.180109 
4376.558181  	95.197286 
4377.522606  	95.139008 
4378.487030  	95.069468 
4379.451455  	94.997739 
4380.415879  	94.991373 
4381.380304  	95.024108 
4382.344728  	95.070112 
4383.309153  	95.086378 
4384.273577  	95.080725 
4385.238001  	95.106429 
4386.202426  	95.087623 
4387.166850  	95.098932 
4388.131275  	95.079126 
4389.095699  	94.987184 
4390.060124  	95.005642 
4391.024548  	95.081108 
4391.988973  	95.135855 
4392.953397  	95.156226 
4393.917822  	95.105562 
4394.882246  	95.045854 
4395.846670  	95.057025 
4396.811095  	95.034706 
4397.775519  	95.036864 
4398.739944  	95.094342 
4399.704368  	95.156096 
4400.668793  	95.199597 
4401.633217  	95.063872 
4402.597642  	95.001592 
4403.562066  	95.124680 
4404.526491  	95.158873 
4405.490915  	95.149551 
4406.455339  	95.082095 
4407.419764  	95.023812 
4408.384188  	95.075958 
4409.348613  	95.137570 
4410.313037  	95.160284 
4411.277462  	95.090992 
4412.241886  	95.032611 
4413.206311  	95.051516 
4414.170735  	95.101372 
4415.135160  	95.090472 
4416.099584  	95.102026 
4417.064008  	95.040619 
4418.028433  	94.913611 
4418.992857  	94.960472 
4419.957282  	95.022583 
4420.921706  	95.029518 
4421.886131  	95.023447 
4422.850555  	95.015887 
4423.814980  	94.989033 
4424.779404  	94.975217 
4425.743829  	94.968171 
4426.708253  	94.989267 
4427.672677  	94.996253 
4428.637102  	94.954539 
4429.601526  	94.956715 
4430.565951  	94.942099 
4431.530375  	94.961417 
4432.494800  	94.949002 
4433.459224  	94.905990 
4434.423649  	94.956388 
4435.388073  	95.015910 
4436.352498  	95.097893 
4437.316922  	95.133704 
4438.281347  	95.105722 
4439.245771  	95.016895 
4440.210195  	94.985007 
4441.174620  	94.983103 
4442.139044  	94.989507 
4443.103469  	95.033629 
4444.067893  	95.012677 
4445.032318  	95.012744 
4445.996742  	95.057067 
4446.961167  	94.976268 
4447.925591  	94.940668 
4448.890016  	94.934632 
4449.854440  	94.905222 
4450.818864  	94.968960 
4451.783289  	95.021631 
4452.747713  	94.971895 
4453.712138  	94.998578 
4454.676562  	95.049639 
4455.640987  	95.013877 
4456.605411  	94.990160 
4457.569836  	95.031994 
4458.534260  	95.041594 
4459.498685  	94.999649 
4460.463109  	94.930814 
4461.427533  	94.936432 
4462.391958  	94.933010 
4463.356382  	94.906851 
4464.320807  	94.960121 
4465.285231  	95.031765 
4466.249656  	94.970710 
4467.214080  	94.946461 
4468.178505  	94.962102 
4469.142929  	95.019985 
4470.107354  	95.084479 
4471.071778  	95.084737 
4472.036202  	95.076117 
4473.000627  	95.071386 
4473.965051  	95.021958 
4474.929476  	94.983134 
4475.893900  	95.050786 
4476.858325  	95.126511 
4477.822749  	95.142361 
4478.787174  	95.146669 
4479.751598  	95.100558 
4480.716023  	95.034679 
4481.680447  	94.993982 
4482.644871  	94.979051 
4483.609296  	95.021674 
4484.573720  	95.071848 
4485.538145  	95.107523 
4486.502569  	95.097618 
4487.466994  	95.058030 
4488.431418  	95.094848 
4489.395843  	95.059027 
4490.360267  	95.023710 
4491.324692  	95.037585 
4492.289116  	95.041630 
4493.253541  	95.055092 
4494.217965  	95.098414 
4495.182389  	95.134598 
4496.146814  	95.132523 
4497.111238  	95.050880 
4498.075663  	95.020825 
4499.040087  	95.057272 
4500.004512  	95.057360 
4500.968936  	95.040339 
4501.933361  	95.065285 
4502.897785  	95.064520 
4503.862210  	95.076990 
4504.826634  	95.098978 
4505.791058  	95.086906 
4506.755483  	95.078794 
4507.719907  	95.095905 
4508.684332  	95.146661 
4509.648756  	95.163027 
4510.613181  	95.076116 
4511.577605  	95.146633 
4512.542030  	95.156892 
4513.506454  	95.095924 
4514.470879  	95.077903 
4515.435303  	95.027966 
4516.399727  	95.019723 
4517.364152  	95.026449 
4518.328576  	95.053866 
4519.293001  	95.104596 
4520.257425  	95.177172 
4521.221850  	95.109085 
4522.186274  	95.150198 
4523.150699  	95.212326 
4524.115123  	95.089795 
4525.079548  	94.972444 
4526.043972  	94.975670 
4527.008396  	95.046183 
4527.972821  	95.054764 
4528.937245  	95.055464 
4529.901670  	95.045874 
4530.866094  	95.025218 
4531.830519  	95.033997 
4532.794943  	95.025672 
4533.759368  	95.093181 
4534.723792  	95.141303 
4535.688217  	95.059889 
4536.652641  	95.067713 
4537.617065  	95.164547 
4538.581490  	95.221739 
4539.545914  	95.138139 
4540.510339  	95.062299 
4541.474763  	95.015227 
4542.439188  	95.052788 
4543.403612  	95.099565 
4544.368037  	95.051067 
4545.332461  	95.031467 
4546.296886  	95.080906 
4547.261310  	95.077180 
4548.225734  	95.072977 
4549.190159  	95.078548 
4550.154583  	95.076939 
4551.119008  	95.016263 
4552.083432  	95.043720 
4553.047857  	95.088705 
4554.012281  	95.134180 
4554.976706  	95.125399 
4555.941130  	95.103207 
4556.905555  	95.053846 
4557.869979  	95.089065 
4558.834404  	95.157983 
4559.798828  	95.080266 
4560.763252  	94.985529 
4561.727677  	94.977378 
4562.692101  	95.011240 
4563.656526  	95.096019 
4564.620950  	95.118319 
4565.585375  	95.041928 
4566.549799  	94.975427 
4567.514224  	95.039165 
4568.478648  	95.057969 
4569.443073  	95.046661 
4570.407497  	95.094779 
4571.371921  	95.145809 
4572.336346  	95.066438 
4573.300770  	95.073465 
4574.265195  	95.021472 
4575.229619  	94.999927 
4576.194044  	95.023860 
4577.158468  	95.077255 
4578.122893  	95.114914 
4579.087317  	95.066161 
4580.051742  	94.970516 
4581.016166  	95.000800 
4581.980590  	95.096587 
4582.945015  	95.170634 
4583.909439  	95.160887 
4584.873864  	95.087468 
4585.838288  	95.051805 
4586.802713  	95.183435 
4587.767137  	95.096606 
4588.731562  	94.996822 
4589.695986  	95.072726 
4590.660411  	95.118408 
4591.624835  	95.106845 
4592.589259  	95.118407 
4593.553684  	95.139522 
4594.518108  	95.036088 
4595.482533  	94.976317 
4596.446957  	95.040821 
4597.411382  	94.991615 
4598.375806  	94.964761 
4599.340231  	95.036658 
4600.304655  	95.098688 
4601.269080  	95.117494 
4602.233504  	95.075188 
4603.197928  	95.012263 
4604.162353  	95.003624 
4605.126777  	95.093551 
4606.091202  	95.162304 
4607.055626  	95.139699 
4608.020051  	95.107824 
4608.984475  	95.043170 
4609.948900  	95.046490 
4610.913324  	95.126652 
4611.877749  	95.093533 
4612.842173  	95.109655 
4613.806598  	95.164463 
4614.771022  	95.138303 
4615.735446  	95.116380 
4616.699871  	95.086101 
4617.664295  	95.015404 
4618.628720  	94.979467 
4619.593144  	95.016092 
4620.557569  	95.078542 
4621.521993  	95.056674 
4622.486418  	95.047286 
4623.450842  	95.023586 
4624.415267  	94.965076 
4625.379691  	95.080312 
4626.344115  	95.152891 
4627.308540  	95.102018 
4628.272964  	95.019902 
4629.237389  	94.994271 
4630.201813  	95.011689 
4631.166238  	95.110954 
4632.130662  	95.131522 
4633.095087  	95.067624 
4634.059511  	95.054062 
4635.023936  	95.183565 
4635.988360  	95.228036 
4636.952784  	95.097352 
4637.917209  	95.047249 
4638.881633  	94.995529 
4639.846058  	94.968492 
4640.810482  	95.019393 
4641.774907  	95.044922 
4642.739331  	94.978983 
4643.703756  	94.973878 
4644.668180  	95.055513 
4645.632605  	94.998959 
4646.597029  	95.031542 
4647.561453  	95.056749 
4648.525878  	95.071635 
4649.490302  	95.130415 
4650.454727  	95.151658 
4651.419151  	95.062069 
4652.383576  	95.027150 
4653.348000  	95.063402 
4654.312425  	95.079901 
4655.276849  	95.036937 
4656.241274  	95.040726 
4657.205698  	95.071409 
4658.170122  	95.086916 
4659.134547  	95.092617 
4660.098971  	95.061219 
4661.063396  	95.084814 
4662.027820  	95.167095 
4662.992245  	95.079457 
4663.956669  	95.063963 
4664.921094  	95.094608 
4665.885518  	95.054968 
4666.849943  	94.993782 
4667.814367  	94.999126 
4668.778791  	95.080573 
4669.743216  	95.101337 
4670.707640  	95.088634 
4671.672065  	95.028238 
4672.636489  	94.988919 
4673.600914  	95.065244 
4674.565338  	95.117800 
4675.529763  	95.085943 
4676.494187  	95.074470 
4677.458612  	95.133668 
4678.423036  	95.178858 
4679.387461  	95.186372 
4680.351885  	95.126428 
4681.316309  	95.094764 
4682.280734  	95.010443 
4683.245158  	94.957183 
4684.209583  	94.994887 
4685.174007  	95.107159 
4686.138432  	95.159539 
4687.102856  	95.127511 
4688.067281  	95.086982 
4689.031705  	95.086327 
4689.996130  	95.119127 
4690.960554  	95.135652 
4691.924978  	95.045637 
4692.889403  	94.993625 
4693.853827  	94.992565 
4694.818252  	95.021344 
4695.782676  	95.126662 
4696.747101  	95.100891 
4697.711525  	95.129337 
4698.675950  	95.159168 
4699.640374  	95.014126 