##TITLE=No Description
##DATA TYPE=INFRARED SPECTRUM
##XUNITS=1/CM
##YUNITS=%T
400.236149  	124.763459 
401.200574  	142.443210 
402.164998  	97.974531 
403.129423  	85.837966 
404.093847  	116.322521 
405.058272  	109.368736 
406.022696  	81.231421 
406.987120  	81.540793 
407.951545  	99.631823 
408.915969  	91.892727 
409.880394  	77.092807 
410.844818  	92.710094 
411.809243  	101.131950 
412.773667  	92.134142 
413.738092  	85.334324 
414.702516  	82.786520 
415.666941  	83.280731 
416.631365  	86.360337 
417.595789  	87.228976 
418.560214  	97.534134 
419.524638  	93.344994 
420.489063  	89.347069 
421.453487  	89.972831 
422.417912  	86.685393 
423.382336  	84.041395 
424.346761  	81.567229 
425.311185  	76.936964 
426.275610  	78.346961 
427.240034  	81.970637 
428.204458  	82.767754 
429.168883  	80.563721 
430.133307  	80.280895 
431.097732  	80.655925 
432.062156  	78.994430 
433.026581  	76.226253 
433.991005  	76.874093 
434.955430  	78.786549 
435.919854  	77.995866 
436.884279  	77.090059 
437.848703  	78.639217 
438.813127  	80.036885 
439.777552  	81.143090 
440.741976  	81.800853 
441.706401  	83.379742 
442.670825  	83.504392 
443.635250  	83.154669 
444.599674  	82.656985 
445.564099  	82.346088 
446.528523  	82.730700 
447.492948  	84.557167 
448.457372  	85.475867 
449.421796  	84.267766 
450.386221  	83.157633 
451.350645  	82.770701 
452.315070  	80.974156 
453.279494  	81.880055 
454.243919  	84.643886 
455.208343  	84.942692 
456.172768  	83.558863 
457.137192  	83.834379 
458.101617  	85.491512 
459.066041  	84.243131 
460.030466  	83.970356 
460.994890  	84.686248 
461.959314  	84.155895 
462.923739  	83.032162 
463.888163  	83.290990 
464.852588  	84.022793 
465.817012  	83.877783 
466.781437  	83.399380 
467.745861  	82.686974 
468.710286  	82.184713 
469.674710  	81.709911 
470.639135  	82.147335 
471.603559  	82.918456 
472.567983  	83.031954 
473.532408  	83.576770 
474.496832  	83.445895 
475.461257  	83.214356 
476.425681  	83.021510 
477.390106  	83.401073 
478.354530  	83.932222 
479.318955  	83.527230 
480.283379  	83.078471 
481.247804  	82.985769 
482.212228  	82.218191 
483.176652  	82.915017 
484.141077  	83.918511 
485.105501  	82.854589 
486.069926  	81.933910 
487.034350  	82.743975 
487.998775  	83.109205 
488.963199  	83.077208 
489.927624  	83.389960 
490.892048  	82.589548 
491.856473  	81.775701 
492.820897  	81.912426 
493.785321  	81.728888 
494.749746  	81.155828 
495.714170  	80.726485 
496.678595  	80.532083 
497.643019  	80.430720 
498.607444  	79.996233 
499.571868  	79.391995 
500.536293  	79.581509 
501.500717  	78.666784 
502.465142  	77.655169 
503.429566  	78.177503 
504.393990  	78.096853 
505.358415  	77.683962 
506.322839  	76.982209 
507.287264  	77.652548 
508.251688  	79.241199 
509.216113  	80.437048 
510.180537  	81.130203 
511.144962  	82.233935 
512.109386  	83.059316 
513.073811  	82.870121 
514.038235  	82.716751 
515.002660  	82.879926 
515.967084  	82.411249 
516.931508  	81.856809 
517.895933  	82.680739 
518.860357  	82.902571 
519.824782  	82.327100 
520.789206  	83.161354 
521.753631  	83.860498 
522.718055  	83.751735 
523.682480  	83.434916 
524.646904  	83.212654 
525.611329  	82.965693 
526.575753  	83.337175 
527.540177  	83.940450 
528.504602  	84.282237 
529.469026  	84.156771 
530.433451  	83.997283 
531.397875  	84.178852 
532.362300  	84.555383 
533.326724  	85.193434 
534.291149  	85.171307 
535.255573  	84.898954 
536.219998  	85.151904 
537.184422  	85.996782 
538.148846  	85.908863 
539.113271  	85.691407 
540.077695  	85.472043 
541.042120  	85.966442 
542.006544  	86.262363 
542.970969  	86.278552 
543.935393  	86.045406 
544.899818  	85.959428 
545.864242  	85.929350 
546.828667  	86.189794 
547.793091  	85.906936 
548.757515  	85.861746 
549.721940  	86.305751 
550.686364  	86.621967 
551.650789  	86.845754 
552.615213  	86.651057 
553.579638  	86.699075 
554.544062  	86.652200 
555.508487  	86.567848 
556.472911  	86.456142 
557.437336  	86.332557 
558.401760  	86.388449 
559.366184  	86.608313 
560.330609  	86.511586 
561.295033  	86.408119 
562.259458  	86.480373 
563.223882  	86.318416 
564.188307  	86.363283 
565.152731  	86.663492 
566.117156  	86.549466 
567.081580  	86.180466 
568.046005  	86.180738 
569.010429  	86.033045 
569.974853  	86.125977 
570.939278  	86.318469 
571.903702  	86.364149 
572.868127  	86.312135 
573.832551  	86.205929 
574.796976  	86.184430 
575.761400  	85.626643 
576.725825  	85.876215 
577.690249  	86.204616 
578.654674  	86.318052 
579.619098  	86.189705 
580.583523  	85.666022 
581.547947  	86.001931 
582.512371  	86.514270 
583.476796  	86.298954 
584.441220  	86.049141 
585.405645  	86.348549 
586.370069  	86.816883 
587.334494  	86.662861 
588.298918  	86.479546 
589.263343  	86.444359 
590.227767  	86.645236 
591.192192  	86.171514 
592.156616  	85.734280 
593.121040  	86.310466 
594.085465  	86.609878 
595.049889  	86.380077 
596.014314  	86.292307 
596.978738  	86.491874 
597.943163  	86.452166 
598.907587  	86.161382 
599.872012  	85.719188 
600.836436  	85.930413 
601.800861  	86.293089 
602.765285  	86.239177 
603.729709  	86.198466 
604.694134  	86.159771 
605.658558  	86.165161 
606.622983  	86.201900 
607.587407  	86.156372 
608.551832  	86.242358 
609.516256  	86.252308 
610.480681  	86.008725 
611.445105  	85.876096 
612.409530  	85.933055 
613.373954  	86.135739 
614.338378  	85.904315 
615.302803  	85.537097 
616.267227  	85.423940 
617.231652  	85.751189 
618.196076  	85.829494 
619.160501  	85.640735 
620.124925  	85.194432 
621.089350  	85.125534 
622.053774  	85.393963 
623.018199  	85.774380 
623.982623  	85.407275 
624.947047  	85.187140 
625.911472  	84.940110 
626.875896  	84.940586 
627.840321  	84.829428 
628.804745  	84.763269 
629.769170  	84.173681 
630.733594  	83.438112 
631.698019  	83.211241 
632.662443  	83.293928 
633.626868  	83.681066 
634.591292  	84.299441 
635.555717  	84.171264 
636.520141  	84.444567 
637.484565  	84.796148 
638.448990  	84.942153 
639.413414  	84.929464 
640.377839  	84.888944 
641.342263  	84.825807 
642.306688  	84.586786 
643.271112  	84.474915 
644.235537  	84.381678 
645.199961  	84.265497 
646.164386  	84.352669 
647.128810  	84.470761 
648.093234  	84.347868 
649.057659  	84.217288 
650.022083  	84.198926 
650.986508  	84.117039 
651.950932  	84.048901 
652.915357  	83.865086 
653.879781  	83.825353 
654.844206  	83.947484 
655.808630  	83.855648 
656.773055  	83.533994 
657.737479  	83.508390 
658.701903  	83.338854 
659.666328  	83.081671 
660.630752  	82.942014 
661.595177  	82.924946 
662.559601  	82.904907 
663.524026  	82.753771 
664.488450  	82.655597 
665.452875  	82.647393 
666.417299  	82.557937 
667.381724  	82.617960 
668.346148  	82.363206 
669.310572  	81.805376 
670.274997  	81.539302 
671.239421  	81.269854 
672.203846  	81.109395 
673.168270  	80.964090 
674.132695  	80.556030 
675.097119  	80.043483 
676.061544  	79.632961 
677.025968  	79.375675 
677.990393  	79.069696 
678.954817  	78.742026 
679.919241  	78.495394 
680.883666  	78.380737 
681.848090  	78.342077 
682.812515  	78.352410 
683.776939  	78.148299 
684.741364  	77.913733 
685.705788  	77.542038 
686.670213  	77.364370 
687.634637  	77.053588 
688.599062  	76.605377 
689.563486  	76.126184 
690.527910  	75.704440 
691.492335  	75.225043 
692.456759  	74.801949 
693.421184  	74.062844 
694.385608  	73.340229 
695.350033  	72.509743 
696.314457  	71.589490 
697.278882  	70.526343 
698.243306  	69.269533 
699.207731  	67.976542 
700.172155  	66.786569 
701.136580  	65.537135 
702.101004  	64.501121 
703.065428  	63.618967 
704.029853  	62.697854 
704.994277  	61.671301 
705.958702  	60.606277 
706.923126  	59.414648 
707.887551  	58.204457 
708.851975  	56.964663 
709.816400  	55.465038 
710.780824  	53.968337 
711.745249  	52.436519 
712.709673  	50.619196 
713.674097  	48.673736 
714.638522  	46.813207 
715.602946  	44.905640 
716.567371  	42.732986 
717.531795  	40.658856 
718.496220  	38.884050 
719.460644  	37.468347 
720.425069  	36.450672 
721.389493  	36.070518 
722.353918  	36.162767 
723.318342  	36.883159 
724.282766  	38.365635 
725.247191  	40.669934 
726.211615  	43.532969 
727.176040  	46.627215 
728.140464  	49.613689 
729.104889  	52.635023 
730.069313  	55.550685 
731.033738  	58.458589 
731.998162  	61.480760 
732.962587  	64.597428 
733.927011  	67.694274 
734.891435  	70.785437 
735.855860  	73.813367 
736.820284  	76.730021 
737.784709  	79.397274 
738.749133  	81.812103 
739.713558  	83.810195 
740.677982  	85.544325 
741.642407  	86.949285 
742.606831  	88.074405 
743.571256  	88.852543 
744.535680  	89.422013 
745.500104  	89.943452 
746.464529  	90.296377 
747.428953  	90.443616 
748.393378  	90.621071 
749.357802  	90.737101 
750.322227  	90.815171 
751.286651  	90.843269 
752.251076  	90.780789 
753.215500  	90.731135 
754.179925  	90.727420 
755.144349  	90.753685 
756.108774  	90.772333 
757.073198  	90.756831 
758.037622  	90.682511 
759.002047  	90.508122 
759.966471  	90.452675 
760.930896  	90.303340 
761.895320  	90.217033 
762.859745  	90.214912 
763.824169  	90.161586 
764.788594  	89.977799 
765.753018  	89.828497 
766.717443  	89.700258 
767.681867  	89.603917 
768.646291  	89.382054 
769.610716  	89.171306 
770.575140  	89.047808 
771.539565  	88.933512 
772.503989  	88.658684 
773.468414  	88.482540 
774.432838  	88.388862 
775.397263  	88.303656 
776.361687  	88.107734 
777.326112  	87.946948 
778.290536  	87.787295 
779.254960  	87.747685 
780.219385  	87.557726 
781.183809  	87.487091 
782.148234  	86.880819 
783.112658  	86.716115 
784.077083  	86.495572 
785.041507  	86.167512 
786.005932  	85.824610 
786.970356  	85.285556 
787.934781  	84.759739 
788.899205  	84.353494 
789.863629  	83.964406 
790.828054  	83.457679 
791.792478  	83.009644 
792.756903  	82.824975 
793.721327  	82.990087 
794.685752  	83.509803 
795.650176  	84.272700 
796.614601  	85.022893 
797.579025  	85.688512 
798.543450  	85.980950 
799.507874  	86.072618 
800.472298  	86.235861 
801.436723  	86.342719 
802.401147  	86.276936 
803.365572  	86.201397 
804.329996  	86.219551 
805.294421  	86.209434 
806.258845  	86.235607 
807.223270  	86.254022 
808.187694  	86.194583 
809.152119  	86.186630 
810.116543  	86.141205 
811.080967  	86.097833 
812.045392  	86.087843 
813.009816  	86.053925 
813.974241  	85.984970 
814.938665  	85.943856 
815.903090  	85.960207 
816.867514  	85.976966 
817.831939  	85.945387 
818.796363  	85.907415 
819.760788  	85.912065 
820.725212  	85.859641 
821.689637  	85.612514 
822.654061  	85.440972 
823.618485  	85.307701 
824.582910  	85.091064 
825.547334  	84.821997 
826.511759  	84.619277 
827.476183  	84.494751 
828.440608  	84.328961 
829.405032  	84.043109 
830.369457  	83.760997 
831.333881  	83.508232 
832.298306  	83.246833 
833.262730  	82.930632 
834.227154  	82.595338 
835.191579  	82.267349 
836.156003  	81.825929 
837.120428  	81.268262 
838.084852  	80.779421 
839.049277  	80.445431 
840.013701  	79.970041 
840.978126  	79.378617 
841.942550  	78.898771 
842.906975  	78.354943 
843.871399  	77.713242 
844.835823  	77.096220 
845.800248  	76.671479 
846.764672  	76.480359 
847.729097  	76.455750 
848.693521  	76.645303 
849.657946  	77.126400 
850.622370  	77.729372 
851.586795  	78.243609 
852.551219  	78.546824 
853.515644  	78.837202 
854.480068  	79.151146 
855.444492  	79.311508 
856.408917  	79.454481 
857.373341  	79.751257 
858.337766  	80.037956 
859.302190  	80.143373 
860.266615  	80.147597 
861.231039  	80.108864 
862.195464  	79.976284 
863.159888  	79.673942 
864.124313  	79.204442 
865.088737  	78.564180 
866.053161  	77.716376 
867.017586  	76.412465 
867.982010  	74.654565 
868.946435  	72.407559 
869.910859  	69.558206 
870.875284  	66.632755 
871.839708  	64.963511 
872.804133  	65.861592 
873.768557  	68.789339 
874.732982  	71.945371 
875.697406  	74.361452 
876.661831  	76.085410 
877.626255  	77.518403 
878.590679  	78.848862 
879.555104  	80.000821 
880.519528  	80.998581 
881.483953  	81.857916 
882.448377  	82.638842 
883.412802  	83.410345 
884.377226  	84.051886 
885.341651  	84.545558 
886.306075  	84.888596 
887.270500  	85.141664 
888.234924  	85.438565 
889.199348  	85.570290 
890.163773  	85.500748 
891.128197  	85.490135 
892.092622  	85.561788 
893.057046  	85.572395 
894.021471  	85.489185 
894.985895  	85.465076 
895.950320  	85.393867 
896.914744  	85.291397 
897.879169  	85.233870 
898.843593  	85.294157 
899.808017  	85.329418 
900.772442  	85.386549 
901.736866  	85.492168 
902.701291  	85.648324 
903.665715  	85.889879 
904.630140  	86.103755 
905.594564  	86.252850 
906.558989  	86.422771 
907.523413  	86.621131 
908.487838  	86.800008 
909.452262  	86.948532 
910.416686  	87.122386 
911.381111  	87.302956 
912.345535  	87.392686 
913.309960  	87.444406 
914.274384  	87.487634 
915.238809  	87.517414 
916.203233  	87.549025 
917.167658  	87.597966 
918.132082  	87.610306 
919.096507  	87.637848 
920.060931  	87.674300 
921.025355  	87.667215 
921.989780  	87.618921 
922.954204  	87.574016 
923.918629  	87.497808 
924.883053  	87.428516 
925.847478  	87.392936 
926.811902  	87.354785 
927.776327  	87.263076 
928.740751  	87.187575 
929.705176  	87.173661 
930.669600  	87.129787 
931.634024  	87.008569 
932.598449  	86.903582 
933.562873  	86.869556 
934.527298  	86.843886 
935.491722  	86.706874 
936.456147  	86.594400 
937.420571  	86.569805 
938.384996  	86.474672 
939.349420  	86.315616 
940.313845  	86.236846 
941.278269  	86.163189 
942.242694  	86.048199 
943.207118  	85.869740 
944.171542  	85.717454 
945.135967  	85.657462 
946.100391  	85.519580 
947.064816  	85.310021 
948.029240  	85.164136 
948.993665  	84.998283 
949.958089  	84.821498 
950.922514  	84.644296 
951.886938  	84.490029 
952.851363  	84.263450 
953.815787  	83.967523 
954.780211  	83.734687 
955.744636  	83.541273 
956.709060  	83.264671 
957.673485  	82.943743 
958.637909  	82.615985 
959.602334  	82.237369 
960.566758  	81.851430 
961.531183  	81.441457 
962.495607  	80.972624 
963.460032  	80.552932 
964.424456  	80.143291 
965.388880  	79.628218 
966.353305  	79.147158 
967.317729  	78.790360 
968.282154  	78.437468 
969.246578  	78.089471 
970.211003  	77.914695 
971.175427  	77.944061 
972.139852  	78.069175 
973.104276  	78.314235 
974.068701  	78.713795 
975.033125  	79.217054 
975.997549  	79.716064 
976.961974  	80.204877 
977.926398  	80.690989 
978.890823  	81.086901 
979.855247  	81.439883 
980.819672  	81.749416 
981.784096  	82.029600 
982.748521  	82.258733 
983.712945  	82.342730 
984.677370  	82.330590 
985.641794  	82.326399 
986.606218  	82.333605 
987.570643  	82.289779 
988.535067  	82.234728 
989.499492  	82.253635 
990.463916  	82.292498 
991.428341  	82.328535 
992.392765  	82.305970 
993.357190  	82.239867 
994.321614  	82.181041 
995.286039  	82.101173 
996.250463  	81.977050 
997.214888  	81.835806 
998.179312  	81.686390 
999.143736  	81.455611 
1000.108161  	81.184839 
1001.072585  	80.924051 
1002.037010  	80.640784 
1003.001434  	80.303126 
1003.965859  	79.893729 
1004.930283  	79.432427 
1005.894708  	78.871154 
1006.859132  	78.223629 
1007.823557  	77.440936 
1008.787981  	76.528649 
1009.752405  	75.481904 
1010.716830  	74.165231 
1011.681254  	72.531388 
1012.645679  	70.557153 
1013.610103  	68.252336 
1014.574528  	65.782936 
1015.538952  	63.548350 
1016.503377  	62.060095 
1017.467801  	61.484572 
1018.432226  	61.784220 
1019.396650  	62.768599 
1020.361074  	64.168929 
1021.325499  	65.735017 
1022.289923  	67.208163 
1023.254348  	68.664197 
1024.218772  	70.397012 
1025.183197  	72.533733 
1026.147621  	74.762882 
1027.112046  	76.671539 
1028.076470  	77.973217 
1029.040895  	78.677648 
1030.005319  	79.022480 
1030.969743  	79.145832 
1031.934168  	79.154638 
1032.898592  	79.092634 
1033.863017  	78.924385 
1034.827441  	78.687073 
1035.791866  	78.426766 
1036.756290  	78.167901 
1037.720715  	77.919592 
1038.685139  	77.668913 
1039.649564  	77.472905 
1040.613988  	77.304250 
1041.578412  	77.097787 
1042.542837  	76.984161 
1043.507261  	76.960092 
1044.471686  	76.919724 
1045.436110  	76.853080 
1046.400535  	76.880018 
1047.364959  	76.979098 
1048.329384  	77.037343 
1049.293808  	77.098902 
1050.258233  	77.189599 
1051.222657  	77.332823 
1052.187081  	77.413777 
1053.151506  	77.403982 
1054.115930  	77.397178 
1055.080355  	77.345522 
1056.044779  	77.197058 
1057.009204  	76.987673 
1057.973628  	76.750553 
1058.938053  	76.555838 
1059.902477  	76.225991 
1060.866902  	75.767986 
1061.831326  	75.390731 
1062.795751  	74.962963 
1063.760175  	74.383051 
1064.724599  	73.761015 
1065.689024  	73.157902 
1066.653448  	72.549599 
1067.617873  	71.862230 
1068.582297  	71.091335 
1069.546722  	70.326288 
1070.511146  	69.527865 
1071.475571  	68.602072 
1072.439995  	67.621377 
1073.404420  	66.615018 
1074.368844  	65.511844 
1075.333268  	64.300524 
1076.297693  	63.020749 
1077.262117  	61.686522 
1078.226542  	60.411647 
1079.190966  	59.167581 
1080.155391  	57.916847 
1081.119815  	56.796164 
1082.084240  	55.807027 
1083.048664  	54.910779 
1084.013089  	54.106011 
1084.977513  	53.413126 
1085.941937  	52.807059 
1086.906362  	52.287102 
1087.870786  	51.807784 
1088.835211  	51.367731 
1089.799635  	50.967704 
1090.764060  	50.572177 
1091.728484  	50.238933 
1092.692909  	49.982838 
1093.657333  	49.724247 
1094.621758  	49.563449 
1095.586182  	49.532632 
1096.550606  	49.557099 
1097.515031  	49.646136 
1098.479455  	49.839225 
1099.443880  	50.124618 
1100.408304  	50.547172 
1101.372729  	51.035856 
1102.337153  	51.563558 
1103.301578  	52.138300 
1104.266002  	52.775245 
1105.230427  	53.458858 
1106.194851  	54.157624 
1107.159275  	54.869692 
1108.123700  	55.604094 
1109.088124  	56.264039 
1110.052549  	56.821652 
1111.016973  	57.278884 
1111.981398  	57.618075 
1112.945822  	57.883186 
1113.910247  	58.048261 
1114.874671  	58.075956 
1115.839096  	58.004621 
1116.803520  	57.841014 
1117.767945  	57.665786 
1118.732369  	57.566825 
1119.696793  	57.571108 
1120.661218  	57.698905 
1121.625642  	57.889972 
1122.590067  	58.164565 
1123.554491  	58.548128 
1124.518916  	59.040536 
1125.483340  	59.646534 
1126.447765  	60.312893 
1127.412189  	61.088272 
1128.376614  	61.984459 
1129.341038  	62.945772 
1130.305462  	64.012712 
1131.269887  	65.218321 
1132.234311  	66.485794 
1133.198736  	67.812994 
1134.163160  	69.191618 
1135.127585  	70.573425 
1136.092009  	71.896952 
1137.056434  	73.202851 
1138.020858  	74.534090 
1138.985283  	75.744252 
1139.949707  	76.794767 
1140.914131  	77.789567 
1141.878556  	78.740433 
1142.842980  	79.606096 
1143.807405  	80.443873 
1144.771829  	81.222550 
1145.736254  	81.926761 
1146.700678  	82.555278 
1147.665103  	83.079060 
1148.629527  	83.590193 
1149.593952  	84.111882 
1150.558376  	84.579793 
1151.522800  	84.941651 
1152.487225  	85.282916 
1153.451649  	85.610156 
1154.416074  	85.902762 
1155.380498  	86.117422 
1156.344923  	86.326608 
1157.309347  	86.532168 
1158.273772  	86.647962 
1159.238196  	86.701197 
1160.202621  	86.809826 
1161.167045  	86.887258 
1162.131469  	86.870866 
1163.095894  	86.824050 
1164.060318  	86.773781 
1165.024743  	86.665578 
1165.989167  	86.494139 
1166.953592  	86.284941 
1167.918016  	85.970039 
1168.882441  	85.582569 
1169.846865  	85.165032 
1170.811290  	84.758722 
1171.775714  	84.424498 
1172.740138  	84.212792 
1173.704563  	84.038773 
1174.668987  	83.888294 
1175.633412  	83.939993 
1176.597836  	84.087064 
1177.562261  	84.223931 
1178.526685  	84.392459 
1179.491110  	84.576812 
1180.455534  	84.771360 
1181.419959  	84.998548 
1182.384383  	85.172543 
1183.348808  	85.282619 
1184.313232  	85.399243 
1185.277656  	85.434386 
1186.242081  	85.380434 
1187.206505  	85.303925 
1188.170930  	85.241127 
1189.135354  	85.121655 
1190.099779  	84.944568 
1191.064203  	84.756096 
1192.028628  	84.525906 
1192.993052  	84.207653 
1193.957477  	83.859983 
1194.921901  	83.499576 
1195.886325  	83.133367 
1196.850750  	82.706022 
1197.815174  	82.238624 
1198.779599  	81.812656 
1199.744023  	81.401833 
1200.708448  	80.914036 
1201.672872  	80.399977 
1202.637297  	79.938491 
1203.601721  	79.508569 
1204.566146  	79.024774 
1205.530570  	78.512360 
1206.494994  	78.009315 
1207.459419  	77.519882 
1208.423843  	77.019684 
1209.388268  	76.482557 
1210.352692  	75.913755 
1211.317117  	75.288240 
1212.281541  	74.611976 
1213.245966  	73.977233 
1214.210390  	73.316489 
1215.174815  	72.556201 
1216.139239  	71.734740 
1217.103663  	70.879985 
1218.068088  	69.987345 
1219.032512  	69.039794 
1219.996937  	68.106229 
1220.961361  	67.193657 
1221.925786  	66.322008 
1222.890210  	65.499680 
1223.854635  	64.683993 
1224.819059  	63.832018 
1225.783484  	62.993573 
1226.747908  	62.108308 
1227.712332  	61.099349 
1228.676757  	59.983723 
1229.641181  	58.771759 
1230.605606  	57.477088 
1231.570030  	56.133739 
1232.534455  	54.735788 
1233.498879  	53.404357 
1234.463304  	52.153362 
1235.427728  	50.924036 
1236.392153  	49.821191 
1237.356577  	48.900086 
1238.321002  	48.128308 
1239.285426  	47.511862 
1240.249850  	47.044464 
1241.214275  	46.729467 
1242.178699  	46.541087 
1243.143124  	46.435018 
1244.107548  	46.451250 
1245.071973  	46.634321 
1246.036397  	46.861399 
1247.000822  	47.063551 
1247.965246  	47.333221 
1248.929671  	47.695534 
1249.894095  	48.065913 
1250.858519  	48.405529 
1251.822944  	48.765694 
1252.787368  	49.146968 
1253.751793  	49.477224 
1254.716217  	49.757081 
1255.680642  	50.076686 
1256.645066  	50.412274 
1257.609491  	50.697458 
1258.573915  	50.926535 
1259.538340  	51.163192 
1260.502764  	51.487172 
1261.467188  	51.977943 
1262.431613  	52.469166 
1263.396037  	53.029238 
1264.360462  	53.660485 
1265.324886  	54.296572 
1266.289311  	54.971993 
1267.253735  	55.775765 
1268.218160  	56.604900 
1269.182584  	57.402263 
1270.147009  	58.193865 
1271.111433  	59.053862 
1272.075857  	59.894278 
1273.040282  	60.808579 
1274.004706  	61.618646 
1274.969131  	62.370308 
1275.933555  	63.110676 
1276.897980  	63.828020 
1277.862404  	64.532354 
1278.826829  	65.237146 
1279.791253  	65.866435 
1280.755678  	66.507726 
1281.720102  	67.205890 
1282.684526  	67.905253 
1283.648951  	68.550429 
1284.613375  	69.156761 
1285.577800  	69.795680 
1286.542224  	70.395433 
1287.506649  	70.858798 
1288.471073  	71.488898 
1289.435498  	72.314926 
1290.399922  	73.068373 
1291.364347  	73.805761 
1292.328771  	74.581618 
1293.293195  	75.324713 
1294.257620  	76.086193 
1295.222044  	76.821924 
1296.186469  	77.484174 
1297.150893  	78.231867 
1298.115318  	79.133906 
1299.079742  	79.896914 
1300.044167  	80.623437 
1301.008591  	81.319628 
1301.973016  	81.962295 
1302.937440  	82.503426 
1303.901865  	83.000195 
1304.866289  	83.437528 
1305.830713  	83.828650 
1306.795138  	84.155478 
1307.759562  	84.434173 
1308.723987  	84.813726 
1309.688411  	85.342478 
1310.652836  	85.710107 
1311.617260  	85.874409 
1312.581685  	85.743549 
1313.546109  	86.044595 
1314.510534  	86.465461 
1315.474958  	86.871600 
1316.439382  	86.958080 
1317.403807  	86.974612 
1318.368231  	87.131959 
1319.332656  	87.161761 
1320.297080  	87.659079 
1321.261505  	88.079206 
1322.225929  	88.396930 
1323.190354  	88.491006 
1324.154778  	88.616111 
1325.119203  	88.718786 
1326.083627  	88.716447 
1327.048051  	88.660083 
1328.012476  	88.521409 
1328.976900  	88.200669 
1329.941325  	87.660769 
1330.905749  	87.027480 
1331.870174  	86.172160 
1332.834598  	84.975345 
1333.799023  	83.522003 
1334.763447  	81.911130 
1335.727872  	79.982438 
1336.692296  	77.718502 
1337.656720  	76.049949 
1338.621145  	74.272555 
1339.585569  	72.802422 
1340.549994  	72.928191 
1341.514418  	74.569906 
1342.478843  	76.114153 
1343.443267  	77.506069 
1344.407692  	79.178197 
1345.372116  	80.963413 
1346.336541  	82.674026 
1347.300965  	84.178566 
1348.265389  	85.397755 
1349.229814  	86.286421 
1350.194238  	87.216809 
1351.158663  	88.007529 
1352.123087  	88.524029 
1353.087512  	88.924539 
1354.051936  	89.076922 
1355.016361  	89.006515 
1355.980785  	89.428966 
1356.945210  	89.686698 
1357.909634  	89.592746 
1358.874059  	89.646074 
1359.838483  	89.655691 
1360.802907  	88.875967 
1361.767332  	88.215808 
1362.731756  	87.161434 
1363.696181  	87.024985 
1364.660605  	88.349560 
1365.625030  	88.478137 
1366.589454  	88.205266 
1367.553879  	87.682165 
1368.518303  	86.887619 
1369.482728  	86.836636 
1370.447152  	87.287554 
1371.411576  	87.257980 
1372.376001  	87.074257 
1373.340425  	86.303823 
1374.304850  	85.664994 
1375.269274  	86.224647 
1376.233699  	87.260736 
1377.198123  	87.513036 
1378.162548  	87.249839 
1379.126972  	87.365996 
1380.091397  	87.573633 
1381.055821  	87.793432 
1382.020245  	87.831063 
1382.984670  	87.809268 
1383.949094  	87.803244 
1384.913519  	87.739847 
1385.877943  	87.211214 
1386.842368  	86.014425 
1387.806792  	85.737977 
1388.771217  	86.979855 
1389.735641  	87.504109 
1390.700066  	87.374652 
1391.664490  	87.357324 
1392.628914  	87.348026 
1393.593339  	86.644889 
1394.557763  	85.052341 
1395.522188  	84.606538 
1396.486612  	85.248936 
1397.451037  	85.008509 
1398.415461  	83.967823 
1399.379886  	83.287257 
1400.344310  	83.570511 
1401.308735  	83.509826 
1402.273159  	82.626685 
1403.237583  	81.485356 
1404.202008  	79.757191 
1405.166432  	77.613702 
1406.130857  	76.812693 
1407.095281  	76.292175 
1408.059706  	75.430260 
1409.024130  	75.026218 
1409.988555  	75.051730 
1410.952979  	75.801995 
1411.917404  	77.032141 
1412.881828  	79.130961 
1413.846252  	81.217594 
1414.810677  	83.048862 
1415.775101  	84.226607 
1416.739526  	84.915866 
1417.703950  	85.453486 
1418.668375  	85.660784 
1419.632799  	85.895318 
1420.597224  	88.536364 
1421.561648  	89.667477 
1422.526073  	89.982766 
1423.490497  	89.120856 
1424.454922  	88.878470 
1425.419346  	90.261843 
1426.383770  	90.775109 
1427.348195  	90.721088 
1428.312619  	90.408175 
1429.277044  	89.843132 
1430.241468  	89.327440 
1431.205893  	89.837041 
1432.170317  	89.799469 
1433.134742  	89.343545 
1434.099166  	89.388325 
1435.063591  	89.093326 
1436.028015  	87.530057 
1436.992439  	86.264635 
1437.956864  	87.958497 
1438.921288  	88.804195 
1439.885713  	88.888993 
1440.850137  	88.822547 
1441.814562  	88.743693 
1442.778986  	88.716904 
1443.743411  	88.609219 
1444.707835  	88.451107 
1445.672260  	88.253993 
1446.636684  	87.972617 
1447.601108  	86.976249 
1448.565533  	86.725430 
1449.529957  	87.634674 
1450.494382  	87.817061 
1451.458806  	87.223799 
1452.423231  	86.691484 
1453.387655  	87.121733 
1454.352080  	86.676243 
1455.316504  	85.354480 
1456.280929  	84.351850 
1457.245353  	83.472790 
1458.209777  	83.742481 
1459.174202  	84.863605 
1460.138626  	86.597760 
1461.103051  	87.548461 
1462.067475  	87.680830 
1463.031900  	87.715410 
1463.996324  	87.344797 
1464.960749  	86.366729 
1465.925173  	86.939049 
1466.889598  	87.550227 
1467.854022  	87.427344 
1468.818446  	87.130980 
1469.782871  	86.488356 
1470.747295  	85.462969 
1471.711720  	83.522051 
1472.676144  	82.375855 
1473.640569  	83.422484 
1474.604993  	85.627041 
1475.569418  	86.170278 
1476.533842  	85.957165 
1477.498267  	87.694052 
1478.462691  	88.794125 
1479.427116  	89.145522 
1480.391540  	89.098153 
1481.355964  	88.691873 
1482.320389  	89.484180 
1483.284813  	90.265716 
1484.249238  	90.579301 
1485.213662  	90.526748 
1486.178087  	90.034311 
1487.142511  	89.460451 
1488.106936  	89.644778 
1489.071360  	88.651528 
1490.035785  	87.077036 
1491.000209  	88.668501 
1491.964633  	90.798093 
1492.929058  	91.658221 
1493.893482  	91.694867 
1494.857907  	91.311819 
1495.822331  	90.108040 
1496.786756  	89.271193 
1497.751180  	89.946968 
1498.715605  	89.274664 
1499.680029  	89.078256 
1500.644454  	89.215009 
1501.608878  	88.232197 
1502.573302  	87.465401 
1503.537727  	86.960905 
1504.502151  	85.770035 
1505.466576  	83.631093 
1506.431000  	79.841091 
1507.395425  	79.398866 
1508.359849  	82.483615 
1509.324274  	84.958298 
1510.288698  	86.860238 
1511.253123  	88.662318 
1512.217547  	88.772956 
1513.181971  	89.739671 
1514.146396  	90.380669 
1515.110820  	89.352738 
1516.075245  	88.195175 
1517.039669  	86.770068 
1518.004094  	88.687248 
1518.968518  	90.261491 
1519.932943  	89.240220 
1520.897367  	86.479085 
1521.861792  	86.796765 
1522.826216  	88.347292 
1523.790640  	89.583026 
1524.755065  	89.155300 
1525.719489  	88.463979 
1526.683914  	89.117586 
1527.648338  	88.807820 
1528.612763  	89.380082 
1529.577187  	90.674971 
1530.541612  	91.059653 
1531.506036  	90.091491 
1532.470461  	89.501587 
1533.434885  	88.529722 
1534.399309  	88.891388 
1535.363734  	90.036206 
1536.328158  	90.635219 
1537.292583  	90.772818 
1538.257007  	89.625965 
1539.221432  	86.683357 
1540.185856  	86.258086 
1541.150281  	87.803221 
1542.114705  	87.763639 
1543.079130  	87.730419 
1544.043554  	87.922983 
1545.007979  	87.516172 
1545.972403  	88.760340 
1546.936827  	90.518336 
1547.901252  	90.875729 
1548.865676  	90.221384 
1549.830101  	88.105549 
1550.794525  	88.619647 
1551.758950  	90.393038 
1552.723374  	90.496542 
1553.687799  	89.542104 
1554.652223  	88.346080 
1555.616648  	89.461017 
1556.581072  	89.802469 
1557.545496  	88.489312 
1558.509921  	83.912594 
1559.474345  	83.336799 
1560.438770  	86.723388 
1561.403194  	89.486240 
1562.367619  	90.418934 
1563.332043  	90.662401 
1564.296468  	90.238605 
1565.260892  	89.801976 
1566.225317  	90.428416 
1567.189741  	90.674210 
1568.154165  	90.191636 
1569.118590  	88.611038 
1570.083014  	88.093909 
1571.047439  	89.629418 
1572.011863  	90.032780 
1572.976288  	89.854036 
1573.940712  	89.588549 
1574.905137  	89.072482 
1575.869561  	87.804809 
1576.833986  	86.745574 
1577.798410  	87.737100 
1578.762834  	88.573777 
1579.727259  	88.967086 
1580.691683  	89.273093 
1581.656108  	89.574225 
1582.620532  	89.843462 
1583.584957  	90.101161 
1584.549381  	90.405552 
1585.513806  	90.620685 
1586.478230  	90.771181 
1587.442655  	90.887232 
1588.407079  	90.961854 
1589.371503  	90.853947 
1590.335928  	90.830602 
1591.300352  	90.894040 
1592.264777  	90.916928 
1593.229201  	90.949018 
1594.193626  	90.637922 
1595.158050  	90.516760 
1596.122475  	90.669058 
1597.086899  	90.767230 
1598.051324  	90.896211 
1599.015748  	90.838168 
1599.980173  	90.764711 
1600.944597  	90.491315 
1601.909021  	90.295255 
1602.873446  	89.989717 
1603.837870  	89.971464 
1604.802295  	90.205514 
1605.766719  	90.131693 
1606.731144  	89.663172 
1607.695568  	89.397652 
1608.659993  	89.337279 
1609.624417  	88.903370 
1610.588842  	89.144245 
1611.553266  	89.317604 
1612.517690  	89.230772 
1613.482115  	89.184855 
1614.446539  	89.054305 
1615.410964  	88.681710 
1616.375388  	87.688775 
1617.339813  	87.476025 
1618.304237  	88.653378 
1619.268662  	89.167896 
1620.233086  	89.253151 
1621.197511  	89.268825 
1622.161935  	88.893178 
1623.126359  	87.857675 
1624.090784  	87.924225 
1625.055208  	88.909260 
1626.019633  	89.148149 
1626.984057  	88.876242 
1627.948482  	88.260097 
1628.912906  	88.714276 
1629.877331  	89.131723 
1630.841755  	89.122295 
1631.806180  	89.031260 
1632.770604  	88.944111 
1633.735028  	88.584080 
1634.699453  	87.575232 
1635.663877  	85.600352 
1636.628302  	86.529070 
1637.592726  	86.783964 
1638.557151  	87.568824 
1639.521575  	88.112014 
1640.486000  	88.081850 
1641.450424  	88.065713 
1642.414849  	87.981929 
1643.379273  	87.996302 
1644.343697  	87.869712 
1645.308122  	86.964721 
1646.272546  	85.193487 
1647.236971  	84.501892 
1648.201395  	84.915825 
1649.165820  	86.385828 
1650.130244  	86.986600 
1651.094669  	86.648824 
1652.059093  	85.552801 
1653.023518  	82.053700 
1653.987942  	81.425761 
1654.952366  	83.975747 
1655.916791  	85.527784 
1656.881215  	85.801664 
1657.845640  	85.901029 
1658.810064  	85.950100 
1659.774489  	85.802989 
1660.738913  	85.224052 
1661.703338  	84.428506 
1662.667762  	83.471812 
1663.632187  	83.551637 
1664.596611  	83.859034 
1665.561036  	83.667449 
1666.525460  	83.280791 
1667.489884  	82.472180 
1668.454309  	80.749789 
1669.418733  	79.529116 
1670.383158  	80.237975 
1671.347582  	79.837362 
1672.312007  	79.727455 
1673.276431  	79.983011 
1674.240856  	79.408675 
1675.205280  	77.902433 
1676.169705  	77.682091 
1677.134129  	78.119372 
1678.098553  	77.787749 
1679.062978  	76.829263 
1680.027402  	74.928977 
1680.991827  	74.505095 
1681.956251  	74.788914 
1682.920676  	73.426067 
1683.885100  	69.762129 
1684.849525  	69.548401 
1685.813949  	72.609105 
1686.778374  	73.073359 
1687.742798  	72.155415 
1688.707222  	71.091151 
1689.671647  	70.665808 
1690.636071  	70.086154 
1691.600496  	69.714673 
1692.564920  	68.844221 
1693.529345  	67.503533 
1694.493769  	65.917859 
1695.458194  	63.642826 
1696.422618  	61.206260 
1697.387043  	60.707127 
1698.351467  	59.718261 
1699.315891  	58.043670 
1700.280316  	54.293844 
1701.244740  	53.274055 
1702.209165  	53.336284 
1703.173589  	52.300346 
1704.138014  	50.536667 
1705.102438  	48.841418 
1706.066863  	47.685452 
1707.031287  	46.566400 
1707.995712  	46.200497 
1708.960136  	45.697785 
1709.924560  	44.847062 
1710.888985  	44.480531 
1711.853409  	44.641718 
1712.817834  	44.578874 
1713.782258  	44.389177 
1714.746683  	44.458527 
1715.711107  	45.674122 
1716.675532  	46.578617 
1717.639956  	46.710996 
1718.604381  	48.749010 
1719.568805  	51.639514 
1720.533230  	53.390439 
1721.497654  	54.747924 
1722.462078  	56.008457 
1723.426503  	57.035429 
1724.390927  	58.652073 
1725.355352  	60.217273 
1726.319776  	61.542244 
1727.284201  	62.841741 
1728.248625  	64.147430 
1729.213050  	64.764678 
1730.177474  	65.269200 
1731.141899  	67.474133 
1732.106323  	68.803797 
1733.070747  	68.717954 
1734.035172  	68.121894 
1734.999596  	71.740442 
1735.964021  	74.768864 
1736.928445  	76.229315 
1737.892870  	77.478711 
1738.857294  	78.377035 
1739.821719  	79.053496 
1740.786143  	81.335174 
1741.750568  	82.997374 
1742.714992  	83.247095 
1743.679416  	83.404576 
1744.643841  	85.226749 
1745.608265  	86.694615 
1746.572690  	87.199614 
1747.537114  	87.362256 
1748.501539  	87.446532 
1749.465963  	88.101933 
1750.430388  	88.849535 
1751.394812  	88.333346 
1752.359237  	89.926619 
1753.323661  	91.435776 
1754.288085  	92.082867 
1755.252510  	92.263665 
1756.216934  	91.651824 
1757.181359  	91.008653 
1758.145783  	91.809123 
1759.110208  	92.416409 
1760.074632  	92.692266 
1761.039057  	92.135689 
1762.003481  	91.063144 
1762.967906  	92.155414 
1763.932330  	93.048227 
1764.896754  	93.250990 
1765.861179  	93.256492 
1766.825603  	93.081423 
1767.790028  	92.040441 
1768.754452  	91.688105 
1769.718877  	92.852848 
1770.683301  	92.596270 
1771.647726  	91.372285 
1772.612150  	90.865141 
1773.576575  	92.066765 
1774.540999  	92.884708 
1775.505423  	92.475130 
1776.469848  	92.731999 
1777.434272  	93.463017 
1778.398697  	93.289346 
1779.363121  	92.939152 
1780.327546  	92.461235 
1781.291970  	92.365131 
1782.256395  	93.162361 
1783.220819  	93.525057 
1784.185244  	93.162376 
1785.149668  	92.498374 
1786.114093  	93.112473 
1787.078517  	93.608930 
1788.042941  	93.621850 
1789.007366  	93.516458 
1789.971790  	93.113465 
1790.936215  	92.003453 
1791.900639  	91.522621 
1792.865064  	91.458287 
1793.829488  	92.536206 
1794.793913  	93.084196 
1795.758337  	92.367776 
1796.722762  	92.386267 
1797.687186  	93.295627 
1798.651610  	93.330954 
1799.616035  	92.633641 
1800.580459  	92.533853 
1801.544884  	92.309366 
1802.509308  	92.081905 
1803.473733  	92.986543 
1804.438157  	93.575644 
1805.402582  	93.552483 
1806.367006  	93.488432 
1807.331431  	93.173405 
1808.295855  	93.038208 
1809.260279  	93.433633 
1810.224704  	92.944476 
1811.189128  	92.438848 
1812.153553  	92.770195 
1813.117977  	93.208648 
1814.082402  	93.629597 
1815.046826  	93.674255 
1816.011251  	93.704797 
1816.975675  	93.379339 
1817.940100  	93.140396 
1818.904524  	93.537124 
1819.868948  	93.688123 
1820.833373  	93.549970 
1821.797797  	93.434415 
1822.762222  	93.189890 
1823.726646  	93.251976 
1824.691071  	92.696328 
1825.655495  	91.898258 
1826.619920  	93.007835 
1827.584344  	93.505751 
1828.548769  	93.052701 
1829.513193  	91.765261 
1830.477617  	91.772396 
1831.442042  	93.122075 
1832.406466  	93.564595 
1833.370891  	93.402793 
1834.335315  	93.617538 
1835.299740  	93.820525 
1836.264164  	93.632030 
1837.228589  	93.107825 
1838.193013  	93.369372 
1839.157438  	93.804048 
1840.121862  	93.905265 
1841.086287  	93.829333 
1842.050711  	93.379146 
1843.015135  	93.056273 
1843.979560  	92.287269 
1844.943984  	91.975347 
1845.908409  	92.996413 
1846.872833  	93.377706 
1847.837258  	92.885086 
1848.801682  	93.183853 
1849.766107  	93.918220 
1850.730531  	94.182305 
1851.694956  	94.163027 
1852.659380  	94.108592 
1853.623804  	94.182704 
1854.588229  	94.170014 
1855.552653  	94.192955 
1856.517078  	94.172975 
1857.481502  	94.125247 
1858.445927  	93.947341 
1859.410351  	93.906421 
1860.374776  	93.987225 
1861.339200  	93.915076 
1862.303625  	93.989287 
1863.268049  	94.147074 
1864.232473  	94.164582 
1865.196898  	94.144065 
1866.161322  	93.751669 
1867.125747  	93.270809 
1868.090171  	92.694408 
1869.054596  	92.237421 
1870.019020  	92.670851 
1870.983445  	93.471341 
1871.947869  	94.027217 
1872.912294  	94.306991 
1873.876718  	94.333765 
1874.841142  	94.303698 
1875.805567  	94.333942 
1876.769991  	94.389042 
1877.734416  	94.333972 
1878.698840  	94.200856 
1879.663265  	94.089676 
1880.627689  	94.205511 
1881.592114  	94.254780 
1882.556538  	94.281629 
1883.520963  	94.291338 
1884.485387  	94.124264 
1885.449811  	93.965352 
1886.414236  	94.165990 
1887.378660  	94.269939 
1888.343085  	94.066660 
1889.307509  	93.157443 
1890.271934  	93.061079 
1891.236358  	93.899307 
1892.200783  	94.183996 
1893.165207  	94.199153 
1894.129632  	94.027179 
1895.094056  	93.430983 
1896.058480  	93.574574 
1897.022905  	94.132651 
1897.987329  	94.148648 
1898.951754  	94.161251 
1899.916178  	94.277043 
1900.880603  	94.273773 
1901.845027  	94.094743 
1902.809452  	94.093007 
1903.773876  	94.141825 
1904.738301  	94.165246 
1905.702725  	94.187207 
1906.667150  	94.103948 
1907.631574  	93.772333 
1908.595998  	93.674510 
1909.560423  	93.570180 
1910.524847  	93.476387 
1911.489272  	94.019899 
1912.453696  	94.122003 
1913.418121  	94.037706 
1914.382545  	93.960103 
1915.346970  	94.007563 
1916.311394  	93.998152 
1917.275819  	93.461902 
1918.240243  	92.641507 
1919.204667  	93.425763 
1920.169092  	94.035490 
1921.133516  	93.999263 
1922.097941  	93.273262 
1923.062365  	92.521269 
1924.026790  	93.376462 
1924.991214  	94.068563 
1925.955639  	93.968315 
1926.920063  	94.032443 
1927.884488  	94.173364 
1928.848912  	94.216272 
1929.813336  	94.153674 
1930.777761  	94.085697 
1931.742185  	93.955090 
1932.706610  	93.889283 
1933.671034  	94.035196 
1934.635459  	94.187013 
1935.599883  	94.114265 
1936.564308  	93.978379 
1937.528732  	93.828495 
1938.493157  	93.909209 
1939.457581  	94.139312 
1940.422005  	94.097781 
1941.386430  	93.607917 
1942.350854  	92.467408 
1943.315279  	92.504467 
1944.279703  	93.468281 
1945.244128  	93.478278 
1946.208552  	93.545087 
1947.172977  	93.562358 
1948.137401  	93.757055 
1949.101826  	93.751736 
1950.066250  	93.836448 
1951.030674  	93.854064 
1951.995099  	93.621124 
1952.959523  	93.537655 
1953.923948  	93.585058 
1954.888372  	93.418936 
1955.852797  	93.352615 
1956.817221  	93.528696 
1957.781646  	93.664945 
1958.746070  	93.578303 
1959.710495  	93.686911 
1960.674919  	93.601180 
1961.639344  	93.589740 
1962.603768  	93.374574 
1963.568192  	93.436335 
1964.532617  	93.892348 
1965.497041  	94.050822 
1966.461466  	93.814019 
1967.425890  	93.464006 
1968.390315  	93.797135 
1969.354739  	94.133806 
1970.319164  	93.971864 
1971.283588  	93.979323 
1972.248013  	94.044941 
1973.212437  	94.235436 
1974.176861  	94.096657 
1975.141286  	93.806985 
1976.105710  	93.792858 
1977.070135  	94.407972 
1978.034559  	94.489275 
1978.998984  	93.558729 
1979.963408  	93.231829 
1980.927833  	93.416378 
1981.892257  	93.638084 
1982.856682  	93.925263 
1983.821106  	93.957726 
1984.785530  	94.104279 
1985.749955  	94.011379 
1986.714379  	93.903797 
1987.678804  	93.802516 
1988.643228  	93.598374 
1989.607653  	93.758821 
1990.572077  	93.944963 
1991.536502  	93.398108 
1992.500926  	92.927600 
1993.465351  	93.283663 
1994.429775  	93.933293 
1995.394199  	94.305580 
1996.358624  	94.052502 
1997.323048  	93.682065 
1998.287473  	93.770747 
1999.251897  	93.929276 
2000.216322  	94.052210 
2001.180746  	94.232500 
2002.145171  	94.480255 
2003.109595  	94.797538 
2004.074020  	94.932730 
2005.038444  	94.782403 
2006.002868  	94.498344 
2006.967293  	94.456195 
2007.931717  	94.294766 
2008.896142  	94.295247 
2009.860566  	94.703875 
2010.824991  	94.723551 
2011.789415  	94.320445 
2012.753840  	94.145102 
2013.718264  	94.026627 
2014.682689  	94.078424 
2015.647113  	94.424889 
2016.611537  	93.926582 
2017.575962  	93.616307 
2018.540386  	94.085321 
2019.504811  	94.424345 
2020.469235  	94.780903 
2021.433660  	94.992782 
2022.398084  	94.510241 
2023.362509  	94.251447 
2024.326933  	94.547074 
2025.291358  	94.617369 
2026.255782  	94.372582 
2027.220207  	94.223484 
2028.184631  	94.513136 
2029.149055  	95.112080 
2030.113480  	95.134064 
2031.077904  	95.046112 
2032.042329  	95.068047 
2033.006753  	94.931166 
2033.971178  	94.683749 
2034.935602  	94.778332 
2035.900027  	94.762746 
2036.864451  	94.619452 
2037.828876  	94.609985 
2038.793300  	94.717243 
2039.757724  	94.515070 
2040.722149  	94.252430 
2041.686573  	93.976746 
2042.650998  	94.072591 
2043.615422  	94.252898 
2044.579847  	94.466665 
2045.544271  	94.663023 
2046.508696  	94.669607 
2047.473120  	94.376143 
2048.437545  	94.430053 
2049.401969  	94.697811 
2050.366393  	94.474680 
2051.330818  	94.326962 
2052.295242  	94.638870 
2053.259667  	94.726627 
2054.224091  	94.294497 
2055.188516  	93.934418 
2056.152940  	94.070987 
2057.117365  	94.083184 
2058.081789  	94.095121 
2059.046214  	94.092256 
2060.010638  	94.084551 
2060.975062  	94.023112 
2061.939487  	94.036073 
2062.903911  	94.055600 
2063.868336  	94.010151 
2064.832760  	93.829398 
2065.797185  	93.950305 
2066.761609  	94.071961 
2067.726034  	94.068853 
2068.690458  	93.967064 
2069.654883  	93.952198 
2070.619307  	93.968516 
2071.583731  	93.989652 
2072.548156  	93.926702 
2073.512580  	93.802028 
2074.477005  	93.759586 
2075.441429  	93.945881 
2076.405854  	93.887112 
2077.370278  	93.863519 
2078.334703  	93.966247 
2079.299127  	93.914714 
2080.263552  	93.896825 
2081.227976  	93.912326 
2082.192401  	93.851561 
2083.156825  	93.795369 
2084.121249  	93.856191 
2085.085674  	93.973336 
2086.050098  	93.918279 
2087.014523  	93.819892 
2087.978947  	93.863941 
2088.943372  	93.962165 
2089.907796  	93.778182 
2090.872221  	93.707591 
2091.836645  	93.997974 
2092.801070  	94.136690 
2093.765494  	94.191877 
2094.729918  	94.165718 
2095.694343  	94.067928 
2096.658767  	93.962407 
2097.623192  	93.785620 
2098.587616  	93.686383 
2099.552041  	93.825688 
2100.516465  	94.025806 
2101.480890  	94.041855 
2102.445314  	93.921458 
2103.409739  	93.892679 
2104.374163  	93.934521 
2105.338587  	93.831302 
2106.303012  	93.733918 
2107.267436  	93.641073 
2108.231861  	93.714950 
2109.196285  	93.764123 
2110.160710  	93.880494 
2111.125134  	93.915903 
2112.089559  	93.777788 
2113.053983  	93.771781 
2114.018408  	93.791058 
2114.982832  	93.746560 
2115.947256  	93.680647 
2116.911681  	93.804463 
2117.876105  	94.055154 
2118.840530  	94.052682 
2119.804954  	94.016586 
2120.769379  	94.060677 
2121.733803  	94.031977 
2122.698228  	94.100895 
2123.662652  	94.135040 
2124.627077  	94.099457 
2125.591501  	94.145856 
2126.555925  	94.330276 
2127.520350  	94.293851 
2128.484774  	94.194806 
2129.449199  	94.367625 
2130.413623  	94.459137 
2131.378048  	94.424240 
2132.342472  	94.463609 
2133.306897  	94.694746 
2134.271321  	94.665797 
2135.235746  	94.235707 
2136.200170  	94.028862 
2137.164594  	94.359076 
2138.129019  	94.532771 
2139.093443  	94.605266 
2140.057868  	94.541267 
2141.022292  	94.427865 
2141.986717  	94.339326 
2142.951141  	94.478407 
2143.915566  	94.774376 
2144.879990  	94.706022 
2145.844415  	94.474236 
2146.808839  	94.554044 
2147.773264  	94.834276 
2148.737688  	94.830961 
2149.702112  	94.791332 
2150.666537  	94.978851 
2151.630961  	94.770551 
2152.595386  	94.867613 
2153.559810  	95.231870 
2154.524235  	95.387943 
2155.488659  	95.779615 
2156.453084  	96.096075 
2157.417508  	95.850838 
2158.381933  	95.626514 
2159.346357  	95.066546 
2160.310781  	94.380136 
2161.275206  	94.023298 
2162.239630  	94.358841 
2163.204055  	94.705541 
2164.168479  	94.563148 
2165.132904  	94.301601 
2166.097328  	94.403983 
2167.061753  	94.646144 
2168.026177  	94.742687 
2168.990602  	94.409074 
2169.955026  	94.354798 
2170.919450  	94.885383 
2171.883875  	94.864254 
2172.848299  	94.789585 
2173.812724  	94.757553 
2174.777148  	94.537706 
2175.741573  	94.475330 
2176.705997  	94.482805 
2177.670422  	94.790837 
2178.634846  	95.059764 
2179.599271  	94.960369 
2180.563695  	94.650954 
2181.528119  	94.749927 
2182.492544  	94.775491 
2183.456968  	94.345994 
2184.421393  	94.256914 
2185.385817  	94.742607 
2186.350242  	94.829509 
2187.314666  	94.510047 
2188.279091  	94.409988 
2189.243515  	94.364275 
2190.207940  	94.231323 
2191.172364  	94.472641 
2192.136788  	94.673929 
2193.101213  	94.655648 
2194.065637  	94.336096 
2195.030062  	94.129718 
2195.994486  	94.017891 
2196.958911  	94.204695 
2197.923335  	94.522797 
2198.887760  	94.385222 
2199.852184  	94.307612 
2200.816609  	94.382277 
2201.781033  	94.433921 
2202.745458  	94.475727 
2203.709882  	94.436676 
2204.674306  	94.479136 
2205.638731  	94.386678 
2206.603155  	94.138445 
2207.567580  	94.118608 
2208.532004  	94.285861 
2209.496429  	94.345677 
2210.460853  	94.131409 
2211.425278  	94.157838 
2212.389702  	94.253375 
2213.354127  	94.071092 
2214.318551  	94.006586 
2215.282975  	93.863686 
2216.247400  	94.017143 
2217.211824  	94.271282 
2218.176249  	94.245379 
2219.140673  	94.146619 
2220.105098  	94.070738 
2221.069522  	94.033502 
2222.033947  	94.140905 
2222.998371  	94.076915 
2223.962796  	94.003204 
2224.927220  	94.266348 
2225.891644  	94.123321 
2226.856069  	93.859178 
2227.820493  	93.994218 
2228.784918  	94.045002 
2229.749342  	93.994034 
2230.713767  	94.121147 
2231.678191  	94.130888 
2232.642616  	93.983742 
2233.607040  	94.153072 
2234.571465  	94.198838 
2235.535889  	94.013422 
2236.500313  	93.875399 
2237.464738  	93.889575 
2238.429162  	94.001894 
2239.393587  	94.039806 
2240.358011  	94.046339 
2241.322436  	94.143664 
2242.286860  	93.997490 
2243.251285  	93.915128 
2244.215709  	93.865893 
2245.180134  	93.801628 
2246.144558  	93.818456 
2247.108982  	93.903371 
2248.073407  	93.936256 
2249.037831  	93.878898 
2250.002256  	93.785842 
2250.966680  	93.858724 
2251.931105  	93.890542 
2252.895529  	93.917585 
2253.859954  	93.960032 
2254.824378  	93.818158 
2255.788803  	93.752599 
2256.753227  	93.891468 
2257.717651  	93.938068 
2258.682076  	93.794036 
2259.646500  	93.851455 
2260.610925  	93.904711 
2261.575349  	93.681189 
2262.539774  	93.577298 
2263.504198  	93.761943 
2264.468623  	93.782975 
2265.433047  	93.725131 
2266.397472  	93.715970 
2267.361896  	93.712583 
2268.326321  	93.769008 
2269.290745  	93.760315 
2270.255169  	93.782033 
2271.219594  	93.819912 
2272.184018  	93.759534 
2273.148443  	93.690584 
2274.112867  	93.728413 
2275.077292  	93.765901 
2276.041716  	93.710588 
2277.006141  	93.642818 
2277.970565  	93.633212 
2278.934990  	93.576263 
2279.899414  	93.535187 
2280.863838  	93.599376 
2281.828263  	93.538592 
2282.792687  	93.430614 
2283.757112  	93.424840 
2284.721536  	93.363799 
2285.685961  	93.416259 
2286.650385  	93.464785 
2287.614810  	93.415296 
2288.579234  	93.311135 
2289.543659  	93.309016 
2290.508083  	93.449254 
2291.472507  	93.436727 
2292.436932  	93.428520 
2293.401356  	93.413396 
2294.365781  	93.362504 
2295.330205  	93.410889 
2296.294630  	93.335198 
2297.259054  	93.325618 
2298.223479  	93.280068 
2299.187903  	93.291126 
2300.152328  	93.342571 
2301.116752  	93.316653 
2302.081176  	93.328654 
2303.045601  	93.224920 
2304.010025  	93.337122 
2304.974450  	93.201209 
2305.938874  	93.211361 
2306.903299  	93.144348 
2307.867723  	93.188050 
2308.832148  	93.163290 
2309.796572  	93.177597 
2310.760997  	93.202089 
2311.725421  	93.161913 
2312.689845  	93.263829 
2313.654270  	93.216865 
2314.618694  	93.273099 
2315.583119  	93.413729 
2316.547543  	93.540160 
2317.511968  	93.565751 
2318.476392  	93.551584 
2319.440817  	93.505755 
2320.405241  	93.482179 
2321.369666  	93.600736 
2322.334090  	93.709005 
2323.298515  	93.722452 
2324.262939  	93.695689 
2325.227363  	94.080829 
2326.191788  	94.474091 
2327.156212  	94.676783 
2328.120637  	94.709069 
2329.085061  	94.825783 
2330.049486  	94.997175 
2331.013910  	95.016746 
2331.978335  	95.057357 
2332.942759  	95.277250 
2333.907184  	95.440872 
2334.871608  	95.556005 
2335.836032  	95.702848 
2336.800457  	95.793780 
2337.764881  	95.811562 
2338.729306  	95.832638 
2339.693730  	95.766653 
2340.658155  	95.824132 
2341.622579  	95.922128 
2342.587004  	95.752857 
2343.551428  	95.507087 
2344.515853  	95.252746 
2345.480277  	94.988277 
2346.444701  	94.741284 
2347.409126  	94.512990 
2348.373550  	94.070596 
2349.337975  	93.913813 
2350.302399  	94.256615 
2351.266824  	94.727350 
2352.231248  	95.265880 
2353.195673  	95.526492 
2354.160097  	95.652300 
2355.124522  	95.795967 
2356.088946  	96.082301 
2357.053370  	96.172764 
2358.017795  	96.239724 
2358.982219  	96.328052 
2359.946644  	96.598524 
2360.911068  	96.580174 
2361.875493  	96.402923 
2362.839917  	96.304500 
2363.804342  	96.316720 
2364.768766  	96.261530 
2365.733191  	96.246492 
2366.697615  	95.938579 
2367.662039  	95.566871 
2368.626464  	95.332279 
2369.590888  	95.089734 
2370.555313  	94.795042 
2371.519737  	94.575585 
2372.484162  	94.338224 
2373.448586  	94.204589 
2374.413011  	94.069620 
2375.377435  	93.819701 
2376.341860  	93.587551 
2377.306284  	93.459757 
2378.270708  	93.345182 
2379.235133  	93.225343 
2380.199557  	93.254554 
2381.163982  	93.272376 
2382.128406  	93.312582 
2383.092831  	93.399731 
2384.057255  	93.421550 
2385.021680  	93.494588 
2385.986104  	93.580108 
2386.950529  	93.626208 
2387.914953  	93.675315 
2388.879378  	93.697324 
2389.843802  	93.775053 
2390.808226  	93.820937 
2391.772651  	93.780964 
2392.737075  	93.758302 
2393.701500  	93.800877 
2394.665924  	93.826181 
2395.630349  	93.788834 
2396.594773  	93.745339 
2397.559198  	93.726886 
2398.523622  	93.797099 
2399.488047  	93.881692 
2400.452471  	93.821650 
2401.416895  	93.754695 
2402.381320  	93.749040 
2403.345744  	93.799672 
2404.310169  	93.827868 
2405.274593  	93.780045 
2406.239018  	93.736793 
2407.203442  	93.767257 
2408.167867  	93.801337 
2409.132291  	93.797624 
2410.096716  	93.745708 
2411.061140  	93.752274 
2412.025564  	93.759917 
2412.989989  	93.734723 
2413.954413  	93.733212 
2414.918838  	93.784496 
2415.883262  	93.792044 
2416.847687  	93.719182 
2417.812111  	93.747326 
2418.776536  	93.762034 
2419.740960  	93.748670 
2420.705385  	93.770504 
2421.669809  	93.736584 
2422.634233  	93.757388 
2423.598658  	93.807578 
2424.563082  	93.866403 
2425.527507  	93.892981 
2426.491931  	93.803883 
2427.456356  	93.766662 
2428.420780  	93.811015 
2429.385205  	93.829253 
2430.349629  	93.846295 
2431.314054  	93.808328 
2432.278478  	93.797155 
2433.242902  	93.829574 
2434.207327  	93.808364 
2435.171751  	93.847604 
2436.136176  	93.898704 
2437.100600  	93.951706 
2438.065025  	93.913084 
2439.029449  	93.893246 
2439.993874  	93.886358 
2440.958298  	93.856410 
2441.922723  	93.841519 
2442.887147  	93.830169 
2443.851572  	93.905706 
2444.815996  	93.898978 
2445.780420  	93.847999 
2446.744845  	93.756565 
2447.709269  	93.793641 
2448.673694  	93.888188 
2449.638118  	93.883794 
2450.602543  	93.790797 
2451.566967  	93.711336 
2452.531392  	93.765340 
2453.495816  	93.787662 
2454.460241  	93.755318 
2455.424665  	93.771515 
2456.389089  	93.777250 
2457.353514  	93.770178 
2458.317938  	93.793194 
2459.282363  	93.800528 
2460.246787  	93.819458 
2461.211212  	93.803131 
2462.175636  	93.781049 
2463.140061  	93.791745 
2464.104485  	93.813193 
2465.068910  	93.820185 
2466.033334  	93.772493 
2466.997758  	93.723856 
2467.962183  	93.772323 
2468.926607  	93.805241 
2469.891032  	93.822480 
2470.855456  	93.822253 
2471.819881  	93.818860 
2472.784305  	93.864520 
2473.748730  	93.886172 
2474.713154  	93.882152 
2475.677579  	93.846032 
2476.642003  	93.820086 
2477.606427  	93.794071 
2478.570852  	93.847135 
2479.535276  	93.825726 
2480.499701  	93.741061 
2481.464125  	93.719181 
2482.428550  	93.804455 
2483.392974  	93.828760 
2484.357399  	93.856193 
2485.321823  	93.824979 
2486.286248  	93.738436 
2487.250672  	93.679714 
2488.215096  	93.724478 
2489.179521  	93.770857 
2490.143945  	93.751585 
2491.108370  	93.669765 
2492.072794  	93.664403 
2493.037219  	93.704594 
2494.001643  	93.744835 
2494.966068  	93.779219 
2495.930492  	93.841168 
2496.894917  	93.840132 
2497.859341  	93.789039 
2498.823765  	93.758722 
2499.788190  	93.771318 
2500.752614  	93.770551 
2501.717039  	93.719524 
2502.681463  	93.654189 
2503.645888  	93.670164 
2504.610312  	93.649420 
2505.574737  	93.613354 
2506.539161  	93.636511 
2507.503586  	93.697974 
2508.468010  	93.694720 
2509.432435  	93.677146 
2510.396859  	93.698472 
2511.361283  	93.707279 
2512.325708  	93.672803 
2513.290132  	93.676276 
2514.254557  	93.701883 
2515.218981  	93.713610 
2516.183406  	93.709480 
2517.147830  	93.694863 
2518.112255  	93.614173 
2519.076679  	93.586695 
2520.041104  	93.650834 
2521.005528  	93.670878 
2521.969952  	93.567697 
2522.934377  	93.572409 
2523.898801  	93.675878 
2524.863226  	93.701743 
2525.827650  	93.615321 
2526.792075  	93.627347 
2527.756499  	93.660081 
2528.720924  	93.628652 
2529.685348  	93.590269 
2530.649773  	93.600323 
2531.614197  	93.622572 
2532.578621  	93.656308 
2533.543046  	93.668616 
2534.507470  	93.649286 
2535.471895  	93.616677 
2536.436319  	93.601316 
2537.400744  	93.622530 
2538.365168  	93.597183 
2539.329593  	93.565569 
2540.294017  	93.569884 
2541.258442  	93.578338 
2542.222866  	93.591144 
2543.187290  	93.569906 
2544.151715  	93.600599 
2545.116139  	93.642569 
2546.080564  	93.638771 
2547.044988  	93.573510 
2548.009413  	93.526487 
2548.973837  	93.569003 
2549.938262  	93.585008 
2550.902686  	93.575696 
2551.867111  	93.576120 
2552.831535  	93.576254 
2553.795959  	93.574480 
2554.760384  	93.560565 
2555.724808  	93.542230 
2556.689233  	93.540879 
2557.653657  	93.560508 
2558.618082  	93.593848 
2559.582506  	93.644843 
2560.546931  	93.590597 
2561.511355  	93.512405 
2562.475780  	93.532660 
2563.440204  	93.580359 
2564.404629  	93.594078 
2565.369053  	93.559622 
2566.333477  	93.565839 
2567.297902  	93.615921 
2568.262326  	93.613687 
2569.226751  	93.510749 
2570.191175  	93.427059 
2571.155600  	93.484019 
2572.120024  	93.545421 
2573.084449  	93.564959 
2574.048873  	93.528573 
2575.013298  	93.459369 
2575.977722  	93.442334 
2576.942146  	93.500860 
2577.906571  	93.497500 
2578.870995  	93.481959 
2579.835420  	93.496537 
2580.799844  	93.550031 
2581.764269  	93.491246 
2582.728693  	93.499096 
2583.693118  	93.544853 
2584.657542  	93.509381 
2585.621967  	93.468913 
2586.586391  	93.469190 
2587.550815  	93.526902 
2588.515240  	93.539038 
2589.479664  	93.506347 
2590.444089  	93.474432 
2591.408513  	93.534008 
2592.372938  	93.587588 
2593.337362  	93.547699 
2594.301787  	93.494158 
2595.266211  	93.481429 
2596.230636  	93.507960 
2597.195060  	93.546776 
2598.159484  	93.583774 
2599.123909  	93.598511 
2600.088333  	93.586056 
2601.052758  	93.527118 
2602.017182  	93.503354 
2602.981607  	93.514969 
2603.946031  	93.495039 
2604.910456  	93.499963 
2605.874880  	93.541674 
2606.839305  	93.544910 
2607.803729  	93.563512 
2608.768153  	93.588949 
2609.732578  	93.522473 
2610.697002  	93.484208 
2611.661427  	93.469603 
2612.625851  	93.486051 
2613.590276  	93.545156 
2614.554700  	93.540596 
2615.519125  	93.495530 
2616.483549  	93.494423 
2617.447974  	93.513054 
2618.412398  	93.565931 
2619.376822  	93.559270 
2620.341247  	93.530782 
2621.305671  	93.521592 
2622.270096  	93.491437 
2623.234520  	93.512796 
2624.198945  	93.534091 
2625.163369  	93.558126 
2626.127794  	93.536868 
2627.092218  	93.487754 
2628.056643  	93.484396 
2629.021067  	93.499211 
2629.985492  	93.534357 
2630.949916  	93.570915 
2631.914340  	93.533958 
2632.878765  	93.485264 
2633.843189  	93.503318 
2634.807614  	93.502861 
2635.772038  	93.485035 
2636.736463  	93.460338 
2637.700887  	93.464608 
2638.665312  	93.481840 
2639.629736  	93.474987 
2640.594161  	93.518093 
2641.558585  	93.548413 
2642.523009  	93.520213 
2643.487434  	93.539665 
2644.451858  	93.559776 
2645.416283  	93.519206 
2646.380707  	93.505889 
2647.345132  	93.534802 
2648.309556  	93.567498 
2649.273981  	93.569589 
2650.238405  	93.563185 
2651.202830  	93.581629 
2652.167254  	93.566073 
2653.131678  	93.552243 
2654.096103  	93.550188 
2655.060527  	93.547430 
2656.024952  	93.549407 
2656.989376  	93.548463 
2657.953801  	93.533426 
2658.918225  	93.560544 
2659.882650  	93.576922 
2660.847074  	93.562371 
2661.811499  	93.578057 
2662.775923  	93.605376 
2663.740347  	93.625817 
2664.704772  	93.620740 
2665.669196  	93.648654 
2666.633621  	93.653032 
2667.598045  	93.632046 
2668.562470  	93.622879 
2669.526894  	93.626095 
2670.491319  	93.619489 
2671.455743  	93.650756 
2672.420168  	93.675550 
2673.384592  	93.652021 
2674.349016  	93.644452 
2675.313441  	93.652076 
2676.277865  	93.659861 
2677.242290  	93.683988 
2678.206714  	93.675202 
2679.171139  	93.645191 
2680.135563  	93.626061 
2681.099988  	93.649035 
2682.064412  	93.669637 
2683.028837  	93.657867 
2683.993261  	93.629837 
2684.957686  	93.630213 
2685.922110  	93.629036 
2686.886534  	93.624171 
2687.850959  	93.619918 
2688.815383  	93.629443 
2689.779808  	93.629262 
2690.744232  	93.624905 
2691.708657  	93.630617 
2692.673081  	93.650462 
2693.637506  	93.657221 
2694.601930  	93.669685 
2695.566355  	93.683400 
2696.530779  	93.667520 
2697.495203  	93.651315 
2698.459628  	93.652796 
2699.424052  	93.662011 
2700.388477  	93.639794 
2701.352901  	93.605288 
2702.317326  	93.611558 
2703.281750  	93.627264 
2704.246175  	93.621643 
2705.210599  	93.626884 
2706.175024  	93.666172 
2707.139448  	93.639857 
2708.103872  	93.599975 
2709.068297  	93.618547 
2710.032721  	93.625058 
2710.997146  	93.613275 
2711.961570  	93.607444 
2712.925995  	93.615925 
2713.890419  	93.632675 
2714.854844  	93.632983 
2715.819268  	93.636635 
2716.783693  	93.611146 
2717.748117  	93.593626 
2718.712541  	93.608728 
2719.676966  	93.641734 
2720.641390  	93.633848 
2721.605815  	93.614949 
2722.570239  	93.635925 
2723.534664  	93.644425 
2724.499088  	93.607704 
2725.463513  	93.576383 
2726.427937  	93.585361 
2727.392362  	93.610318 
2728.356786  	93.582971 
2729.321210  	93.543246 
2730.285635  	93.564843 
2731.250059  	93.569192 
2732.214484  	93.552274 
2733.178908  	93.555410 
2734.143333  	93.567250 
2735.107757  	93.556299 
2736.072182  	93.576433 
2737.036606  	93.608846 
2738.001031  	93.576220 
2738.965455  	93.555840 
2739.929879  	93.548093 
2740.894304  	93.523514 
2741.858728  	93.508356 
2742.823153  	93.506229 
2743.787577  	93.529871 
2744.752002  	93.562861 
2745.716426  	93.530859 
2746.680851  	93.503225 
2747.645275  	93.509181 
2748.609700  	93.520422 
2749.574124  	93.528160 
2750.538549  	93.537058 
2751.502973  	93.489104 
2752.467397  	93.483203 
2753.431822  	93.504612 
2754.396246  	93.505927 
2755.360671  	93.522762 
2756.325095  	93.555831 
2757.289520  	93.531194 
2758.253944  	93.516502 
2759.218369  	93.526210 
2760.182793  	93.503028 
2761.147218  	93.488075 
2762.111642  	93.512990 
2763.076066  	93.549552 
2764.040491  	93.564046 
2765.004915  	93.536719 
2765.969340  	93.519254 
2766.933764  	93.502944 
2767.898189  	93.504707 
2768.862613  	93.510723 
2769.827038  	93.487961 
2770.791462  	93.478602 
2771.755887  	93.467649 
2772.720311  	93.454732 
2773.684735  	93.475623 
2774.649160  	93.464167 
2775.613584  	93.440716 
2776.578009  	93.469137 
2777.542433  	93.495969 
2778.506858  	93.484003 
2779.471282  	93.470027 
2780.435707  	93.463878 
2781.400131  	93.436417 
2782.364556  	93.406016 
2783.328980  	93.422530 
2784.293404  	93.448530 
2785.257829  	93.459231 
2786.222253  	93.456304 
2787.186678  	93.438066 
2788.151102  	93.409738 
2789.115527  	93.447735 
2790.079951  	93.457375 
2791.044376  	93.435836 
2792.008800  	93.434677 
2792.973225  	93.411145 
2793.937649  	93.392877 
2794.902073  	93.370716 
2795.866498  	93.349088 
2796.830922  	93.357196 
2797.795347  	93.383898 
2798.759771  	93.387995 
2799.724196  	93.341674 
2800.688620  	93.293863 
2801.653045  	93.275825 
2802.617469  	93.289689 
2803.581894  	93.331866 
2804.546318  	93.338221 
2805.510743  	93.311815 
2806.475167  	93.277475 
2807.439591  	93.256069 
2808.404016  	93.255092 
2809.368440  	93.256747 
2810.332865  	93.291971 
2811.297289  	93.287466 
2812.261714  	93.256460 
2813.226138  	93.255503 
2814.190563  	93.246131 
2815.154987  	93.279880 
2816.119412  	93.304794 
2817.083836  	93.274812 
2818.048260  	93.241363 
2819.012685  	93.248775 
2819.977109  	93.281205 
2820.941534  	93.275991 
2821.905958  	93.261210 
2822.870383  	93.257430 
2823.834807  	93.259287 
2824.799232  	93.234362 
2825.763656  	93.244712 
2826.728081  	93.242241 
2827.692505  	93.222145 
2828.656929  	93.225373 
2829.621354  	93.214742 
2830.585778  	93.186522 
2831.550203  	93.171419 
2832.514627  	93.130623 
2833.479052  	93.093662 
2834.443476  	93.074168 
2835.407901  	93.057617 
2836.372325  	93.008676 
2837.336750  	92.958720 
2838.301174  	92.902081 
2839.265598  	92.853855 
2840.230023  	92.816135 
2841.194447  	92.757939 
2842.158872  	92.635310 
2843.123296  	92.522861 
2844.087721  	92.370225 
2845.052145  	92.141344 
2846.016570  	91.896298 
2846.980994  	91.646652 
2847.945419  	91.381695 
2848.909843  	91.140369 
2849.874267  	90.981214 
2850.838692  	91.035098 
2851.803116  	91.217920 
2852.767541  	91.424029 
2853.731965  	91.635149 
2854.696390  	91.814983 
2855.660814  	91.989314 
2856.625239  	92.133103 
2857.589663  	92.209499 
2858.554088  	92.278266 
2859.518512  	92.365370 
2860.482936  	92.439245 
2861.447361  	92.475908 
2862.411785  	92.511083 
2863.376210  	92.540458 
2864.340634  	92.553479 
2865.305059  	92.577426 
2866.269483  	92.595065 
2867.233908  	92.552688 
2868.198332  	92.527450 
2869.162757  	92.562478 
2870.127181  	92.583307 
2871.091606  	92.574809 
2872.056030  	92.598469 
2873.020454  	92.578168 
2873.984879  	92.559239 
2874.949303  	92.545112 
2875.913728  	92.548033 
2876.878152  	92.532428 
2877.842577  	92.494167 
2878.807001  	92.494727 
2879.771426  	92.488836 
2880.735850  	92.442005 
2881.700275  	92.418442 
2882.664699  	92.416983 
2883.629123  	92.403162 
2884.593548  	92.379964 
2885.557972  	92.381149 
2886.522397  	92.332550 
2887.486821  	92.253364 
2888.451246  	92.192905 
2889.415670  	92.174328 
2890.380095  	92.150320 
2891.344519  	92.117036 
2892.308944  	92.097695 
2893.273368  	92.081803 
2894.237792  	92.057330 
2895.202217  	91.964114 
2896.166641  	91.910405 
2897.131066  	91.893005 
2898.095490  	91.868016 
2899.059915  	91.851036 
2900.024339  	91.770003 
2900.988764  	91.686740 
2901.953188  	91.641413 
2902.917613  	91.563454 
2903.882037  	91.470633 
2904.846461  	91.396682 
2905.810886  	91.321602 
2906.775310  	91.250377 
2907.739735  	91.163734 
2908.704159  	91.064869 
2909.668584  	91.003373 
2910.633008  	90.936210 
2911.597433  	90.832318 
2912.561857  	90.722278 
2913.526282  	90.622000 
2914.490706  	90.457174 
2915.455130  	90.254833 
2916.419555  	90.148117 
2917.383979  	90.086076 
2918.348404  	90.052384 
2919.312828  	90.079069 
2920.277253  	90.133443 
2921.241677  	90.222912 
2922.206102  	90.381140 
2923.170526  	90.537824 
2924.134951  	90.682567 
2925.099375  	90.803952 
2926.063800  	90.946728 
2927.028224  	91.076839 
2927.992648  	91.182962 
2928.957073  	91.317534 
2929.921497  	91.406737 
2930.885922  	91.471135 
2931.850346  	91.582749 
2932.814771  	91.686332 
2933.779195  	91.694450 
2934.743620  	91.751753 
2935.708044  	91.833476 
2936.672469  	91.881335 
2937.636893  	91.941559 
2938.601317  	92.009780 
2939.565742  	92.075600 
2940.530166  	92.064512 
2941.494591  	92.026989 
2942.459015  	92.021779 
2943.423440  	91.991414 
2944.387864  	91.971581 
2945.352289  	91.955606 
2946.316713  	91.940927 
2947.281138  	91.920893 
2948.245562  	91.884555 
2949.209986  	91.817403 
2950.174411  	91.722042 
2951.138835  	91.692231 
2952.103260  	91.663827 
2953.067684  	91.582466 
2954.032109  	91.511504 
2954.996533  	91.461415 
2955.960958  	91.399513 
2956.925382  	91.334269 
2957.889807  	91.298149 
2958.854231  	91.281999 
2959.818655  	91.250875 
2960.783080  	91.218325 
2961.747504  	91.151375 
2962.711929  	91.101753 
2963.676353  	91.096951 
2964.640778  	91.058277 
2965.605202  	90.985225 
2966.569627  	90.920988 
2967.534051  	90.958325 
2968.498476  	91.057534 
2969.462900  	91.052966 
2970.427324  	91.014885 
2971.391749  	91.030495 
2972.356173  	91.110222 
2973.320598  	91.217608 
2974.285022  	91.270180 
2975.249447  	91.301340 
2976.213871  	91.395583 
2977.178296  	91.487193 
2978.142720  	91.519898 
2979.107145  	91.604144 
2980.071569  	91.712271 
2981.035993  	91.770790 
2982.000418  	91.836489 
2982.964842  	91.925888 
2983.929267  	92.023593 
2984.893691  	92.093822 
2985.858116  	92.113045 
2986.822540  	92.164602 
2987.786965  	92.206480 
2988.751389  	92.218385 
2989.715814  	92.245970 
2990.680238  	92.302933 
2991.644663  	92.350985 
2992.609087  	92.336545 
2993.573511  	92.351525 
2994.537936  	92.410503 
2995.502360  	92.468689 
2996.466785  	92.474495 
2997.431209  	92.470152 
2998.395634  	92.467950 
2999.360058  	92.493005 
3000.324483  	92.525433 
3001.288907  	92.531709 
3002.253332  	92.534294 
3003.217756  	92.534365 
3004.182180  	92.486158 
3005.146605  	92.474308 
3006.111029  	92.554113 
3007.075454  	92.610818 
3008.039878  	92.622142 
3009.004303  	92.660142 
3009.968727  	92.665726 
3010.933152  	92.629407 
3011.897576  	92.582352 
3012.862001  	92.556591 
3013.826425  	92.682611 
3014.790849  	92.784382 
3015.755274  	92.766737 
3016.719698  	92.806353 
3017.684123  	92.884339 
3018.648547  	92.904730 
3019.612972  	92.929940 
3020.577396  	93.014366 
3021.541821  	93.024851 
3022.506245  	93.004755 
3023.470670  	93.030248 
3024.435094  	93.105468 
3025.399518  	93.094217 
3026.363943  	93.109576 
3027.328367  	93.214653 
3028.292792  	93.229698 
3029.257216  	93.219596 
3030.221641  	93.159274 
3031.186065  	93.018062 
3032.150490  	92.969034 
3033.114914  	93.098881 
3034.079339  	93.139400 
3035.043763  	93.139235 
3036.008187  	93.189967 
3036.972612  	93.210011 
3037.937036  	93.191503 
3038.901461  	93.200778 
3039.865885  	93.224506 
3040.830310  	93.243315 
3041.794734  	93.237766 
3042.759159  	93.216767 
3043.723583  	93.241276 
3044.688008  	93.233565 
3045.652432  	93.223592 
3046.616857  	93.219939 
3047.581281  	93.178034 
3048.545705  	93.048999 
3049.510130  	92.963706 
3050.474554  	92.985716 
3051.438979  	92.980312 
3052.403403  	92.944165 
3053.367828  	92.915587 
3054.332252  	92.888339 
3055.296677  	92.890325 
3056.261101  	92.771356 
3057.225526  	92.735211 
3058.189950  	92.887793 
3059.154374  	92.952169 
3060.118799  	92.980952 
3061.083223  	93.000472 
3062.047648  	93.016846 
3063.012072  	93.019046 
3063.976497  	92.925424 
3064.940921  	92.830959 
3065.905346  	92.909956 
3066.869770  	92.897497 
3067.834195  	92.885102 
3068.798619  	92.951574 
3069.763043  	92.941454 
3070.727468  	92.948220 
3071.691892  	92.995420 
3072.656317  	92.980364 
3073.620741  	92.951385 
3074.585166  	92.935225 
3075.549590  	92.976531 
3076.514015  	92.997814 
3077.478439  	92.977445 
3078.442864  	92.942468 
3079.407288  	92.887333 
3080.371712  	92.872037 
3081.336137  	92.916721 
3082.300561  	92.933992 
3083.264986  	93.014873 
3084.229410  	93.083657 
3085.193835  	93.075107 
3086.158259  	93.077353 
3087.122684  	93.031759 
3088.087108  	93.005530 
3089.051533  	93.070132 
3090.015957  	93.095396 
3090.980381  	93.095630 
3091.944806  	93.130106 
3092.909230  	93.194548 
3093.873655  	93.156661 
3094.838079  	93.123888 
3095.802504  	93.098116 
3096.766928  	93.091637 
3097.731353  	93.118881 
3098.695777  	93.115379 
3099.660202  	93.056441 
3100.624626  	93.020768 
3101.589050  	92.971147 
3102.553475  	92.953993 
3103.517899  	92.970227 
3104.482324  	93.053251 
3105.446748  	93.104699 
3106.411173  	93.069298 
3107.375597  	93.043005 
3108.340022  	93.092046 
3109.304446  	93.155128 
3110.268871  	93.142999 
3111.233295  	93.115026 
3112.197720  	93.080597 
3113.162144  	93.085852 
3114.126568  	93.114597 
3115.090993  	93.105943 
3116.055417  	93.085927 
3117.019842  	93.142647 
3117.984266  	93.158400 
3118.948691  	93.069167 
3119.913115  	93.171102 
3120.877540  	93.267200 
3121.841964  	93.186759 
3122.806389  	93.117526 
3123.770813  	93.202455 
3124.735237  	93.219547 
3125.699662  	93.218385 
3126.664086  	93.196414 
3127.628511  	93.196433 
3128.592935  	93.223011 
3129.557360  	93.224449 
3130.521784  	93.267887 
3131.486209  	93.274698 
3132.450633  	93.192326 
3133.415058  	93.126745 
3134.379482  	93.264171 
3135.343906  	93.329884 
3136.308331  	93.258408 
3137.272755  	93.260244 
3138.237180  	93.326601 
3139.201604  	93.320729 
3140.166029  	93.313222 
3141.130453  	93.338834 
3142.094878  	93.294311 
3143.059302  	93.262085 
3144.023727  	93.307828 
3144.988151  	93.392771 
3145.952575  	93.389047 
3146.917000  	93.319303 
3147.881424  	93.349708 
3148.845849  	93.441501 
3149.810273  	93.451623 
3150.774698  	93.412678 
3151.739122  	93.360233 
3152.703547  	93.358164 
3153.667971  	93.375617 
3154.632396  	93.362158 
3155.596820  	93.314398 
3156.561244  	93.333622 
3157.525669  	93.370684 
3158.490093  	93.354708 
3159.454518  	93.369500 
3160.418942  	93.365869 
3161.383367  	93.355969 
3162.347791  	93.354728 
3163.312216  	93.327008 
3164.276640  	93.345186 
3165.241065  	93.399536 
3166.205489  	93.394738 
3167.169914  	93.399036 
3168.134338  	93.405522 
3169.098762  	93.386843 
3170.063187  	93.333285 
3171.027611  	93.344690 
3171.992036  	93.385867 
3172.956460  	93.397374 
3173.920885  	93.355804 
3174.885309  	93.377062 
3175.849734  	93.370452 
3176.814158  	93.336953 
3177.778583  	93.269720 
3178.743007  	93.218807 
3179.707431  	93.291472 
3180.671856  	93.352303 
3181.636280  	93.411205 
3182.600705  	93.401771 
3183.565129  	93.323878 
3184.529554  	93.307544 
3185.493978  	93.279418 
3186.458403  	93.267602 
3187.422827  	93.292694 
3188.387252  	93.315716 
3189.351676  	93.383206 
3190.316100  	93.404291 
3191.280525  	93.368264 
3192.244949  	93.349331 
3193.209374  	93.354761 
3194.173798  	93.355646 
3195.138223  	93.395104 
3196.102647  	93.343185 
3197.067072  	93.225356 
3198.031496  	93.172846 
3198.995921  	93.300951 
3199.960345  	93.377300 
3200.924769  	93.400216 
3201.889194  	93.399008 
3202.853618  	93.372979 
3203.818043  	93.313603 
3204.782467  	93.313552 
3205.746892  	93.336324 
3206.711316  	93.272332 
3207.675741  	93.288387 
3208.640165  	93.313977 
3209.604590  	93.268156 
3210.569014  	93.210122 
3211.533438  	93.282146 
3212.497863  	93.356653 
3213.462287  	93.342046 
3214.426712  	93.228107 
3215.391136  	93.255405 
3216.355561  	93.316354 
3217.319985  	93.316249 
3218.284410  	93.317967 
3219.248834  	93.273878 
3220.213259  	93.295327 
3221.177683  	93.337534 
3222.142107  	93.352539 
3223.106532  	93.356225 
3224.070956  	93.315440 
3225.035381  	93.339572 
3225.999805  	93.367806 
3226.964230  	93.320930 
3227.928654  	93.247160 
3228.893079  	93.302391 
3229.857503  	93.371155 
3230.821928  	93.358896 
3231.786352  	93.392775 
3232.750777  	93.389383 
3233.715201  	93.344643 
3234.679625  	93.377866 
3235.644050  	93.398362 
3236.608474  	93.357791 
3237.572899  	93.343057 
3238.537323  	93.363890 
3239.501748  	93.296815 
3240.466172  	93.308782 
3241.430597  	93.385997 
3242.395021  	93.391598 
3243.359446  	93.369590 
3244.323870  	93.291266 
3245.288294  	93.140842 
3246.252719  	93.199186 
3247.217143  	93.299777 
3248.181568  	93.281686 
3249.145992  	93.224237 
3250.110417  	93.262895 
3251.074841  	93.350376 
3252.039266  	93.364799 
3253.003690  	93.370781 
3253.968115  	93.294812 
3254.932539  	93.204127 
3255.896963  	93.195346 
3256.861388  	93.184022 
3257.825812  	93.229443 
3258.790237  	93.242036 
3259.754661  	93.234857 
3260.719086  	93.261368 
3261.683510  	93.305029 
3262.647935  	93.334300 
3263.612359  	93.365518 
3264.576784  	93.348517 
3265.541208  	93.296560 
3266.505632  	93.282654 
3267.470057  	93.315540 
3268.434481  	93.364286 
3269.398906  	93.337126 
3270.363330  	93.258015 
3271.327755  	93.253962 
3272.292179  	93.257813 
3273.256604  	93.216525 
3274.221028  	93.169819 
3275.185453  	93.271809 
3276.149877  	93.292984 
3277.114301  	93.198127 
3278.078726  	93.193798 
3279.043150  	93.177648 
3280.007575  	93.177497 
3280.971999  	93.195054 
3281.936424  	93.210517 
3282.900848  	93.171164 
3283.865273  	93.157392 
3284.829697  	93.237204 
3285.794122  	93.265247 
3286.758546  	93.197711 
3287.722971  	93.180424 
3288.687395  	93.220254 
3289.651819  	93.283363 
3290.616244  	93.260716 
3291.580668  	93.178533 
3292.545093  	93.149866 
3293.509517  	93.156809 
3294.473942  	93.163846 
3295.438366  	93.186478 
3296.402791  	93.183892 
3297.367215  	93.154704 
3298.331640  	93.153192 
3299.296064  	93.210686 
3300.260488  	93.225166 
3301.224913  	93.228802 
3302.189337  	93.300371 
3303.153762  	93.261666 
3304.118186  	93.196505 
3305.082611  	93.181012 
3306.047035  	93.201948 
3307.011460  	93.253879 
3307.975884  	93.222299 
3308.940309  	93.125161 
3309.904733  	93.190108 
3310.869157  	93.210393 
3311.833582  	93.181050 
3312.798006  	93.209954 
3313.762431  	93.174681 
3314.726855  	93.210900 
3315.691280  	93.231002 
3316.655704  	93.167958 
3317.620129  	93.146281 
3318.584553  	93.208636 
3319.548978  	93.218624 
3320.513402  	93.184247 
3321.477826  	93.191938 
3322.442251  	93.201165 
3323.406675  	93.252716 
3324.371100  	93.279125 
3325.335524  	93.243401 
3326.299949  	93.264034 
3327.264373  	93.229453 
3328.228798  	93.209719 
3329.193222  	93.156397 
3330.157647  	93.119300 
3331.122071  	93.184490 
3332.086495  	93.282201 
3333.050920  	93.268737 
3334.015344  	93.180391 
3334.979769  	93.058643 
3335.944193  	93.032682 
3336.908618  	92.989054 
3337.873042  	93.051423 
3338.837467  	93.197211 
3339.801891  	93.215585 
3340.766316  	93.221593 
3341.730740  	93.176791 
3342.695164  	93.120788 
3343.659589  	93.212761 
3344.624013  	93.390938 
3345.588438  	93.374107 
3346.552862  	93.291114 
3347.517287  	93.267916 
3348.481711  	93.247999 
3349.446136  	93.236114 
3350.410560  	93.278393 
3351.374985  	93.311795 
3352.339409  	93.320528 
3353.303834  	93.236828 
3354.268258  	93.158172 
3355.232682  	93.162946 
3356.197107  	93.101905 
3357.161531  	93.118719 
3358.125956  	93.233638 
3359.090380  	93.270654 
3360.054805  	93.199312 
3361.019229  	93.146358 
3361.983654  	93.117807 
3362.948078  	93.212406 
3363.912503  	93.307626 
3364.876927  	93.203393 
3365.841351  	93.152385 
3366.805776  	93.203202 
3367.770200  	93.146697 
3368.734625  	93.129004 
3369.699049  	93.227492 
3370.663474  	93.300190 
3371.627898  	93.309881 
3372.592323  	93.242374 
3373.556747  	93.180396 
3374.521172  	93.270943 
3375.485596  	93.313747 
3376.450020  	93.224201 
3377.414445  	93.186319 
3378.378869  	93.247566 
3379.343294  	93.311308 
3380.307718  	93.310665 
3381.272143  	93.333266 
3382.236567  	93.301450 
3383.200992  	93.215592 
3384.165416  	93.113112 
3385.129841  	93.084884 
3386.094265  	93.166594 
3387.058689  	93.227631 
3388.023114  	93.292642 
3388.987538  	93.292537 
3389.951963  	93.235311 
3390.916387  	93.209421 
3391.880812  	93.124498 
3392.845236  	92.862079 
3393.809661  	92.887439 
3394.774085  	93.162411 
3395.738510  	93.188366 
3396.702934  	93.087708 
3397.667358  	92.972643 
3398.631783  	93.112489 
3399.596207  	93.235902 
3400.560632  	93.205125 
3401.525056  	93.150721 
3402.489481  	93.192194 
3403.453905  	93.130799 
3404.418330  	93.085286 
3405.382754  	93.121006 
3406.347179  	93.136509 
3407.311603  	93.044682 
3408.276028  	93.037641 
3409.240452  	93.035653 
3410.204876  	92.985563 
3411.169301  	93.040451 
3412.133725  	93.142557 
3413.098150  	93.195338 
3414.062574  	93.080853 
3415.026999  	92.992386 
3415.991423  	92.960978 
3416.955848  	92.894852 
3417.920272  	92.828917 
3418.884697  	92.794864 
3419.849121  	92.535431 
3420.813545  	92.207319 
3421.777970  	92.205732 
3422.742394  	92.339656 
3423.706819  	92.507729 
3424.671243  	92.651272 
3425.635668  	92.696531 
3426.600092  	92.646452 
3427.564517  	92.624263 
3428.528941  	92.625540 
3429.493366  	92.638379 
3430.457790  	92.630093 
3431.422214  	92.599222 
3432.386639  	92.552827 
3433.351063  	92.615113 
3434.315488  	92.716994 
3435.279912  	92.696750 
3436.244337  	92.722132 
3437.208761  	92.776934 
3438.173186  	92.760290 
3439.137610  	92.777013 
3440.102035  	92.809038 
3441.066459  	92.792101 
3442.030883  	92.661869 
3442.995308  	92.498143 
3443.959732  	92.754472 
3444.924157  	92.837742 
3445.888581  	92.755920 
3446.853006  	92.322612 
3447.817430  	91.914729 
3448.781855  	92.449140 
3449.746279  	92.850379 
3450.710704  	92.960184 
3451.675128  	93.017820 
3452.639552  	93.030852 
3453.603977  	92.955141 
3454.568401  	92.973897 
3455.532826  	92.957855 
3456.497250  	92.914054 
3457.461675  	92.942520 
3458.426099  	92.942874 
3459.390524  	92.960589 
3460.354948  	92.997768 
3461.319373  	92.874887 
3462.283797  	92.771860 
3463.248221  	92.748670 
3464.212646  	92.975598 
3465.177070  	93.079275 
3466.141495  	92.978109 
3467.105919  	92.762218 
3468.070344  	92.912157 
3469.034768  	93.112866 
3469.999193  	93.146172 
3470.963617  	93.115448 
3471.928042  	93.119515 
3472.892466  	93.147768 
3473.856891  	93.135215 
3474.821315  	92.983236 
3475.785739  	93.040756 
3476.750164  	93.186330 
3477.714588  	93.186791 
3478.679013  	93.149467 
3479.643437  	93.051742 
3480.607862  	92.675984 
3481.572286  	92.517990 
3482.536711  	92.481246 
3483.501135  	92.798252 
3484.465560  	93.064845 
3485.429984  	92.995795 
3486.394408  	93.040074 
3487.358833  	93.022712 
3488.323257  	92.689953 
3489.287682  	92.740973 
3490.252106  	93.050474 
3491.216531  	93.014173 
3492.180955  	93.058701 
3493.145380  	93.204632 
3494.109804  	93.261185 
3495.074229  	93.067057 
3496.038653  	92.812830 
3497.003077  	92.726448 
3497.967502  	92.925221 
3498.931926  	93.077212 
3499.896351  	92.965799 
3500.860775  	92.838145 
3501.825200  	92.464072 
3502.789624  	91.955072 
3503.754049  	91.862226 
3504.718473  	92.300835 
3505.682898  	92.715041 
3506.647322  	93.029223 
3507.611746  	93.135273 
3508.576171  	92.848777 
3509.540595  	92.045177 
3510.505020  	92.174548 
3511.469444  	92.769218 
3512.433869  	92.854900 
3513.398293  	92.947371 
3514.362718  	93.092632 
3515.327142  	93.150755 
3516.291567  	93.110940 
3517.255991  	92.983214 
3518.220415  	92.888076 
3519.184840  	92.885641 
3520.149264  	92.894369 
3521.113689  	93.010137 
3522.078113  	92.905791 
3523.042538  	92.060938 
3524.006962  	91.471476 
3524.971387  	91.844531 
3525.935811  	92.121139 
3526.900236  	92.060499 
3527.864660  	91.806911 
3528.829085  	91.895713 
3529.793509  	92.157337 
3530.757933  	92.493607 
3531.722358  	92.553767 
3532.686782  	92.875287 
3533.651207  	93.080675 
3534.615631  	93.083063 
3535.580056  	92.765206 
3536.544480  	92.024198 
3537.508905  	92.165353 
3538.473329  	92.833284 
3539.437754  	92.861571 
3540.402178  	92.883082 
3541.366602  	92.928065 
3542.331027  	92.911667 
3543.295451  	92.532953 
3544.259876  	92.056766 
3545.224300  	91.146257 
3546.188725  	90.957594 
3547.153149  	91.006357 
3548.117574  	91.392851 
3549.081998  	92.298468 
3550.046423  	92.625766 
3551.010847  	92.597262 
3551.975271  	92.000571 
3552.939696  	91.591252 
3553.904120  	91.983233 
3554.868545  	92.466407 
3555.832969  	92.927301 
3556.797394  	92.848892 
3557.761818  	92.797530 
3558.726243  	92.925013 
3559.690667  	92.536455 
3560.655092  	91.936844 
3561.619516  	92.262239 
3562.583940  	92.329550 
3563.548365  	92.260478 
3564.512789  	92.139729 
3565.477214  	91.298973 
3566.441638  	88.849519 
3567.406063  	88.582579 
3568.370487  	89.078274 
3569.334912  	90.699332 
3570.299336  	92.142006 
3571.263761  	92.378280 
3572.228185  	92.759442 
3573.192609  	92.856387 
3574.157034  	92.730478 
3575.121458  	92.612302 
3576.085883  	92.711491 
3577.050307  	92.598096 
3578.014732  	92.562207 
3578.979156  	92.674532 
3579.943581  	92.291198 
3580.908005  	92.242491 
3581.872430  	92.714304 
3582.836854  	92.803214 
3583.801278  	92.594293 
3584.765703  	92.541095 
3585.730127  	92.242670 
3586.694552  	90.526773 
3587.658976  	89.257450 
3588.623401  	89.687005 
3589.587825  	90.862066 
3590.552250  	92.330561 
3591.516674  	92.778859 
3592.481099  	92.695630 
3593.445523  	91.868952 
3594.409948  	91.841411 
3595.374372  	91.451448 
3596.338796  	91.164169 
3597.303221  	92.155896 
3598.267645  	92.261354 
3599.232070  	91.887091 
3600.196494  	92.069214 
3601.160919  	91.765841 
3602.125343  	91.989626 
3603.089768  	92.367480 
3604.054192  	92.757274 
3605.018617  	92.940632 
3605.983041  	92.789054 
3606.947465  	91.616995 
3607.911890  	90.817880 
3608.876314  	91.213879 
3609.840739  	90.765192 
3610.805163  	91.753201 
3611.769588  	92.053471 
3612.734012  	90.783301 
3613.698437  	90.652035 
3614.662861  	90.915062 
3615.627286  	90.944965 
3616.591710  	92.041081 
3617.556134  	91.476203 
3618.520559  	90.490011 
3619.484983  	90.480465 
3620.449408  	90.402121 
3621.413832  	91.176312 
3622.378257  	92.098510 
3623.342681  	92.651287 
3624.307106  	92.781039 
3625.271530  	92.734162 
3626.235955  	92.207160 
3627.200379  	91.873015 
3628.164803  	91.006906 
3629.129228  	88.068498 
3630.093652  	88.298913 
3631.058077  	90.897425 
3632.022501  	92.117202 
3632.986926  	92.272685 
3633.951350  	91.496566 
3634.915775  	91.744353 
3635.880199  	92.621631 
3636.844624  	92.845661 
3637.809048  	92.584655 
3638.773472  	92.465269 
3639.737897  	92.797590 
3640.702321  	92.854178 
3641.666746  	92.529669 
3642.631170  	92.050682 
3643.595595  	92.281861 
3644.560019  	92.731687 
3645.524444  	92.485395 
3646.488868  	91.418127 
3647.453293  	89.258466 
3648.417717  	89.080724 
3649.382142  	89.043548 
3650.346566  	88.224975 
3651.310990  	88.497325 
3652.275415  	90.707726 
3653.239839  	92.261754 
3654.204264  	92.692383 
3655.168688  	92.608155 
3656.133113  	91.646682 
3657.097537  	91.066431 
3658.061962  	92.368118 
3659.026386  	92.891661 
3659.990811  	92.772533 
3660.955235  	92.853507 
3661.919659  	93.135659 
3662.884084  	93.156892 
3663.848508  	93.121981 
3664.812933  	93.077864 
3665.777357  	93.088155 
3666.741782  	93.107538 
3667.706206  	93.039124 
3668.670631  	92.071967 
3669.635055  	90.706470 
3670.599480  	90.033397 
3671.563904  	90.326199 
3672.528328  	92.045246 
3673.492753  	92.554811 
3674.457177  	91.455152 
3675.421602  	88.430506 
3676.386026  	88.520304 
3677.350451  	90.619790 
3678.314875  	91.716724 
3679.279300  	91.823790 
3680.243724  	91.720918 
3681.208149  	92.634189 
3682.172573  	93.119779 
3683.136997  	93.145937 
3684.101422  	93.013762 
3685.065846  	92.870248 
3686.030271  	92.996846 
3686.994695  	92.892777 
3687.959120  	92.228126 
3688.923544  	90.767394 
3689.887969  	91.157327 
3690.852393  	90.928840 
3691.816818  	90.560660 
3692.781242  	92.162003 
3693.745666  	92.825364 
3694.710091  	92.919427 
3695.674515  	93.006538 
3696.638940  	92.901775 
3697.603364  	93.056903 
3698.567789  	93.349314 
3699.532213  	93.225728 
3700.496638  	93.177709 
3701.461062  	92.471787 
3702.425487  	91.657615 
3703.389911  	92.696285 
3704.354335  	93.276260 
3705.318760  	93.157680 
3706.283184  	93.101972 
3707.247609  	93.162751 
3708.212033  	93.176052 
3709.176458  	92.562933 
3710.140882  	91.565215 
3711.105307  	91.320134 
3712.069731  	90.401308 
3713.034156  	90.248966 
3713.998580  	91.921028 
3714.963005  	92.149423 
3715.927429  	92.382967 
3716.891853  	93.105030 
3717.856278  	93.278825 
3718.820702  	92.584632 
3719.785127  	92.091736 
3720.749551  	92.768381 
3721.713976  	92.551598 
3722.678400  	91.015508 
3723.642825  	91.462689 
3724.607249  	92.009624 
3725.571674  	91.248130 
3726.536098  	90.966460 
3727.500522  	91.272866 
3728.464947  	92.387741 
3729.429371  	93.081927 
3730.393796  	93.037840 
3731.358220  	92.712716 
3732.322645  	91.767818 
3733.287069  	91.561714 
3734.251494  	91.146335 
3735.215918  	87.753898 
3736.180343  	87.825063 
3737.144767  	89.652731 
3738.109191  	90.781385 
3739.073616  	91.319912 
3740.038040  	92.057505 
3741.002465  	91.773993 
3741.966889  	91.661377 
3742.931314  	92.320992 
3743.895738  	91.702266 
3744.860163  	88.041993 
3745.824587  	89.698863 
3746.789012  	91.297469 
3747.753436  	91.459317 
3748.717860  	91.375840 
3749.682285  	90.588989 
3750.646709  	90.070426 
3751.611134  	90.238035 
3752.575558  	89.066744 
3753.539983  	90.447531 
3754.504407  	91.840100 
3755.468832  	92.610901 
3756.433256  	92.332786 
3757.397681  	92.069124 
3758.362105  	92.363036 
3759.326529  	91.583216 
3760.290954  	90.967234 
3761.255378  	92.412441 
3762.219803  	92.979819 
3763.184227  	93.026338 
3764.148652  	93.011241 
3765.113076  	92.664975 
3766.077501  	91.667623 
3767.041925  	92.254029 
3768.006350  	92.989101 
3768.970774  	92.826328 
3769.935199  	91.792230 
3770.899623  	91.637117 
3771.864047  	92.595769 
3772.828472  	93.090185 
3773.792896  	93.232952 
3774.757321  	93.366922 
3775.721745  	93.488321 
3776.686170  	93.539912 
3777.650594  	93.375763 
3778.615019  	92.958067 
3779.579443  	92.087976 
3780.543868  	92.085976 
3781.508292  	93.039992 
3782.472716  	93.195111 
3783.437141  	93.224147 
3784.401565  	92.838454 
3785.365990  	92.290747 
3786.330414  	92.689241 
3787.294839  	93.101219 
3788.259263  	93.289695 
3789.223688  	93.332791 
3790.188112  	93.322753 
3791.152537  	93.433910 
3792.116961  	93.457546 
3793.081385  	93.448812 
3794.045810  	93.383729 
3795.010234  	93.239364 
3795.974659  	92.767524 
3796.939083  	91.832659 
3797.903508  	91.969928 
3798.867932  	92.577246 
3799.832357  	92.778573 
3800.796781  	91.976445 
3801.761206  	90.364563 
3802.725630  	90.603707 
3803.690054  	91.794546 
3804.654479  	92.813216 
3805.618903  	92.997301 
3806.583328  	92.339172 
3807.547752  	91.360841 
3808.512177  	92.384711 
3809.476601  	93.064552 
3810.441026  	93.176432 
3811.405450  	93.310186 
3812.369875  	93.406677 
3813.334299  	93.414247 
3814.298723  	93.261687 
3815.263148  	92.765441 
3816.227572  	91.242033 
3817.191997  	91.298439 
3818.156421  	92.449043 
3819.120846  	92.468555 
3820.085270  	91.749270 
3821.049695  	90.106341 
3822.014119  	89.616229 
3822.978544  	91.524563 
3823.942968  	92.428935 
3824.907392  	92.699190 
3825.871817  	92.633252 
3826.836241  	92.035191 
3827.800666  	92.022470 
3828.765090  	92.802413 
3829.729515  	93.219112 
3830.693939  	93.197371 
3831.658364  	92.382078 
3832.622788  	92.053512 
3833.587213  	92.881362 
3834.551637  	92.674039 
3835.516062  	91.698292 
3836.480486  	92.255807 
3837.444910  	92.140608 
3838.409335  	90.541401 
3839.373759  	90.916076 
3840.338184  	90.671202 
3841.302608  	90.658127 
3842.267033  	92.118028 
3843.231457  	92.419898 
3844.195882  	91.461313 
3845.160306  	92.199164 
3846.124731  	93.005294 
3847.089155  	93.177764 
3848.053579  	93.207496 
3849.018004  	92.996930 
3849.982428  	92.406945 
3850.946853  	92.403186 
3851.911277  	91.644660 
3852.875702  	89.732900 
3853.840126  	89.234903 
3854.804551  	89.098417 
3855.768975  	91.284965 
3856.733400  	91.809510 
3857.697824  	91.340521 
3858.662248  	92.391281 
3859.626673  	93.207771 
3860.591097  	93.242779 
3861.555522  	92.578964 
3862.519946  	91.766185 
3863.484371  	92.115975 
3864.448795  	91.514144 
3865.413220  	90.228762 
3866.377644  	91.551498 
3867.342069  	92.789141 
3868.306493  	92.815535 
3869.270917  	91.567624 
3870.235342  	89.212205 
3871.199766  	90.381082 
3872.164191  	91.966425 
3873.128615  	92.507439 
3874.093040  	91.177346 
3875.057464  	90.887283 
3876.021889  	92.724664 
3876.986313  	93.308540 
3877.950738  	93.318287 
3878.915162  	93.210358 
3879.879586  	92.279289 
3880.844011  	90.100392 
3881.808435  	91.235306 
3882.772860  	92.519722 
3883.737284  	92.202942 
3884.701709  	92.126505 
3885.666133  	91.346247 
3886.630558  	90.666490 
3887.594982  	92.515154 
3888.559407  	93.242501 
3889.523831  	93.187815 
3890.488256  	92.783978 
3891.452680  	91.426942 
3892.417104  	91.043810 
3893.381529  	92.267730 
3894.345953  	92.348995 
3895.310378  	92.643989 
3896.274802  	93.193220 
3897.239227  	93.201597 
3898.203651  	92.526913 
3899.168076  	91.365533 
3900.132500  	90.966940 
3901.096925  	91.950150 
3902.061349  	90.694069 
3903.025773  	90.464385 
3903.990198  	91.149621 
3904.954622  	90.525519 
3905.919047  	90.873803 
3906.883471  	91.832056 
3907.847896  	92.981966 
3908.812320  	93.384226 
3909.776745  	93.438853 
3910.741169  	93.412433 
3911.705594  	93.399486 
3912.670018  	93.366151 
3913.634442  	93.361452 
3914.598867  	93.365907 
3915.563291  	93.221280 
3916.527716  	92.242552 
3917.492140  	91.256182 
3918.456565  	92.163135 
3919.420989  	92.682961 
3920.385414  	91.941342 
3921.349838  	92.391898 
3922.314263  	93.254608 
3923.278687  	92.965517 
3924.243111  	91.994314 
3925.207536  	91.361634 
3926.171960  	92.145792 
3927.136385  	93.168066 
3928.100809  	93.314623 
3929.065234  	93.058904 
3930.029658  	92.622558 
3930.994083  	92.363073 
3931.958507  	92.011835 
3932.922932  	91.479766 
3933.887356  	92.291910 
3934.851780  	92.870708 
3935.816205  	93.202710 
3936.780629  	93.397607 
3937.745054  	93.347475 
3938.709478  	93.085872 
3939.673903  	93.216998 
3940.638327  	93.344242 
3941.602752  	93.207953 
3942.567176  	92.201700 
3943.531601  	91.549135 
3944.496025  	92.511935 
3945.460449  	93.102928 
3946.424874  	93.256829 
3947.389298  	92.596538 
3948.353723  	92.030341 
3949.318147  	92.364204 
3950.282572  	92.129502 
3951.246996  	92.489232 
3952.211421  	93.201362 
3953.175845  	93.136815 
3954.140270  	93.174036 
3955.104694  	93.288858 
3956.069119  	93.231428 
3957.033543  	93.056672 
3957.997967  	93.067713 
3958.962392  	93.195366 
3959.926816  	93.230131 
3960.891241  	93.186717 
3961.855665  	92.726512 
3962.820090  	92.631608 
3963.784514  	93.254918 
3964.748939  	93.365409 
3965.713363  	93.366204 
3966.677788  	93.429126 
3967.642212  	93.439807 
3968.606636  	93.257965 
3969.571061  	93.050448 
3970.535485  	93.212453 
3971.499910  	93.343825 
3972.464334  	93.101515 
3973.428759  	93.171921 
3974.393183  	93.283876 
3975.357608  	93.078081 
3976.322032  	92.880160 
3977.286457  	93.114540 
3978.250881  	93.434978 
3979.215305  	93.472704 
3980.179730  	93.397539 
3981.144154  	93.359565 
3982.108579  	93.263026 
3983.073003  	93.261802 
3984.037428  	93.443442 
3985.001852  	93.447280 
3985.966277  	93.360236 
3986.930701  	93.442735 
3987.895126  	93.504216 
3988.859550  	93.449515 
3989.823974  	93.310517 
3990.788399  	93.060813 
3991.752823  	93.172798 
3992.717248  	93.382233 
3993.681672  	93.393618 
3994.646097  	93.297686 
3995.610521  	93.129592 
3996.574946  	93.321702 
3997.539370  	93.472142 
3998.503795  	93.477890 
3999.468219  	93.446146 
4000.432643  	93.496935 
4001.397068  	93.501155 
4002.361492  	93.486540 
4003.325917  	93.424762 
4004.290341  	93.433511 
4005.254766  	93.446302 
4006.219190  	93.425553 
4007.183615  	93.398346 
4008.148039  	93.289206 
4009.112464  	93.137416 
4010.076888  	93.262708 
4011.041313  	93.385141 
4012.005737  	93.439742 
4012.970161  	93.384272 
4013.934586  	93.408857 
4014.899010  	93.408019 
4015.863435  	93.397524 
4016.827859  	93.408193 
4017.792284  	93.406074 
4018.756708  	93.419277 
4019.721133  	93.364638 
4020.685557  	93.343934 
4021.649982  	93.413613 
4022.614406  	93.457008 
4023.578830  	93.434992 
4024.543255  	93.391605 
4025.507679  	93.307042 
4026.472104  	93.334407 
4027.436528  	93.428632 
4028.400953  	93.432524 
4029.365377  	93.420453 
4030.329802  	93.420297 
4031.294226  	93.423231 
4032.258651  	93.405894 
4033.223075  	93.508925 
4034.187499  	93.546676 
4035.151924  	93.482022 
4036.116348  	93.443285 
4037.080773  	93.470858 
4038.045197  	93.487339 
4039.009622  	93.469867 
4039.974046  	93.465599 
4040.938471  	93.489612 
4041.902895  	93.486682 
4042.867320  	93.469580 
4043.831744  	93.359147 
4044.796168  	93.259565 
4045.760593  	93.248400 
4046.725017  	93.388864 
4047.689442  	93.424175 
4048.653866  	93.394988 
4049.618291  	93.402926 
4050.582715  	93.414538 
4051.547140  	93.399590 
4052.511564  	93.419374 
4053.475989  	93.453120 
4054.440413  	93.443464 
4055.404837  	93.392629 
4056.369262  	93.435567 
4057.333686  	93.511828 
4058.298111  	93.548239 
4059.262535  	93.494728 
4060.226960  	93.403363 
4061.191384  	93.381095 
4062.155809  	93.423857 
4063.120233  	93.464437 
4064.084658  	93.454431 
4065.049082  	93.426540 
4066.013506  	93.472471 
4066.977931  	93.464765 
4067.942355  	93.399623 
4068.906780  	93.381028 
4069.871204  	93.382811 
4070.835629  	93.354247 
4071.800053  	93.388734 
4072.764478  	93.418250 
4073.728902  	93.384734 
4074.693327  	93.401791 
4075.657751  	93.455019 
4076.622176  	93.379810 
4077.586600  	93.351438 
4078.551024  	93.370849 
4079.515449  	93.310501 
4080.479873  	93.311447 
4081.444298  	93.376861 
4082.408722  	93.359659 
4083.373147  	93.300255 
4084.337571  	93.316327 
4085.301996  	93.378075 
4086.266420  	93.345271 
4087.230845  	93.340401 
4088.195269  	93.304659 
4089.159693  	93.291003 
4090.124118  	93.350749 
4091.088542  	93.373345 
4092.052967  	93.357805 
4093.017391  	93.340164 
4093.981816  	93.309192 
4094.946240  	93.310539 
4095.910665  	93.377267 
4096.875089  	93.440736 
4097.839514  	93.398156 
4098.803938  	93.330480 
4099.768362  	93.367540 
4100.732787  	93.399745 
4101.697211  	93.400197 
4102.661636  	93.407216 
4103.626060  	93.402360 
4104.590485  	93.380812 
4105.554909  	93.334661 
4106.519334  	93.327948 
4107.483758  	93.323102 
4108.448183  	93.376874 
4109.412607  	93.420984 
4110.377031  	93.364116 
4111.341456  	93.384002 
4112.305880  	93.442265 
4113.270305  	93.429136 
4114.234729  	93.425211 
4115.199154  	93.460686 
4116.163578  	93.430468 
4117.128003  	93.397076 
4118.092427  	93.421484 
4119.056852  	93.415572 
4120.021276  	93.350659 
4120.985700  	93.346719 
4121.950125  	93.387595 
4122.914549  	93.369395 
4123.878974  	93.383020 
4124.843398  	93.406501 
4125.807823  	93.428019 
4126.772247  	93.422605 
4127.736672  	93.420686 
4128.701096  	93.447719 
4129.665521  	93.418120 
4130.629945  	93.376361 
4131.594370  	93.434140 
4132.558794  	93.525485 
4133.523218  	93.527088 
4134.487643  	93.498303 
4135.452067  	93.477994 
4136.416492  	93.429215 
4137.380916  	93.456630 
4138.345341  	93.453568 
4139.309765  	93.376640 
4140.274190  	93.394942 
4141.238614  	93.391441 
4142.203039  	93.344562 
4143.167463  	93.470528 
4144.131887  	93.479051 
4145.096312  	93.403965 
4146.060736  	93.407478 
4147.025161  	93.446516 
4147.989585  	93.436838 
4148.954010  	93.400886 
4149.918434  	93.445854 
4150.882859  	93.493986 
4151.847283  	93.509825 
4152.811708  	93.478494 
4153.776132  	93.449105 
4154.740556  	93.471778 
4155.704981  	93.431571 
4156.669405  	93.389833 
4157.633830  	93.399811 
4158.598254  	93.419936 
4159.562679  	93.437351 
4160.527103  	93.445791 
4161.491528  	93.435362 
4162.455952  	93.435358 
4163.420377  	93.433607 
4164.384801  	93.390347 
4165.349225  	93.405997 
4166.313650  	93.437947 
4167.278074  	93.403279 
4168.242499  	93.397102 
4169.206923  	93.458194 
4170.171348  	93.481240 
4171.135772  	93.444394 
4172.100197  	93.424443 
4173.064621  	93.428881 
4174.029046  	93.461880 
4174.993470  	93.434749 
4175.957894  	93.443959 
4176.922319  	93.477519 
4177.886743  	93.465228 
4178.851168  	93.446399 
4179.815592  	93.413101 
4180.780017  	93.393427 
4181.744441  	93.432314 
4182.708866  	93.439987 
4183.673290  	93.453987 
4184.637715  	93.466751 
4185.602139  	93.474854 
4186.566563  	93.433912 
4187.530988  	93.403611 
4188.495412  	93.403976 
4189.459837  	93.463632 
4190.424261  	93.473201 
4191.388686  	93.458389 
4192.353110  	93.478909 
4193.317535  	93.488083 
4194.281959  	93.433083 
4195.246384  	93.396557 
4196.210808  	93.376141 
4197.175233  	93.375803 
4198.139657  	93.400763 
4199.104081  	93.407469 
4200.068506  	93.411991 
4201.032930  	93.418175 
4201.997355  	93.507777 
4202.961779  	93.528743 
4203.926204  	93.454364 
4204.890628  	93.486639 
4205.855053  	93.496934 
4206.819477  	93.442875 
4207.783902  	93.455975 
4208.748326  	93.446318 
4209.712750  	93.464939 
4210.677175  	93.485327 
4211.641599  	93.466013 
4212.606024  	93.421248 
4213.570448  	93.417921 
4214.534873  	93.490682 
4215.499297  	93.489324 
4216.463722  	93.484184 
4217.428146  	93.381137 
4218.392571  	93.364305 
4219.356995  	93.440759 
4220.321419  	93.507510 
4221.285844  	93.564591 
4222.250268  	93.558489 
4223.214693  	93.446043 
4224.179117  	93.439580 
4225.143542  	93.471464 
4226.107966  	93.481870 
4227.072391  	93.512974 
4228.036815  	93.456370 
4229.001240  	93.419604 
4229.965664  	93.417576 
4230.930088  	93.412872 
4231.894513  	93.487107 
4232.858937  	93.535990 
4233.823362  	93.493251 
4234.787786  	93.428712 
4235.752211  	93.438208 
4236.716635  	93.447734 
4237.681060  	93.443880 
4238.645484  	93.425271 
4239.609909  	93.414270 
4240.574333  	93.408553 
4241.538757  	93.493510 
4242.503182  	93.515674 
4243.467606  	93.471024 
4244.432031  	93.397248 
4245.396455  	93.381278 
4246.360880  	93.441722 
4247.325304  	93.466864 
4248.289729  	93.482423 
4249.254153  	93.542727 
4250.218578  	93.540126 
4251.183002  	93.540470 
4252.147427  	93.475292 
4253.111851  	93.434788 
4254.076275  	93.405557 
4255.040700  	93.388576 
4256.005124  	93.418331 
4256.969549  	93.530164 
4257.933973  	93.583906 
4258.898398  	93.509349 
4259.862822  	93.386361 
4260.827247  	93.376425 
4261.791671  	93.399412 
4262.756096  	93.433855 
4263.720520  	93.417675 
4264.684944  	93.403946 
4265.649369  	93.401626 
4266.613793  	93.467701 
4267.578218  	93.465377 
4268.542642  	93.454453 
4269.507067  	93.419117 
4270.471491  	93.398627 
4271.435916  	93.432299 
4272.400340  	93.420989 
4273.364765  	93.441066 
4274.329189  	93.520402 
4275.293613  	93.468978 
4276.258038  	93.409522 
4277.222462  	93.356623 
4278.186887  	93.317550 
4279.151311  	93.320327 
4280.115736  	93.343907 
4281.080160  	93.368557 
4282.044585  	93.400334 
4283.009009  	93.379938 
4283.973434  	93.360396 
4284.937858  	93.354206 
4285.902282  	93.348775 
4286.866707  	93.371769 
4287.831131  	93.410360 
4288.795556  	93.432391 
4289.759980  	93.412589 
4290.724405  	93.387538 
4291.688829  	93.401819 
4292.653254  	93.373500 
4293.617678  	93.433992 
4294.582103  	93.512827 
4295.546527  	93.501883 
4296.510951  	93.445783 
4297.475376  	93.435874 
4298.439800  	93.460723 
4299.404225  	93.498285 
4300.368649  	93.480169 
4301.333074  	93.439654 
4302.297498  	93.387387 
4303.261923  	93.343300 
4304.226347  	93.379429 
4305.190772  	93.512173 
4306.155196  	93.535395 
4307.119620  	93.466556 
4308.084045  	93.410933 
4309.048469  	93.426533 
4310.012894  	93.439259 
4310.977318  	93.481957 
4311.941743  	93.425008 
4312.906167  	93.408912 
4313.870592  	93.415628 
4314.835016  	93.444521 
4315.799441  	93.423337 
4316.763865  	93.381786 
4317.728290  	93.423927 
4318.692714  	93.446817 
4319.657138  	93.389404 
4320.621563  	93.374614 
4321.585987  	93.377721 
4322.550412  	93.414702 
4323.514836  	93.398105 
4324.479261  	93.369830 
4325.443685  	93.353096 
4326.408110  	93.395734 
4327.372534  	93.470182 
4328.336959  	93.490974 
4329.301383  	93.468458 
4330.265807  	93.458886 
4331.230232  	93.492440 
4332.194656  	93.457842 
4333.159081  	93.443756 
4334.123505  	93.480449 
4335.087930  	93.443819 
4336.052354  	93.431282 
4337.016779  	93.456178 
4337.981203  	93.496107 
4338.945628  	93.499070 
4339.910052  	93.464671 
4340.874476  	93.428254 
4341.838901  	93.472092 
4342.803325  	93.426634 
4343.767750  	93.388002 
4344.732174  	93.450728 
4345.696599  	93.438390 
4346.661023  	93.436024 
4347.625448  	93.388454 
4348.589872  	93.340471 
4349.554297  	93.437658 
4350.518721  	93.561088 
4351.483145  	93.573659 
4352.447570  	93.466987 
4353.411994  	93.457273 
4354.376419  	93.425908 
4355.340843  	93.388135 
4356.305268  	93.412954 
4357.269692  	93.421152 
4358.234117  	93.459724 
4359.198541  	93.516067 
4360.162966  	93.485650 
4361.127390  	93.445695 
4362.091814  	93.428639 
4363.056239  	93.454463 
4364.020663  	93.531694 
4364.985088  	93.478823 
4365.949512  	93.390026 
4366.913937  	93.384133 
4367.878361  	93.425422 
4368.842786  	93.461658 
4369.807210  	93.472838 
4370.771635  	93.453545 
4371.736059  	93.439149 
4372.700484  	93.447764 
4373.664908  	93.443129 
4374.629332  	93.475657 
4375.593757  	93.517888 
4376.558181  	93.527615 
4377.522606  	93.493480 
4378.487030  	93.434326 
4379.451455  	93.386576 
4380.415879  	93.382658 
4381.380304  	93.427260 
4382.344728  	93.445581 
4383.309153  	93.398891 
4384.273577  	93.405156 
4385.238001  	93.419706 
4386.202426  	93.440812 
4387.166850  	93.468626 
4388.131275  	93.482563 
4389.095699  	93.440100 
4390.060124  	93.442775 
4391.024548  	93.460055 
4391.988973  	93.464308 
4392.953397  	93.465403 
4393.917822  	93.449118 
4394.882246  	93.420772 
4395.846670  	93.414621 
4396.811095  	93.381587 
4397.775519  	93.369334 
4398.739944  	93.441040 
4399.704368  	93.530679 
4400.668793  	93.577616 
4401.633217  	93.450859 
4402.597642  	93.376339 
4403.562066  	93.454280 
4404.526491  	93.477471 
4405.490915  	93.491727 
4406.455339  	93.455728 
4407.419764  	93.405294 
4408.384188  	93.464421 
4409.348613  	93.508489 
4410.313037  	93.482154 
4411.277462  	93.445044 
4412.241886  	93.441872 
4413.206311  	93.439460 
4414.170735  	93.475639 
4415.135160  	93.500313 
4416.099584  	93.453215 
4417.064008  	93.411137 
4418.028433  	93.361309 
4418.992857  	93.340479 
4419.957282  	93.305823 
4420.921706  	93.295099 
4421.886131  	93.344739 
4422.850555  	93.394947 
4423.814980  	93.338907 
4424.779404  	93.314914 
4425.743829  	93.300335 
4426.708253  	93.302945 
4427.672677  	93.308275 
4428.637102  	93.334194 
4429.601526  	93.398934 
4430.565951  	93.382286 
4431.530375  	93.324492 
4432.494800  	93.297775 
4433.459224  	93.265152 
4434.423649  	93.254159 
4435.388073  	93.319886 
4436.352498  	93.397388 
4437.316922  	93.425468 
4438.281347  	93.425438 
4439.245771  	93.345918 
4440.210195  	93.354993 
4441.174620  	93.377826 
4442.139044  	93.330070 
4443.103469  	93.343539 
4444.067893  	93.355908 
4445.032318  	93.442494 
4445.996742  	93.464239 
4446.961167  	93.392858 
4447.925591  	93.392075 
4448.890016  	93.382488 
4449.854440  	93.338862 
4450.818864  	93.318096 
4451.783289  	93.342565 
4452.747713  	93.327521 
4453.712138  	93.353219 
4454.676562  	93.352428 
4455.640987  	93.326200 
4456.605411  	93.346078 
4457.569836  	93.408186 
4458.534260  	93.350838 
4459.498685  	93.276078 
4460.463109  	93.268697 
4461.427533  	93.346307 
4462.391958  	93.376892 
4463.356382  	93.327248 
4464.320807  	93.320855 
4465.285231  	93.353017 
4466.249656  	93.376447 
4467.214080  	93.439993 
4468.178505  	93.476689 
4469.142929  	93.417424 
4470.107354  	93.369295 
4471.071778  	93.417862 
4472.036202  	93.444772 
4473.000627  	93.461724 
4473.965051  	93.395363 
4474.929476  	93.297486 
4475.893900  	93.318948 
4476.858325  	93.372656 
4477.822749  	93.358750 
4478.787174  	93.379239 
4479.751598  	93.380191 
4480.716023  	93.349052 
4481.680447  	93.317327 
4482.644871  	93.313834 
4483.609296  	93.315748 
4484.573720  	93.368837 
4485.538145  	93.422236 
4486.502569  	93.467933 
4487.466994  	93.486815 
4488.431418  	93.506813 
4489.395843  	93.460978 
4490.360267  	93.453827 
4491.324692  	93.400229 
4492.289116  	93.325047 
4493.253541  	93.375988 
4494.217965  	93.511951 
4495.182389  	93.512354 
4496.146814  	93.437105 
4497.111238  	93.410146 
4498.075663  	93.440917 
4499.040087  	93.443697 
4500.004512  	93.446251 
4500.968936  	93.437097 
4501.933361  	93.401827 
4502.897785  	93.398138 
4503.862210  	93.432588 
4504.826634  	93.480094 
4505.791058  	93.501740 
4506.755483  	93.453787 
4507.719907  	93.439581 
4508.684332  	93.502468 
4509.648756  	93.476271 
4510.613181  	93.394295 
4511.577605  	93.399296 
4512.542030  	93.425224 
4513.506454  	93.449710 
4514.470879  	93.477515 
4515.435303  	93.427254 
4516.399727  	93.354572 
4517.364152  	93.390397 
4518.328576  	93.369850 
4519.293001  	93.405444 
4520.257425  	93.463862 
4521.221850  	93.413755 
4522.186274  	93.433745 
4523.150699  	93.471383 
4524.115123  	93.422440 
4525.079548  	93.367742 
4526.043972  	93.363883 
4527.008396  	93.460253 
4527.972821  	93.464448 
4528.937245  	93.379062 
4529.901670  	93.359292 
4530.866094  	93.432188 
4531.830519  	93.422475 
4532.794943  	93.375981 
4533.759368  	93.451995 
4534.723792  	93.484413 
4535.688217  	93.381899 
4536.652641  	93.466940 
4537.617065  	93.536761 
4538.581490  	93.522070 
4539.545914  	93.440388 
4540.510339  	93.409651 
4541.474763  	93.329284 
4542.439188  	93.258295 
4543.403612  	93.376694 
4544.368037  	93.427336 
4545.332461  	93.302213 
4546.296886  	93.281343 
4547.261310  	93.339614 
4548.225734  	93.400776 
4549.190159  	93.406870 
4550.154583  	93.395116 
4551.119008  	93.346736 
4552.083432  	93.394824 
4553.047857  	93.491741 
4554.012281  	93.567143 
4554.976706  	93.558242 
4555.941130  	93.464621 
4556.905555  	93.418620 
4557.869979  	93.445884 
4558.834404  	93.487177 
4559.798828  	93.458275 
4560.763252  	93.345003 
4561.727677  	93.334908 
4562.692101  	93.362700 
4563.656526  	93.396472 
4564.620950  	93.441487 
4565.585375  	93.430497 
4566.549799  	93.363058 
4567.514224  	93.352804 
4568.478648  	93.369668 
4569.443073  	93.420996 
4570.407497  	93.429502 
4571.371921  	93.476246 
4572.336346  	93.482269 
4573.300770  	93.490482 
4574.265195  	93.424731 
4575.229619  	93.398568 
4576.194044  	93.410567 
4577.158468  	93.441250 
4578.122893  	93.501043 
4579.087317  	93.481547 
4580.051742  	93.375541 
4581.016166  	93.384981 
4581.980590  	93.451729 
4582.945015  	93.491137 
4583.909439  	93.436105 
4584.873864  	93.408165 
4585.838288  	93.414781 
4586.802713  	93.403954 
4587.767137  	93.350121 
4588.731562  	93.414829 
4589.695986  	93.499168 
4590.660411  	93.440716 
4591.624835  	93.368901 
4592.589259  	93.387261 
4593.553684  	93.417055 
4594.518108  	93.430568 
4595.482533  	93.347185 
4596.446957  	93.371419 
4597.411382  	93.365752 
4598.375806  	93.390903 
4599.340231  	93.477393 
4600.304655  	93.481186 
4601.269080  	93.399694 
4602.233504  	93.395779 
4603.197928  	93.453764 
4604.162353  	93.434553 
4605.126777  	93.380346 
4606.091202  	93.421341 
4607.055626  	93.462189 
4608.020051  	93.478466 
4608.984475  	93.444282 
4609.948900  	93.393134 
4610.913324  	93.376156 
4611.877749  	93.381757 
4612.842173  	93.363163 
4613.806598  	93.388331 
4614.771022  	93.378218 
4615.735446  	93.387615 
4616.699871  	93.394869 
4617.664295  	93.333744 
4618.628720  	93.313944 
4619.593144  	93.356166 
4620.557569  	93.473697 
4621.521993  	93.466918 
4622.486418  	93.377660 
4623.450842  	93.430158 
4624.415267  	93.402883 
4625.379691  	93.376953 
4626.344115  	93.375471 
4627.308540  	93.429885 
4628.272964  	93.389043 
4629.237389  	93.327875 
4630.201813  	93.335579 
4631.166238  	93.318115 
4632.130662  	93.353385 
4633.095087  	93.342194 
4634.059511  	93.326160 
4635.023936  	93.443244 
4635.988360  	93.498595 
4636.952784  	93.358877 
4637.917209  	93.353767 
4638.881633  	93.348598 
4639.846058  	93.287205 
4640.810482  	93.335168 
4641.774907  	93.412649 
4642.739331  	93.343445 
4643.703756  	93.282381 
4644.668180  	93.273477 
4645.632605  	93.233572 
4646.597029  	93.359404 
4647.561453  	93.437766 
4648.525878  	93.415733 
4649.490302  	93.418325 
4650.454727  	93.428548 
4651.419151  	93.349683 
4652.383576  	93.338651 
4653.348000  	93.371777 
4654.312425  	93.433381 
4655.276849  	93.465071 
4656.241274  	93.405633 
4657.205698  	93.339664 
4658.170122  	93.297007 
4659.134547  	93.319066 
4660.098971  	93.322159 
4661.063396  	93.363005 
4662.027820  	93.461750 
4662.992245  	93.442624 
4663.956669  	93.362773 
4664.921094  	93.358779 
4665.885518  	93.396934 
4666.849943  	93.406760 
4667.814367  	93.382991 
4668.778791  	93.386532 
4669.743216  	93.399774 
4670.707640  	93.417005 
4671.672065  	93.422536 
4672.636489  	93.410375 
4673.600914  	93.361750 
4674.565338  	93.334917 
4675.529763  	93.323992 
4676.494187  	93.370807 
4677.458612  	93.354452 
4678.423036  	93.415553 
4679.387461  	93.478789 
4680.351885  	93.425364 
4681.316309  	93.442386 
4682.280734  	93.421794 
4683.245158  	93.290254 
4684.209583  	93.271632 
4685.174007  	93.340156 
4686.138432  	93.332988 
4687.102856  	93.348721 
4688.067281  	93.378445 
4689.031705  	93.269488 
4689.996130  	93.240651 
4690.960554  	93.353151 
4691.924978  	93.330292 
4692.889403  	93.255524 
4693.853827  	93.252115 
4694.818252  	93.304012 
4695.782676  	93.332528 
4696.747101  	93.319915 
4697.711525  	93.375203 
4698.675950  	93.372878 
4699.640374  	93.313273 